#   1 NUMBER                 Running object number                                     
#   2 MAG_AUTO               Kron-like elliptical aperture magnitude                    [mag]
#   3 X_IMAGE                Object position along x                                    [pixel]
#   4 Y_IMAGE                Object position along y                                    [pixel]
#   5 X_WORLD                Barycenter position along world x axis                     [deg]
#   6 Y_WORLD                Barycenter position along world y axis                     [deg]
#   7 A_WORLD                Profile RMS along major axis (world units)                 [deg]
#   8 B_WORLD                Profile RMS along minor axis (world units)                 [deg]
#   9 THETA_WORLD            Position angle (CCW/world-x)                               [deg]
#  10 FWHM_WORLD             FWHM assuming a gaussian core                              [deg]
#  11 ELONGATION             A_IMAGE/B_IMAGE                                           
#  12 ELLIPTICITY            1 - B_IMAGE/A_IMAGE                                       
         1 -16.0150    174.5435    106.2671   1.7219169220e+01   2.5709295854e+01     5.833173     1.866392 -35.10   0.01440365    3.351    0.702
         2 -16.4904    210.2568    110.5278   1.2432939039e+01   1.8323384159e+01     2.362601     2.238577  87.09   0.01604103    1.262    0.208
         3 -17.3972    243.9005     64.1738   3.5876819292e+02   1.9164048385e+01     6.547079     2.449745 -55.51    0.0241466    3.157    0.683
         4 -17.5461    240.2750    118.6604   1.0156552766e+01   1.2310582394e+01      3.61021      2.37197  31.48   0.01942098    1.993    0.498
         5 -12.5210    226.8522      5.8535   3.4767020978e+02   2.8902565645e+01    0.3473134    0.1835339 -57.01    0.0021495    1.471    0.320
         6 -12.8801    231.7019      4.9670   3.4727005447e+02   2.8079712610e+01    0.4509377    0.1573168 -47.10  0.002143251    1.981    0.495
         7 -13.4650    190.9941    151.5153   2.4207792115e+01   1.4780813431e+01    0.7114367      0.53451   1.69  0.000493828    1.453    0.312
         8 -13.7293    245.1664    235.5171   2.9629623039e+01  -3.6742820130e+00    0.9324079    0.4177691  -6.24  0.005034998    2.800    0.643
         9 -13.5376    249.1435    247.2726   3.0716282528e+01  -5.3006281729e+00    0.6513969    0.3782091 -24.65  0.005014924    1.412    0.292
        10 -13.5298    242.4313    250.1494   3.2118372476e+01  -5.0383169297e+00    0.5123924    0.3390285  29.92  0.003703119    1.975    0.494
        11 -10.3092    250.5683    210.8938   2.5121474404e+01  -1.3193531219e+00    0.1561319   0.07978239 -31.02   0.00101834    1.579    0.367
        12 -10.2610    240.1885    208.2336   2.6227095487e+01   3.9228846693e-02    0.1317005    0.1072944 -15.32    0.0004094    1.296    0.228
        13  -9.8996    234.9805    205.4978   2.6579909094e+01   9.2868226694e-01    0.1415962   0.09431992  19.32 0.0003762926    1.460    0.315
        14 -10.0016    225.7446    204.5611   2.7873586300e+01   2.0519695833e+00     0.134668   0.09895452  31.59 0.0009333004    1.648    0.393
        15 -10.0338    212.4187    204.2038   3.0006484878e+01   3.6178200844e+00    0.1478924   0.09924053 -40.86 0.0006335956    1.678    0.404
        16 -13.0441    192.2949    194.6541   3.1971916845e+01   7.5208813021e+00    0.8585891    0.4563918 -58.32  0.003285143    4.851    0.794
        17 -12.1117    204.5016    200.0051   3.0677071322e+01   5.1663698255e+00    0.5286245    0.2558873 -12.29  0.002267028    3.285    0.696
        18 -11.6138    201.4787    198.5063   3.0959690034e+01   5.7610536333e+00    0.2257639     0.208257  -9.21 0.0009927023    1.355    0.262
        19 -10.9896    250.2200    198.5266   2.3204192283e+01   2.2404854975e-01    0.1847316    0.1210122 -31.89  0.001322745    1.382    0.277
        20 -10.1440    221.8917    195.0016   2.6913725699e+01   3.7907322932e+00     0.148573     0.139925 -43.88 0.0006463315    1.692    0.409
        21 -10.1176    180.1388    193.8841   3.4146906202e+01   9.2696265195e+00    0.1732463    0.1617065   3.60 0.0004051299    1.262    0.207
        22 -14.3228    158.5094    108.5792   2.0887843687e+01   2.8541772509e+01     1.961388    0.8601524 -51.03  0.007254181    2.579    0.612
        23 -10.8946    196.1196    226.7028   3.6379551824e+01   2.3681582694e+00    0.2352331    0.1501273  25.58   0.00102606    1.444    0.307
        24 -15.8117    153.3285    149.7159   3.1428111217e+01   2.1467329008e+01     3.757475     2.159415  30.16   0.01691723    1.892    0.472
        25 -10.9817    196.8017    222.4010   3.5609935663e+01   2.8843371072e+00    0.2758136    0.1600478 -41.27  0.001242598    1.898    0.473
        26 -12.0187    187.3065    152.6748   2.5115812114e+01   1.5171803963e+01    0.3204536    0.2685687   9.83  0.001041826    1.196    0.164
        27 -11.7684    235.2543    184.6813   2.3081633493e+01   3.6499911681e+00    0.3190999    0.2408881 -38.15  0.001854461    1.486    0.327
        28 -15.7320    226.0522    169.2644   2.1760618078e+01   6.9386307211e+00       2.8593      1.59613 -16.30   0.01553077    1.959    0.490
        29 -11.3991    203.4649    152.1995   2.2165669419e+01   1.2725138455e+01    0.2377805    0.1713063  24.67 0.0008259374    1.503    0.335
        30 -13.2909     67.7868    144.3448   5.4050552790e+01   3.7289892904e+01    0.8350806    0.4758058  56.28  0.002817378    2.065    0.516
        31 -11.9771    150.3188    131.7454   2.8188443087e+01   2.5620895886e+01     0.315571    0.2489337 -49.78 0.0005458978    1.287    0.223
        32 -14.3370    135.4128    117.5762   2.8338327674e+01   3.1494467193e+01     2.722333    0.7239622 -47.61  0.007775671    3.872    0.742
        33 -12.3546    115.5110    122.4396   3.4754157096e+01   3.4427075970e+01    0.5299193    0.2870948 -51.55  0.001399441    1.886    0.470
        34 -14.4921      5.1932    116.5247   7.3061536487e+01   5.1386431540e+01     1.039647    0.6717947 -79.84  0.004309975    1.412    0.292
        35 -10.9826    120.5764    122.5128   3.3378731665e+01   3.3410482497e+01    0.2748807    0.2390438 -49.46 0.0007062426    1.152    0.132
        36 -14.6058     52.3566    117.4214   5.4612702762e+01   4.6579512561e+01     1.277635    0.9084518  26.40  0.001844616    1.446    0.308
        37 -15.1099     43.9461    114.8458   5.7381580935e+01   4.8358245408e+01     3.021075     1.175511  19.67  0.003872059    3.109    0.678
        38 -13.3702     35.7980    115.2398   6.0677624575e+01   4.9194782244e+01    0.4591954    0.3538925  18.79  0.001041524    1.381    0.276
        39 -10.9990    125.3593    124.7622   3.2641843183e+01   3.1964078846e+01    0.3383243    0.2158868 -47.49  0.000747121    1.561    0.359
        40 -11.8554    142.9615    112.8517   2.5357540261e+01   3.0919439640e+01     0.384007    0.2713889  40.65  0.001132292    1.477    0.323
        41 -11.6879    148.5623    112.0261   2.3877416262e+01   2.9926319907e+01    0.3131053    0.2465321  45.95 0.0005212122    1.320    0.242
        42 -11.8665    142.1209    104.1506   2.3323536726e+01   3.2849086086e+01    0.3174434    0.2646212  85.24 0.0007804753    1.431    0.301
        43 -15.7690    195.5904    168.8143   2.6742683965e+01   1.1190433677e+01     1.923525     1.132489  42.53  0.007423439    1.963    0.491
        44 -10.1026    113.4457     95.4173   2.8251296825e+01   4.0878080234e+01    0.1511807    0.1499971  54.37 8.948103e-05    1.022    0.021
        45 -15.7628    249.0010    140.4026   1.3239650574e+01   8.0531469855e+00     2.264721    0.7317379 -32.87  0.008606062    2.592    0.614
        46 -11.9047    249.7991    222.3433   2.6992707657e+01  -2.5945829112e+00    0.1859337    0.1414022  -8.48 0.0008868405    1.202    0.168
        47 -10.2434    206.9250     81.2558   6.3243770122e+00   2.3425659928e+01    0.1924988    0.1429416  24.37   0.00106527    1.937    0.484
        48 -11.2119    137.6483     74.9109   1.6157134710e+01   3.9425604356e+01    0.4784802    0.2505197  60.34  0.001947499    2.045    0.511
        49 -11.7436    199.8912     73.5593   5.4076497504e+00   2.5938758887e+01    0.2878333    0.1778403  59.24  0.001539602    1.814    0.449
        50  -9.7178    109.4975     73.4599   2.2681986817e+01   4.6289222496e+01    0.1513513    0.1476721  70.60 0.0001663012    1.013    0.013
        51 -12.1344    210.6463     70.2414   3.3422070460e+00   2.4311309936e+01     0.251724    0.2100742 -22.55 0.0002153206    1.318    0.242
        52 -11.6617    204.9836     65.9618   2.9913964749e+00   2.6021624421e+01    0.3173845    0.1558343 -43.35  0.001563161    1.702    0.412
        53 -11.6502    206.7644     60.0615   1.4035775383e+00   2.6487842639e+01    0.3686325    0.2302992  28.09  0.001729225    2.993    0.666
        54 -11.1270    213.1695     58.1045   2.8141506415e-01   2.5494089186e+01    0.1785533    0.1527738 -36.60 0.0003323554    1.173    0.147
        55 -12.5138    162.7580     53.7325   5.3652753287e+00   3.6940546826e+01    0.3842285    0.2507298 -23.53  0.001538193    1.797    0.443
        56 -11.4854    210.8796     51.3142   3.5893891761e+02   2.6838617298e+01    0.2716125    0.2015524   1.62  0.001245156    2.093    0.522
        57 -12.2151    182.8807     49.5440   1.5158565430e+00   3.2945877301e+01    0.3574399     0.244918  51.28  0.001940126    1.701    0.412
        58 -11.6306    205.7553     53.5652   3.5997631050e+02   2.7566244556e+01    0.2255906     0.198735 -31.74  0.000477596    1.231    0.188
        59 -11.3612    147.2557     41.2158   4.0311665312e+00   4.2420826665e+01    0.2530107    0.1417827 -66.71  0.001073755    2.181    0.542
        60 -15.6074    237.7562     84.6019   3.5488576792e+00   1.7480021766e+01     1.131152     0.702057 -28.23   0.00417471    1.502    0.334
        61 -11.9018    202.2504     34.9241   3.5585288345e+02   3.0647437923e+01    0.3035626    0.2552663 -28.38  0.001008373    1.328    0.247
        62 -10.7949    190.0199     36.7072   3.5742555039e+02   3.3038941364e+01    0.1774508    0.1518295 -72.86 0.0004604352    1.071    0.066
        63 -10.5551    186.7108     34.7405   3.5724937917e+02   3.4006768922e+01    0.2813769    0.1928905  10.59  0.001390879    2.573    0.611
        64 -11.2959    239.0846    221.5381   2.8464856123e+01  -1.4827579715e+00    0.1883767    0.1640186  23.13   0.00151732    1.762    0.433
        65 -10.1499    198.7667     31.2183   3.5525400662e+02   3.1819830962e+01    0.1502679    0.1464454   1.77  0.000652222    1.346    0.257
        66 -10.6237    170.4031    183.6948   3.4316076166e+01   1.2364141676e+01    0.2334044    0.2171932 -38.75 0.0008336432    1.299    0.230
        67 -14.7668    194.9052    110.4941   1.4744042754e+01   2.1070923676e+01     1.303779    0.5392005  51.86  0.005530083    2.781    0.640
        68 -16.4049    244.9227     92.7090   4.4635987485e+00   1.5228754313e+01     2.119902     1.458619  65.28   0.01397046    1.909    0.476
        69 -11.2962    189.9804    213.0303   3.5408397866e+01   5.0297366762e+00    0.1808667    0.1462781   0.09 0.0004705004    1.054    0.051
        70 -12.5244    218.7057    210.6810   3.0001026009e+01   2.0151086140e+00    0.2479519    0.2065179  32.93 0.0008249416    1.681    0.405
