#   1 NUMBER                 Running object number                                     
#   2 MAG_AUTO               Kron-like elliptical aperture magnitude                    [mag]
#   3 X_IMAGE                Object position along x                                    [pixel]
#   4 Y_IMAGE                Object position along y                                    [pixel]
#   5 X_WORLD                Barycenter position along world x axis                     [deg]
#   6 Y_WORLD                Barycenter position along world y axis                     [deg]
#   7 A_WORLD                Profile RMS along major axis (world units)                 [deg]
#   8 B_WORLD                Profile RMS along minor axis (world units)                 [deg]
#   9 THETA_WORLD            Position angle (CCW/world-x)                               [deg]
#  10 FWHM_WORLD             FWHM assuming a gaussian core                              [deg]
#  11 ELONGATION             A_IMAGE/B_IMAGE                                           
#  12 ELLIPTICITY            1 - B_IMAGE/A_IMAGE                                       
         1 -14.5631      2.4942     83.7340   1.2789835985e+02   5.6548573871e+01     4.707664          nan -65.99   0.01084807   10.775    0.907
         2 -13.5102    202.6210     29.8219   6.0966746133e+01   3.0739203180e+01     1.595748     1.186943  42.12  0.006365768    1.456    0.313
         3 -14.7663      3.8848    136.7376   1.3413041824e+02   4.5540007352e+01     4.194577     1.266038 -84.97   0.01481628    5.120    0.805
         4 -13.5386    219.9161     11.8240   5.4136182197e+01   2.8488669355e+01    0.9458403    0.8239937  54.24  0.002597153    1.232    0.189
         5 -12.0836    162.6142    249.3936   1.1656887867e+02   2.3673572893e+00    0.4553697    0.1456239  43.37  0.001997088    2.476    0.596
         6 -13.6235    230.2635    248.6133   1.0485415673e+02  -8.8676462813e+00     1.874054    0.3192756  41.88  0.006325736    4.520    0.779
         7 -12.9159      9.5641    206.9555   1.3850914965e+02   3.1201619218e+01    0.6311781    0.4539212  45.98  0.003559261    1.608    0.378
         8 -14.6060     11.9434    242.5223   1.4011849448e+02   2.4724293009e+01     2.450856     1.224436  57.31   0.01819687    1.509    0.337
         9 -12.8390     40.9912    211.7281   1.3367984463e+02   2.7018815038e+01    0.5675784    0.3961141  75.70  0.002608161    1.089    0.082
        10 -10.7655     88.9809    249.5093   1.2892158910e+02   1.4071707913e+01    0.2226373   0.08016626  48.87  0.001152391    2.132    0.531
        11 -12.4310    140.1587    248.3942   1.2029977175e+02   6.2748488222e+00    0.4541595       0.3029  68.44  0.002845888    1.553    0.356
        12 -10.4669     55.2961    240.1071   1.3351368459e+02   2.0202547421e+01    0.1751788    0.1220448  51.48 0.0007317942    1.377    0.274
        13 -11.3575     81.5399    249.4725   1.3010743614e+02   1.5136612508e+01    0.2732437    0.1355183  49.74  0.001682995    1.590    0.371
        14  -9.6700    120.3189    239.3417   1.2268476656e+02   1.0926478542e+01    0.1060493   0.09125753  20.22 0.0007049532    1.717    0.417
        15 -11.8243     96.9997    245.9366   1.2729404680e+02   1.3474809082e+01    0.2628526    0.1621128  57.33  0.001124526    1.251    0.201
        16 -10.7604     45.3318    234.0005   1.3463484731e+02   2.2482737304e+01    0.2094976    0.1032209  64.37  0.001147645    1.667    0.400
        17 -12.0638    112.0228    231.5037   1.2326232821e+02   1.3555431419e+01    0.6021389   0.09342185  46.11  0.001920837    4.841    0.793
        18 -11.7354     98.0072    229.0979   1.2545855518e+02   1.6155935323e+01    0.3484079    0.1302935  53.58  0.001639072    2.344    0.573
        19 -11.6173     58.5596    213.7725   1.3084531686e+02   2.4495049731e+01    0.4681263    0.2143056  62.08  0.002541299    2.055    0.513
        20  -8.7604    152.5310    213.3730   1.1348407677e+02   9.7030542630e+00    0.1307808    0.1071596  51.00 0.0001723175    1.034    0.033
        21 -10.1143     34.5150    202.9067   1.3408704257e+02   2.9418355654e+01    0.1587237   0.08742224 -78.10 0.0006401643    1.533    0.348
        22 -11.8980     53.8727    196.6791   1.3009883526e+02   2.8367932142e+01    0.2625619    0.2093589 -65.72 0.0005741153    1.424    0.298
        23 -12.0820     61.0130    188.2383   1.2789780559e+02   2.9151541563e+01    0.2363898    0.1966812 -85.63 0.0003950333    1.135    0.119
        24 -14.7124     28.8433    224.7229   1.3658701573e+02   2.6010964305e+01    0.8625416    0.7605971 -68.78  0.007256879    1.675    0.403
        25 -13.1675     58.4666    173.5390   1.2674940371e+02   3.2495151899e+01    0.4624238    0.2505095 -49.58  0.002022409    2.258    0.557
        26 -10.9138     72.5108    175.5222   1.2412185582e+02   3.0237408582e+01      0.22507    0.1903454  87.29 0.0003972056    1.035    0.034
        27 -14.1122      4.3673    116.7468   1.3188834891e+02   4.9650736467e+01     1.569428    0.6088867 -74.38   0.00787836    2.083    0.520
        28 -11.9794     80.1335    166.7361   1.2133997153e+02   3.1017828732e+01    0.5799124    0.3935256 -55.90  0.003320114    1.504    0.335
        29 -10.5650     89.4141    167.3293   1.1942797155e+02   2.9512521914e+01    0.3598236    0.2168712  68.91  0.001114007    1.908    0.476
        30 -10.4904     94.3112    151.4973   1.1581574502e+02   3.2158049441e+01    0.2840395    0.2312615 -77.12 0.0007234793    1.156    0.135
        31 -12.1527     82.5554    150.2354   1.1830276182e+02   3.4227532120e+01    0.2793986    0.2245642 -54.02  0.001670772    1.287    0.223
        32  -9.4320     97.7972    147.2343   1.1426671349e+02   3.2527431821e+01    0.1960036    0.1693439  80.56 0.0004204808    1.113    0.102
        33 -11.7810     68.4699    143.4697   1.2048002218e+02   3.7669513351e+01    0.4833531    0.3491516  85.34  0.001818166    1.437    0.304
        34 -10.9087     64.6820    141.6911   1.2108635265e+02   3.8550337883e+01    0.3118259    0.2210716 -49.60 0.0008841701    1.475    0.322
        35  -9.9168    107.3148    136.8884   1.1005938374e+02   3.3188322507e+01    0.3991292     0.272149 -13.34   0.00108279    2.863    0.651
        36 -10.5640     94.0671    133.9120   1.1268807490e+02   3.6050483863e+01     0.236577    0.1809529 -54.74 0.0003344967    1.246    0.198
        37 -10.4328     70.8053    125.3205   1.1684007368e+02   4.1354394662e+01    0.3017081     0.198734  66.07  0.001268917    1.856    0.461
        38  -9.2381    105.1784    123.5094   1.0780960138e+02   3.6481389850e+01    0.1847093     0.139295  42.32 0.0003488777    1.390    0.281
        39 -10.8593    244.3956     95.8209   7.1486501128e+01   1.0767711219e+01    0.2120747    0.1345643 -22.53 0.0009595579    1.766    0.434
        40 -10.0804    160.2820     78.0591   8.2514653343e+01   3.4150109347e+01    0.2155716    0.1992416 -41.20 0.0004616092    1.107    0.096
        41 -10.0103     53.6994     74.1739   1.1059511300e+02   5.4323820299e+01    0.4231447    0.2204249  58.66   0.00164074    4.506    0.778
        42  -9.3585     39.7119     65.6682   1.1286403520e+02   5.7450247466e+01    0.2078265    0.1267665  51.01 0.0009836407    2.459    0.593
        43 -11.8524    124.5180    250.0736   1.2313299296e+02   8.5655160197e+00    0.4631473    0.1335884  44.59   0.00200984    2.754    0.637
        44 -11.1203     62.5420    245.4644   1.3277984289e+02   1.8369713208e+01    0.2591041    0.1441317  79.25   0.00126366    1.645    0.392
        45 -11.6335      6.5961    185.5828   1.3761479869e+02   3.5510539673e+01    0.3738459    0.1814243  74.81  0.001485344    1.846    0.458
