#   1 NUMBER                 Running object number                                     
#   2 MAG_AUTO               Kron-like elliptical aperture magnitude                    [mag]
#   3 X_IMAGE                Object position along x                                    [pixel]
#   4 Y_IMAGE                Object position along y                                    [pixel]
#   5 X_WORLD                Barycenter position along world x axis                     [deg]
#   6 Y_WORLD                Barycenter position along world y axis                     [deg]
#   7 A_WORLD                Profile RMS along major axis (world units)                 [deg]
#   8 B_WORLD                Profile RMS along minor axis (world units)                 [deg]
#   9 THETA_WORLD            Position angle (CCW/world-x)                               [deg]
#  10 FWHM_WORLD             FWHM assuming a gaussian core                              [deg]
#  11 ELONGATION             A_IMAGE/B_IMAGE                                           
#  12 ELLIPTICITY            1 - B_IMAGE/A_IMAGE                                       
         1 -14.9417      7.5647    148.8166   1.5091852725e+02   4.2742214899e+01     5.887758     1.549622  89.57   0.02270102    3.751    0.733
         2 -12.6646      2.6370     39.0985   1.4428407999e+02   6.9206370120e+01     1.906182    0.1719485 -77.17  0.004157883    9.628    0.896
         3 -12.6765      2.8662     17.4588   1.3972831280e+02   7.4278493644e+01    0.9047406    0.4330092 -77.46  0.004563952    2.017    0.504
         4 -12.0925      4.0840      4.7366   1.3458710721e+02   7.7076580746e+01    0.6069813     0.456675 -72.83  0.003936138    1.386    0.279
         5 -13.6537    209.9549      7.6679   6.3389191492e+01   3.0687984645e+01     1.450302     1.024798  42.58  0.007747162    1.645    0.392
         6 -13.4652    194.7651     27.3992   7.0650150410e+01   3.2532135521e+01     1.549263      1.40949  52.15  0.006583713    1.144    0.126
         7 -13.0625    139.3788    250.0885   1.2920829651e+02   9.0985771041e+00     1.031036    0.2816373  33.12  0.004556449    2.795    0.642
         8 -10.4239    249.7019    249.3940   1.1000468216e+02  -4.7980716896e+00    0.2080311    0.1273202  -3.15  0.001615509    1.384    0.277
         9 -11.2230     34.0892    246.4375   1.4879456636e+02   2.2067668472e+01    0.4926052    0.4086141 -49.73  0.004139534    1.909    0.476
        10 -10.4562     82.0632    242.7986   1.3956504002e+02   1.7398824417e+01    0.2321997    0.1040652  47.78  0.001378963    1.694    0.410
        11 -11.0888    185.2962    238.7780   1.1941639080e+02   4.2629001047e+00    0.2441727     0.205511  79.87  0.001667985    2.572    0.611
        12  -9.1863     71.5867    239.7209   1.4139702080e+02   1.9099872734e+01    0.1341608   0.08959138  73.30 0.0009496491    1.620    0.383
        13 -14.3768    102.6905    228.1859   1.3431366098e+02   1.7026548728e+01     7.669812          nan  38.06   0.01843986    8.549    0.883
        14 -12.3972      9.8830    206.7527   1.5223294055e+02   3.0912636781e+01    0.6507669    0.3251888  27.32  0.003321177    1.921    0.480
        15 -12.8644     35.5729    235.5179   1.4812139746e+02   2.3639106542e+01    0.2475286    0.2266171  47.19 0.0007464302    1.373    0.272
        16 -11.7164     61.8717    200.7404   1.4078761531e+02   2.6861218786e+01    0.2422873    0.2338099 -35.98  0.000540074    1.403    0.287
        17 -10.5580     18.6467    199.1251   1.5018079901e+02   3.1576916929e+01    0.1913127      0.13472  49.10 0.0002810327    1.100    0.091
        18  -9.8497    192.8311    194.7059   1.1161070033e+02   8.5337807000e+00     0.514585    0.2972523 -60.63  0.001722616    7.372    0.864
        19 -11.9935     68.0773    192.2329   1.3869613803e+02   2.7730556349e+01    0.2361204    0.2291647  55.57 0.0004746741    1.251    0.201
        20 -13.9564     40.6781    228.5158   1.4684767821e+02   2.4273568060e+01    0.7821359    0.4756338  48.39  0.002395035    1.166    0.142
        21 -13.2237     64.9953    177.1958   1.3809905999e+02   3.1100706410e+01    0.4525977    0.2698247 -44.39   0.00194536    2.333    0.571
        22 -10.8444     78.1796    179.0510   1.3502593440e+02   2.9039775473e+01     0.230995    0.2022815  36.93 0.0003926006    1.145    0.127
        23  -9.0914    101.8086    178.1320   1.2911773717e+02   2.5875576960e+01    0.2111918    0.1474173  56.55  0.001023042    1.420    0.296
        24 -11.8447     85.7412    169.6152   1.3205766485e+02   2.9930756599e+01    0.6349422      0.53191  17.17  0.003852376    1.355    0.262
        25 -10.1658     98.0728    153.3820   1.2658608070e+02   3.1511601353e+01     0.286078     0.274851  14.79 0.0008057083    1.155    0.134
        26  -9.2846    101.0710    149.0876   1.2509464091e+02   3.1954798829e+01    0.2074529    0.1914969  33.61 0.0003144058    1.084    0.078
        27 -11.9381     86.6499    152.6478   1.2957752736e+02   3.3414480728e+01    0.2753949    0.2548032 -13.81 0.0005672163    1.298    0.230
        28  -8.9549    183.1821    146.3351   1.0455511971e+02   1.7330629023e+01     0.235829    0.1872214 -70.03  0.001191686    2.080    0.519
        29  -8.8016    134.0000    146.0333   1.1587218809e+02   2.6816742379e+01    0.3740629   0.08440892 -48.77  0.001051881    4.939    0.798
        30 -12.2371     67.2044    143.6264   1.3381796607e+02   3.8143624047e+01    0.7069885    0.3988231  54.01  0.003402341    1.757    0.431
        31  -9.9569    109.4956    138.0515   1.2084497541e+02   3.2924540257e+01    0.4592422    0.2898219 -19.88  0.001584605    2.772    0.639
        32  -9.0921     81.3855    133.0187   1.2808607099e+02   3.8630372401e+01    0.1862781    0.1676856 -87.06 0.0003781613    1.126    0.112
        33 -10.3917    174.1584    249.1861   1.2269923144e+02   4.5965075501e+00    0.1670278    0.1146824  47.64 0.0008808263    1.767    0.434
        34 -10.4380     33.9893    133.1143   1.4247496968e+02   4.4275279019e+01    0.3353711   0.09155062  45.58  0.001258529    3.200    0.688
        35 -10.5142     96.8173    135.3193   1.2393669436e+02   3.5684719939e+01    0.2364187    0.2233988  -5.55 0.0003516769    1.191    0.160
        36  -9.1445    106.8831    124.3257   1.1887887598e+02   3.6419480897e+01    0.2016395    0.1698417  34.56  0.000306933    1.141    0.123
        37 -12.9654     50.1225    217.5812   1.4440093356e+02   2.5144628429e+01    0.9427455    0.6736076 -78.04  0.005671551    1.619    0.382
        38  -9.7361    167.8188    112.9734   1.0023675223e+02   2.6204313250e+01    0.2838434    0.2487988  89.40  0.001228238    1.501    0.334
        39  -9.5299    203.2114    111.7954   9.2719739567e+01   1.8756197126e+01    0.2051195    0.1572905  10.00 0.0006157653    1.347    0.258
        40  -9.0000    152.6242    212.9685   1.2235243816e+02   1.2218391946e+01    0.1569124    0.1325849  25.92 0.0004592807    1.120    0.107
        41  -8.3805     38.3742     94.7100   1.3644285687e+02   5.3294284916e+01    0.1444761   0.09101214  59.20 0.0007021555    1.726    0.421
        42  -9.6616    172.3471    222.3007   1.1968496937e+02   8.0417902372e+00    0.1903185    0.1185971   9.93  0.001112181    1.774    0.436
        43  -9.8655    157.1292     76.1498   9.2456481069e+01   3.5310249085e+01    0.2455854    0.2113273  19.84 0.0005733757    1.220    0.180
        44  -9.2438     94.5920    216.8065   1.3497075371e+02   1.9918291444e+01    0.2296907     0.135434  58.15  0.001056412    1.726    0.421
        45 -12.1458     99.1233    249.1292   1.3674596861e+02   1.4402302179e+01    0.6261163    0.2074111  30.55  0.002977865    2.620    0.618
        46  -9.9819     81.1457    248.5056   1.4011863219e+02   1.6667603855e+01    0.1976673    0.1188458  71.47  0.001333524    1.963    0.491
        47 -10.9389    237.3504    246.7455   1.1158340478e+02  -3.1523562276e+00     0.199157    0.1349696  -4.44  0.001309247    1.351    0.260
        48 -11.1605    244.3956    245.2214   1.1025749470e+02  -3.8478807955e+00    0.2058203    0.1114603 -18.06  0.001464844    1.856    0.461
