#   1 NUMBER                 Running object number                                     
#   2 MAG_AUTO               Kron-like elliptical aperture magnitude                    [mag]
#   3 X_IMAGE                Object position along x                                    [pixel]
#   4 Y_IMAGE                Object position along y                                    [pixel]
#   5 X_WORLD                Barycenter position along world x axis                     [deg]
#   6 Y_WORLD                Barycenter position along world y axis                     [deg]
#   7 A_WORLD                Profile RMS along major axis (world units)                 [deg]
#   8 B_WORLD                Profile RMS along minor axis (world units)                 [deg]
#   9 THETA_WORLD            Position angle (CCW/world-x)                               [deg]
#  10 FWHM_WORLD             FWHM assuming a gaussian core                              [deg]
#  11 ELONGATION             A_IMAGE/B_IMAGE                                           
#  12 ELLIPTICITY            1 - B_IMAGE/A_IMAGE                                       
         1 -14.4571    156.6601     50.9648   8.6314397495e+01   3.9376045246e+01     1.708226     1.406294  15.30  0.005546365    1.424    0.298
         2 -14.3521    168.0135     35.0434   7.8928544734e+01   3.8527454366e+01     1.070382    0.9879202 -28.25  0.003355925    1.124    0.111
         3 -12.1255    189.0329     14.3351   6.9483260031e+01   3.5186180610e+01    0.4059807    0.2575223 -59.96  0.001275912    1.603    0.376
         4 -13.8061    183.1126      4.2159   6.6875944507e+01   3.7744820173e+01     1.088698    0.5878016  70.97  0.004627834    1.734    0.423
         5 -10.4827     20.0009    238.8676   1.5162005653e+02   2.5600814453e+01    0.1089693   0.07354969  57.71 0.0006955862    1.074    0.069
         6 -18.8958     76.3450    244.8025   1.4147153301e+02   1.8530354675e+01     6.617674     4.101149  47.17   0.03926504    1.120    0.107
         7 -11.1955    178.0339    197.0202   1.1637578011e+02   1.0737059922e+01    0.3210221    0.2179067  53.95  0.001191737    1.815    0.449
         8 -11.5741    180.2393    193.5156   1.1540799095e+02   1.0854692460e+01    0.3672385    0.2689273 -57.44  0.002139402    2.144    0.534
         9  -9.7586    159.6639    198.2924   1.2016056120e+02   1.3539233211e+01    0.1215742   0.08726346  56.25 0.0004293504    1.641    0.391
        10 -11.8524    136.0849    197.0124   1.2482035584e+02   1.7549508354e+01    0.3520387    0.2424569  67.94  0.001964679    1.971    0.493
        11 -10.8472    165.7154    207.3551   1.2026631818e+02   1.1294648968e+01    0.2408025    0.1938996  36.43 0.0007355803    1.118    0.105
        12 -10.9487    169.8471    195.3944   1.1771256854e+02   1.2294709990e+01    0.1784486    0.1720729 -44.49 0.0007612087    1.380    0.275
        13 -10.1891    182.2375    189.2520   1.1434382923e+02   1.1109125771e+01    0.1594872    0.1344093  46.49 0.0005098141    1.342    0.255
        14 -10.9803    158.2876    193.7021   1.1976139879e+02   1.4441664648e+01    0.2300443    0.1774798  60.19 0.0007346351    1.593    0.372
        15 -12.4960    207.5921    183.7613   1.0874314617e+02   7.6647836831e+00    0.3495334    0.3142792  19.43  0.001097886    1.245    0.197
        16 -12.4298    210.4990    181.5289   1.0784272997e+02   7.4718007152e+00    0.3871165    0.2581946  -6.54   0.00187601    1.586    0.369
        17 -11.0768    164.6971    204.3502   1.2003923540e+02   1.1869238465e+01    0.2660562     0.212618  87.97  0.001335159    2.140    0.533
        18 -19.2992     58.0075     92.3020   1.2888493850e+02   5.2132629661e+01     19.62412      1.55965 -62.72   0.03293091   13.058    0.923
        19 -13.9719    193.8196    193.7331   1.1289619428e+02   8.6248164406e+00    0.9527891    0.7276892 -64.45  0.004016236    2.478    0.596
        20 -11.3585    197.6638    176.1721   1.0921334588e+02   1.0296370948e+01    0.3533455    0.2704844 -48.93  0.001495328    1.830    0.454
        21 -10.8345    145.3401    178.2000   1.2009401111e+02   1.9087228161e+01    0.1893177    0.1615194  -0.00 0.0005706124    1.349    0.259
        22 -11.4440    178.8665    173.9615   1.1241893412e+02   1.3866635363e+01    0.2806375    0.1946371 -33.75  0.001602505    1.630    0.387
        23 -10.7655    142.6852    167.6735   1.1896168177e+02   2.1360382277e+01    0.3124909    0.2141091  12.60  0.001088847    1.962    0.490
        24 -11.8115    139.3872    173.6861   1.2068378820e+02   2.0893242717e+01    0.3362856    0.2212759  57.46  0.001255898    1.693    0.409
        25 -12.7128    137.4928    170.5093   1.2059667908e+02   2.1783256405e+01    0.7243618    0.2554751  33.07  0.002526638    3.251    0.692
        26 -11.5430    227.0829    169.1195   1.0277683755e+02   6.2973373451e+00    0.4210387    0.2474176 -52.17  0.001925321    3.627    0.724
        27 -10.7182    206.1478    169.7341   1.0650100818e+02   9.7073764411e+00    0.4143787    0.2091108  23.65  0.001899073    2.320    0.569
        28 -12.0095    145.5354    168.4957   1.1846542818e+02   2.0705570095e+01    0.5998974    0.3755439 -71.67  0.002688335    2.867    0.651
        29 -11.5896    230.1743    166.8463   1.0184669625e+02   6.0689438745e+00    0.2450518    0.1582251 -36.73  0.001375296    1.808    0.447
        30  -9.7602    123.2000    166.3632   1.2322905025e+02   2.5041280538e+01    0.2042684    0.1060591  47.79 0.0004403639    1.741    0.426
        31 -11.2605     25.4465    165.6363   1.4750036015e+02   3.8603620827e+01    0.2771603    0.1867607  15.68  0.001055325    1.928    0.481
        32 -10.6542    200.4306    164.5350   1.0657222732e+02   1.1403122215e+01    0.2786396    0.2173165  43.86  0.001681169    1.334    0.250
        33 -10.3958    122.0666    157.6546   1.2208372433e+02   2.6908565118e+01    0.2069906    0.1624445  41.85 0.0008560033    1.115    0.103
        34 -12.6296    134.0306    145.7711   1.1704716588e+02   2.7011733163e+01      1.14308    0.3279128 -55.60  0.003052467    6.081    0.836
        35  -9.9483    153.3114    151.6696   1.1369286967e+02   2.2211710520e+01    0.1373975     0.108882  74.36 0.0004628444    1.671    0.402
        36 -10.9538    174.4012    148.4031   1.0850285603e+02   1.8673736153e+01    0.3136205    0.2747238 -54.57  0.001214916    1.410    0.291
        37 -12.2664    144.3084    145.8829   1.1462528847e+02   2.5006726582e+01    0.4745461    0.3462216 -85.05  0.002247169    2.142    0.533
        38 -12.4359    115.6901    139.3597   1.2043654947e+02   3.1755890513e+01    0.4707294    0.3441332 -40.67  0.002401828    1.602    0.376
        39 -12.8326    105.8642    139.4095   1.2304282544e+02   3.3522698950e+01    0.4409447    0.2732014  49.77  0.002105008    1.508    0.337
        40 -10.7448     98.8784    141.3643   1.2526620599e+02   3.4312871746e+01    0.1996575    0.1271745  28.87 0.0005286422    1.725    0.420
        41 -12.4882    105.6816    130.5635   1.2143848856e+02   3.5467261467e+01    0.6006362    0.3929238  68.60  0.002283391    1.926    0.481
        42 -11.6895    108.8242    125.8115   1.1962096668e+02   3.5923761634e+01    0.2914349     0.281873 -14.42 0.0006506632    1.178    0.151
        43 -12.7983    204.3584    198.4019   1.1174596188e+02   6.3865746171e+00    0.4525289    0.2838666   7.48  0.002454529    1.733    0.423
        44 -12.0709    119.6722    129.8093   1.1750597845e+02   3.3001399295e+01    0.4056171    0.3444003  65.81    0.0013204    1.207    0.172
        45 -11.5764    160.2565    127.9946   1.0718862845e+02   2.5055555267e+01    0.4154957    0.2872309 -35.85  0.002030145    1.561    0.359
        46 -12.2018    135.5197    122.7245   1.1187143921e+02   3.1268240255e+01    0.6453604    0.2800118 -52.29  0.002361584    2.724    0.633
        47 -12.7896    125.7915    127.2416   1.1536075689e+02   3.2333138921e+01    0.6822829    0.4694653  84.11  0.002937343    2.254    0.556
        48  -9.6325    143.9964    128.5239   1.1108231912e+02   2.8364694782e+01    0.2118375     0.136383  45.69 0.0009765622    1.438    0.304
        49 -10.2793    170.1224    205.0802   1.1909375771e+02   1.0909830301e+01    0.1765923    0.1445343  33.01 0.0004185333    1.100    0.091
        50 -10.5803    220.4322    228.7105   1.1355918505e+02   7.9540709670e-01    0.2172026    0.1522589 -39.29  0.001528602    2.178    0.541
        51  -9.7040    140.3348    120.6605   1.1019581671e+02   3.0666579673e+01    0.1537951    0.1180885  82.83  -0.00014507    1.752    0.429
        52 -11.3769    113.6704    118.8139   1.1678297339e+02   3.6516262430e+01    0.3322216    0.2262108  59.91 0.0003791817    1.597    0.374
        53 -11.7958    171.6004    117.2701   1.0221730512e+02   2.4509783248e+01    0.4338582    0.3124237  83.59  0.001742103    2.244    0.554
        54 -11.4442      5.9103    221.7281   1.5379595918e+02   2.9700721243e+01    0.1583022   0.09745456 -52.69  0.001060636    2.707    0.631
        55 -10.8810    134.7509    112.2086   1.0959092050e+02   3.3550055796e+01    0.4361696    0.1263431 -42.84  0.001298313    3.755    0.734
        56 -11.1715    134.5143    102.9706   1.0731960406e+02   3.5469004196e+01    0.2803257    0.1937571 -50.48 0.0009576799    1.550    0.355
        57 -12.1338     97.2133    110.8167   1.1978211580e+02   4.1425772891e+01    0.3466178    0.3196645  41.98  0.001062613    1.097    0.088
        58 -10.1466    211.5083    201.8878   1.1105208285e+02   4.8895579154e+00    0.1523253    0.1087434 -24.47 0.0008275201    1.550    0.355
        59 -11.9044     90.9249    109.1784   1.2135042566e+02   4.2936010970e+01    0.2916231    0.2346353  64.36  0.001509753    1.266    0.210
        60 -10.5779    117.3090    109.6592   1.1365036348e+02   3.7763358327e+01    0.1558064    0.1179066  82.10 0.0007044116    1.690    0.408
        61  -9.8647    144.4745    106.9704   1.0584034241e+02   3.2447902049e+01    0.2093454    0.1326856 -67.07 0.0008086212    2.430    0.588
        62  -9.8493     32.5871    211.6257   1.4821886546e+02   2.8930965757e+01     0.113303   0.07414941  54.51 0.0005052672    1.099    0.090
        63 -10.8094    205.4515    110.1634   9.4007825661e+01   1.8307053681e+01    0.3088636    0.1904291  40.01  0.001014814    1.619    0.382
        64 -10.6203    124.4954     94.9653   1.0786088794e+02   3.9338971759e+01     0.234338    0.2046539  46.00 0.0004405381    1.105    0.095
        65 -10.6832     41.3378    199.1557   1.4574177160e+02   3.0282908349e+01    0.1666295    0.1372295  42.64 0.0008249567    1.243    0.195
        66 -10.4580    145.8401     79.1225   9.7740820854e+01   3.7424227781e+01    0.2152327    0.1861526  10.72 0.0005130225    1.322    0.243
        67 -11.5997     99.5725     60.5344   1.0467008287e+02   5.2013380502e+01    0.6249096    0.3038234  59.82  0.002158179    2.813    0.645
        68 -10.1257     13.9037    248.6535   1.5294903676e+02   2.4656780583e+01    0.1581829    0.1031141  52.52  0.001308909    1.022    0.021
        69 -10.0607      5.1527    199.2375   1.5342125767e+02   3.3746621413e+01   0.08067007   0.06328676  87.99            0    1.343    0.256
        70 -10.3705     13.6180     59.8462   1.4143640082e+02   6.4408820586e+01    0.1863523     0.162752 -42.50 0.0004163125    1.192    0.161
        71 -13.2211    171.9833     27.5780   7.5832216124e+01   3.8361468014e+01    0.5219408    0.4324188   5.83  0.001315716    1.408    0.290
        72 -10.4214    138.9492     31.8004   8.3017955615e+01   4.6942977064e+01     0.292842     0.209705  89.47  0.001310188    1.623    0.384
        73 -10.9930    177.5518    189.4887   1.1528526909e+02   1.1854552991e+01    0.2232532     0.198674  24.76 0.0006982976    1.144    0.126
