#   1 NUMBER                 Running object number                                     
#   2 MAG_AUTO               Kron-like elliptical aperture magnitude                    [mag]
#   3 X_IMAGE                Object position along x                                    [pixel]
#   4 Y_IMAGE                Object position along y                                    [pixel]
#   5 X_WORLD                Barycenter position along world x axis                     [deg]
#   6 Y_WORLD                Barycenter position along world y axis                     [deg]
#   7 A_WORLD                Profile RMS along major axis (world units)                 [deg]
#   8 B_WORLD                Profile RMS along minor axis (world units)                 [deg]
#   9 THETA_WORLD            Position angle (CCW/world-x)                               [deg]
#  10 FWHM_WORLD             FWHM assuming a gaussian core                              [deg]
#  11 ELONGATION             A_IMAGE/B_IMAGE                                           
#  12 ELLIPTICITY            1 - B_IMAGE/A_IMAGE                                       
         1 -10.8670    211.9050     23.1567   4.5484878682e+01   2.8296332549e+01    0.5911709    0.3889713  31.07  0.001155257    1.742    0.426
         2 -11.9842    205.3959     31.2764   4.8764992646e+01   2.9097647790e+01    0.9358217    0.8506998 -10.09   0.00482356    1.062    0.059
         3 -11.9139    220.1057     13.7660   4.1800131497e+01   2.7134247978e+01    0.8076687    0.7476179 -23.72  0.002960823    1.021    0.020
         4  -8.9117     33.0000      7.0233   8.4701960166e+01   7.2379604814e+01    0.2197277   0.06119114 -47.45 0.0008093681    2.991    0.666
         5  -9.1157      6.3874      1.8102   9.9102812340e+01   7.6009366085e+01    0.1838201   0.07719051 -51.27 0.0009496512    1.734    0.423
         6  -8.1718     66.5408    238.4892   1.1473190136e+02   2.2343052201e+01    0.1169542    0.1048506  43.66 3.603693e-05    1.509    0.337
         7 -10.7432    127.8791    246.7779   1.0562646510e+02   1.3825926224e+01    0.2917644    0.2514696  20.21   0.00266496    1.498    0.333
         8 -10.4693    101.2153    249.6359   1.0997729624e+02   1.6844944989e+01    0.2881998    0.2546602  26.50  0.002718494    1.558    0.358
         9 -11.2852     96.0184    246.6507   1.1058234618e+02   1.7837026680e+01     0.479107    0.2282507  34.74  0.003194738    1.957    0.489
        10 -11.4472    111.1988    249.2249   1.0840396562e+02   1.5662901474e+01    0.7126282    0.2447644  34.68  0.003759691    2.958    0.662
        11 -11.2955    119.8645    247.6493   1.0694112194e+02   1.4754009794e+01    0.4457624    0.2282592  46.66  0.003255358    1.349    0.259
        12 -10.1914     82.6357    249.8490   1.1285847666e+02   1.9031631023e+01    0.2089631    0.1164904  43.58  0.001643259    1.276    0.216
        13 -11.8337     45.9239    219.7861   1.1712779822e+02   2.7265401098e+01    0.8854366    0.6441045 -27.27  0.004973186    3.554    0.719
        14 -12.5516     38.8467    210.5078   1.1788306105e+02   2.9429291918e+01    0.9386222    0.6731321 -28.32  0.004075805    3.552    0.718
        15 -13.8512     47.8472    200.3413   1.1574864181e+02   3.0095249377e+01     3.534564    0.9288846  61.40   0.01376669    5.046    0.802
        16 -10.2369    124.4788    228.5391   1.0458723688e+02   1.6430446293e+01     0.436313    0.1871465 -68.04  0.002270143    4.507    0.778
        17  -8.4284    177.3204    221.6649   9.5261685226e+01   9.7799551791e+00   0.09975234   0.07198582  58.59  0.000704971    1.704    0.413
        18 -10.1056     33.0749    205.1358   1.1863736056e+02   3.0870776328e+01    0.1759032    0.1119006 -84.79 0.0009489335    1.566    0.361
        19 -10.3761    142.1559    242.1434   1.0299728621e+02   1.2467122141e+01     0.210181   0.09345216  48.49  0.001343922    1.753    0.429
        20 -10.3079     52.7023    239.7541   1.1698272566e+02   2.3693008474e+01    0.2235056   0.09866419 -76.99  0.001588072    2.620    0.618
        21 -11.7341      9.0443    187.9357   1.2226493989e+02   3.5986757132e+01    0.4194282     0.335623 -85.87  0.001952279    1.419    0.295
        22  -8.2681     73.4840    188.0041   1.1007085590e+02   2.9127677863e+01    0.1472777   0.09745256 -85.81  0.001006907    1.570    0.363
        23  -9.9795     64.7092    182.2269   1.1129867094e+02   3.1203646363e+01    0.2793957    0.2226672 -35.18  0.001947539    2.117    0.528
        24 -10.1222     69.6496    176.3831   1.0981235826e+02   3.1619361158e+01    0.2272334    0.2197842  -3.35  0.001088394    1.540    0.350
        25 -14.2741      7.7611    242.2659   1.2394778130e+02   2.7729641279e+01     1.880359     1.235477  51.13   0.01210473    1.196    0.164
        26 -11.3218    135.0484    237.0802   1.0365534092e+02   1.3985798892e+01    0.3003085    0.2128291 -58.17  0.002438909    1.986    0.496
        27  -8.3544    195.5430    169.4571   8.4686601152e+01   1.2876817354e+01    0.1220362   0.09957404  27.96 3.677408e-06    1.006    0.006
        28  -9.8787     78.9186    166.4047   1.0692475138e+02   3.2212966961e+01     0.221942    0.1848093  48.48 0.0004324185    1.200    0.167
        29 -11.5957     66.3859    162.6886   1.0920478945e+02   3.4535547350e+01    0.3665349    0.2609371 -46.07  0.001276758    2.012    0.503
        30 -10.1193     74.4090    155.3499   1.0668706158e+02   3.4890743870e+01    0.2655506    0.1739315  46.00  0.001514529    1.361    0.265
        31 -11.1441     85.0304    160.3868   1.0495252293e+02   3.2483815430e+01    0.4830195    0.4225272 -76.43  0.001880563    1.251    0.201
        32 -11.2744     68.3767    144.1648   1.0676284640e+02   3.7888153367e+01    0.6045246    0.3594342  65.68  0.002595485    1.647    0.393
        33  -9.0298    100.8851    142.7932   9.9080086505e+01   3.3456248015e+01    0.4007104     0.234809 -30.60  0.001690385    3.621    0.724
        34 -10.3702     87.7676    143.1417   1.0213384032e+02   3.5393059353e+01    0.2309787    0.2119911 -77.08 0.0003925753    1.195    0.163
        35  -8.2751     32.7134    138.3846   1.1460185878e+02   4.3178535525e+01    0.1261792   0.06593269  68.71 0.0007011248    1.744    0.427
        36 -10.6978     58.2934    130.9549   1.0759978578e+02   4.1896081871e+01    0.5789877    0.2496573 -86.51  0.002377054    3.239    0.691
        37  -8.7122    109.9434    132.0692   9.5242464006e+01   3.4051305288e+01    0.2011373    0.1881548  64.75  0.001155844    1.066    0.062
        38  -9.2845     97.4225    128.7056   9.7630160062e+01   3.6791732373e+01    0.2416364    0.2147632   8.64 0.0009590959    1.502    0.334
        39 -10.7859    142.9702    230.5331   1.0176057052e+02   1.3664944421e+01    0.3067549    0.1613402  44.55  0.002085908    1.375    0.273
        40  -8.2693    107.1100    120.4750   9.3792712526e+01   3.6839517990e+01    0.1926438     0.125755  44.96 0.0004233966    1.474    0.322
        41 -10.7732    114.5807    228.6803   1.0623146939e+02   1.7735455755e+01    0.3691603    0.2241157 -89.10  0.002476496    2.527    0.604
        42  -8.4559    167.8154    113.1853   7.8578733061e+01   2.6308863068e+01    0.2362656     0.159189 -82.38 0.0009541161    2.928    0.658
        43  -8.3876    134.7348    112.7207   8.5608633642e+01   3.3210146527e+01    0.2224164     0.114998 -57.10 0.0009046419    2.406    0.584
        44  -9.9857    119.7107    229.5579   1.0546260777e+02   1.6942972504e+01    0.1894525    0.1516545  63.47  0.001494999    1.256    0.204
        45 -14.4096      2.4716    176.4444   1.2311986106e+02   3.8546879541e+01     11.58706    0.6511005 -81.45   0.03028734   12.681    0.921
        46 -10.3613    127.5813    230.7812   1.0428359179e+02   1.5736017814e+01     0.479473    0.1267906 -56.34  0.002262535    5.532    0.819
        47 -10.3190    105.9948    229.4035   1.0770961886e+02   1.8765593879e+01    0.3341281   0.08607749  43.19  0.001663496    2.637    0.621
        48  -8.0201     51.5254     64.0436   9.7831873253e+01   5.7823986842e+01    0.1855863    0.1074158 -86.04 0.0008076715    2.394    0.582
        49  -9.9518     13.3331     59.9760   1.1156476764e+02   6.2432570697e+01    0.1784104     0.124837 -76.84 0.0006023501    1.131    0.116
        50  -9.6112    144.0344     48.9861   6.5033412721e+01   4.2710810678e+01    0.4719946    0.2888095 -74.70  0.001684118    2.931    0.659
        51 -11.6034    196.5169     36.9764   5.1722067969e+01   3.0736636558e+01    0.6975723    0.5729179  56.76  0.002496177    1.261    0.207
        52 -10.5436    134.5176    245.7533   1.0450892102e+02   1.3077787482e+01    0.2764777    0.1654951 -40.04  0.002052709    2.645    0.622
        53 -10.2555     58.1683    248.0095   1.1652066879e+02   2.2009257961e+01    0.2924515   0.09045658  52.94   0.00181757    2.214    0.548
        54 -13.0816      9.2017    207.1600   1.2283706019e+02   3.2798358537e+01    0.9887168    0.6651881  44.94  0.004870297    1.355    0.262
        55 -10.1877     96.8034    225.8324   1.0895479177e+02   2.0420115790e+01    0.2462917    0.1411487  54.30  0.001157478    1.355    0.262
        56 -11.3437     48.3287    232.9023   1.1735886933e+02   2.5106167503e+01    0.3504384    0.2000568  61.56  0.002813993    1.291    0.226
        57  -9.7204    163.1323    227.3087   9.8178619442e+01   1.1206212413e+01    0.1753635    0.1021601  33.37   0.00120406    1.415    0.293
        58 -11.5164     66.5112    242.5048   1.1495283101e+02   2.1812119634e+01    0.5477634    0.1552733  43.25  0.001570569    2.222    0.550
