#   1 NUMBER                 Running object number                                     
#   2 MAG_AUTO               Kron-like elliptical aperture magnitude                    [mag]
#   3 X_IMAGE                Object position along x                                    [pixel]
#   4 Y_IMAGE                Object position along y                                    [pixel]
#   5 X_WORLD                Barycenter position along world x axis                     [deg]
#   6 Y_WORLD                Barycenter position along world y axis                     [deg]
#   7 A_WORLD                Profile RMS along major axis (world units)                 [deg]
#   8 B_WORLD                Profile RMS along minor axis (world units)                 [deg]
#   9 THETA_WORLD            Position angle (CCW/world-x)                               [deg]
#  10 FWHM_WORLD             FWHM assuming a gaussian core                              [deg]
#  11 ELONGATION             A_IMAGE/B_IMAGE                                           
#  12 ELLIPTICITY            1 - B_IMAGE/A_IMAGE                                       
         1 -13.0370    194.8630     19.6524   4.5459610106e+01   3.3899941928e+01     1.475512     0.749334 -56.38  0.006321891    2.198    0.545
         2 -13.9210    211.8439      9.0781   4.0803261431e+01   3.0814026290e+01     1.561089     1.123671  44.94  0.008619646    1.654    0.396
         3 -13.6181    172.8602     54.9426   5.9212496610e+01   3.4855885482e+01     2.515468     1.499619  28.96  0.006903443    2.433    0.589
         4 -11.0950     60.0809      3.0742   6.8212176789e+01   6.6939143890e+01    0.3663755    0.1798283  25.14  0.001769882    2.233    0.552
         5 -10.5318    245.8721      1.6722   3.6282027412e+01   2.3634590877e+01    0.4710412    0.1309311  75.90   0.00180293    3.525    0.716
         6  99.0000     63.4788    221.8949   1.1961117927e+02   2.1055376710e+01    0.3972544    0.1601681  65.90   0.00171794    3.073    0.675
         7 -12.6556    246.8757    246.5396   8.8779601454e+01  -1.0910477397e+01    0.8784996    0.6743295 -14.28  0.006551036    1.351    0.260
         8 -12.5709    249.4770    233.9285   8.6303506094e+01  -9.9005725523e+00    0.7961874    0.3524561 -37.62  0.004225315    2.694    0.629
         9 -11.1290     67.5312    206.5542   1.1741569240e+02   2.3550197253e+01    0.2084042     0.166437  75.03 0.0002768205    1.032    0.031
        10 -19.4830     26.8347    147.3272   1.2028982058e+02   4.1408362758e+01     19.15339     4.944643 -74.67    0.0679151    3.683    0.729
        11 -11.2114     59.1268    202.9899   1.1876201338e+02   2.5391152658e+01    0.2834468    0.2192162 -42.73  0.001760979    1.924    0.480
        12  -6.3101     72.9250    203.5142   1.1601381361e+02   2.3432844689e+01    0.3437101    0.1631566  63.38  0.001596145    2.309    0.567
        13  -8.7947     87.8307    202.4205   1.1281395294e+02   2.1504056302e+01    0.1667017    0.1177751  30.36 0.0009283936    1.698    0.411
        14 -10.8294    192.9855    194.9576   8.9748718667e+01   4.5775541296e+00    0.8198488    0.4347683 -62.63  0.002669117    5.294    0.811
        15  -7.1764     56.5546    224.4886   1.2111490710e+02   2.1453687298e+01    0.1242976   0.08223203  67.66 0.0007995761    1.221    0.181
        16 -11.5052     62.0553    195.5595   1.1743435778e+02   2.6564471498e+01    0.3514884    0.2318974 -44.96  0.001634567    2.180    0.541
        17  -9.1842     82.5866    194.9586   1.1303605431e+02   2.3832818087e+01    0.2538707    0.1543954  48.53  0.001372267    1.475    0.322
        18  -8.7508     78.2211    192.9579   1.1373235533e+02   2.4892325064e+01       0.1385   0.09711196 -75.99 0.0007877883    1.380    0.275
        19 -11.7800    149.7607    188.7457   9.7560719152e+01   1.3736448744e+01     0.438361    0.3649337  86.40   0.00207878    1.434    0.303
        20 -10.9739     96.2441    190.1697   1.0947280747e+02   2.2763158859e+01    0.6159273    0.4387518  11.71  0.001074891    2.380    0.580
        21 -11.1542     99.3023    180.9120   1.0748914662e+02   2.4264556071e+01    0.2881833    0.2692708 -13.90 0.0006561658    1.406    0.289
        22  -9.5511    243.6557    187.6853   7.8941965084e+01  -3.1728394304e+00    0.1367272   0.08760071   6.71 0.0003804476    1.713    0.416
        23  -9.8496    237.9991    185.4917   7.9498018345e+01  -1.9186675665e+00    0.1591799    0.1172127  65.48 0.0008081972    2.385    0.581
        24 -10.8851    131.1978    180.4846   1.0021576151e+02   1.8826431304e+01    0.2495452    0.2001929 -56.30 0.0006008775    1.324    0.245
        25 -10.6145    189.3439    177.6394   8.7166836294e+01   8.2285748817e+00    0.4861585    0.3587405 -56.11  0.002482393    1.692    0.409
        26 -10.6287    235.9907    174.9989   7.7746809109e+01  -1.5745416916e-02     0.223628    0.1494193   6.24  0.001144646    1.689    0.408
        27  -9.6901    156.6216    189.8835   9.6293081360e+01   1.2239169275e+01    0.2283197     0.178634  32.71 0.0004503684    1.238    0.192
        28 -10.1653    240.3892    169.2179   7.5785630382e+01   9.0203689725e-02    0.1836167    0.1165504 -39.67 0.0004896018    1.631    0.387
        29 -10.5156    230.4935    167.0181   7.7073642296e+01   2.2073415540e+00    0.3141399    0.1197476 -41.70  0.001211322    2.745    0.636
        30  -9.3303      2.3179    161.8221   1.2716496919e+02   4.0189715724e+01    0.1688535    0.1204815  59.95 0.0003606821    1.330    0.248
        31 -10.9311     91.9502    157.7537   1.0560559866e+02   3.0678391016e+01    0.2748694    0.2471296 -64.15 0.0004047547    1.140    0.123
        32 -11.8986     97.7231    151.2293   1.0303114260e+02   3.1252590368e+01    0.6150035    0.4827927 -29.75  0.003154941    1.662    0.398
        33  -9.8727    187.2928    151.9129   8.2169984473e+01   1.3395551417e+01    0.3388737     0.217192  60.24  0.001179758    1.970    0.492
        34  -9.7074    113.4181    151.4193   9.9134429839e+01   2.8462431261e+01    0.3336814    0.2128655  79.33  0.001094357    2.359    0.576
        35  -9.5284    174.8729    149.1401   8.4196330078e+01   1.6561731631e+01     0.226815    0.2095009  84.92 0.0004515908    1.233    0.189
        36 -10.7384    107.5406    145.4712   9.9452494740e+01   3.0897983514e+01    0.5035549    0.2924983 -80.76  0.001435532    2.764    0.638
        37 -11.3631    108.5491    137.8240   9.7639977084e+01   3.2502339633e+01    0.5759622    0.3450585 -39.19  0.002460901    1.959    0.489
        38  -9.9592    143.5101    145.5451   9.0558564859e+01   2.3917601164e+01    0.2798425    0.1448316 -59.00  0.001035015    2.400    0.583
        39 -11.0743    133.9237    145.9330   9.2956272206e+01   2.5779518358e+01      1.32474    0.3336964 -55.06  0.003060612    6.179    0.838
        40 -11.8451     96.9751    137.1561   1.0054630215e+02   3.4696498291e+01    0.3161496    0.2893676  89.72 0.0002819495    1.050    0.047
        41 -10.9734    106.0031    130.9691   9.6849674646e+01   3.4573444360e+01    0.4364436    0.3357107 -61.27  0.001635134    1.270    0.212
        42 -10.4863    135.8954    128.2701   8.8463418989e+01   2.9322500563e+01    0.6716971    0.1932816 -51.65  0.001838411    4.011    0.751
        43 -10.3261    115.4837    128.8307   9.3854975297e+01   3.3303427186e+01    0.3243992    0.2706607 -39.97 0.0004802406    1.253    0.202
        44  -9.1263     98.5062    214.6744   1.1205760755e+02   1.7448776267e+01    0.2306257    0.1879406  17.86  0.001400451    1.719    0.418
        45  -9.7999    160.8302    127.7767   8.2326613736e+01   2.4013299964e+01    0.3476242    0.2920842  79.19  0.001682801    1.410    0.291
        46 -10.5877    103.2793    124.5446   9.6161534414e+01   3.6578414962e+01    0.2960432    0.2524247 -11.19 0.0005709039    1.467    0.318
        47 -10.4692    120.3894    123.2213   9.1247369933e+01   3.3639445700e+01    0.4485883    0.2802753 -26.72  0.001759689    2.328    0.570
        48  -9.5012    110.6709    118.0694   9.2621202865e+01   3.6721983538e+01    0.2356878    0.2147505  46.69 0.0003867798    1.137    0.121
        49  -8.7610    150.5592    117.4827   8.2158565983e+01   2.8497134043e+01    0.1573805    0.1513928 -75.34 0.0002763795    1.068    0.063
        50  -9.9806    231.2641    113.7373   6.4875013793e+01   1.0915401095e+01    0.2724643     0.250802  35.06 0.0007970149    1.165    0.142
        51  -9.8317    167.4574    112.4886   7.6912946432e+01   2.5667685273e+01     0.375376    0.2704532 -72.41  0.001037579    1.909    0.476
        52 -10.1039    135.0000    112.0569   8.4620833511e+01   3.3111838720e+01    0.4800868    0.1391365 -43.94   0.00138081    3.419    0.708
        53 -10.1188    134.5866    105.7647   8.3045078511e+01   3.4575916451e+01     0.489667    0.1498944 -45.71  0.001446912    3.227    0.690
        54 -11.5332    119.0357    110.1981   8.8357384063e+01   3.6879582587e+01    0.6336628     0.447912  66.20  0.002798282    1.782    0.439
        55  -9.7477    205.4760    110.3529   6.8553073222e+01   1.7216226214e+01     0.310779    0.2538335  36.11 0.0008033756    1.303    0.232
        56  -9.2762    184.6153    212.7202   9.4496446059e+01   3.2126232914e+00    0.2119311    0.1721358 -52.22  0.001277731    1.541    0.351
        57 -10.2547     43.9869    211.6334   1.2245992935e+02   2.5506125524e+01    0.2667858    0.1538524 -79.25  0.001629306    1.581    0.368
        58  -9.2296    183.0952     83.1663   6.5546984751e+01   2.7527269949e+01    0.2450936    0.2164243  16.51  0.001230444    1.277    0.217
        59  -8.7786    153.6155     82.1471   7.1546075931e+01   3.4991079208e+01     0.220588    0.1496991 -24.61 0.0005831374    1.676    0.403
        60  -8.9800     75.6372    247.2610   1.1949959888e+02   1.4828259746e+01    0.1221748   0.09775751 -75.76 0.0004672599    1.437    0.304
        61 -10.7195     71.9351    245.0571   1.1997292253e+02   1.5704942789e+01    0.1917651    0.1442892 -69.39  0.001097857    1.556    0.357
        62  -8.6600     93.5169     62.4682   8.1600003051e+01   5.2020947281e+01    0.1430189    0.1353944 -26.59 0.0008085889    1.071    0.066
        63 -10.9619     59.1481    230.4868   1.2111151939e+02   1.9995478434e+01     0.189721    0.1355839  80.46 0.0002852531    1.198    0.166
        64 -13.0638    188.0298     40.5530   5.2357657352e+01   3.3042078592e+01    0.9275757    0.7399296  76.75  0.002753059    1.237    0.192
        65 -12.8844    193.0707     33.9738   4.9729817743e+01   3.2621844000e+01    0.7506622    0.5317194  63.72  0.001644339    1.357    0.263
        66 -11.3072     39.3781    212.8732   1.2342087075e+02   2.5797592456e+01    0.1776043    0.1334448  53.80 0.0002854168    1.249    0.200
