#   1 NUMBER                 Running object number                                     
#   2 MAG_AUTO               Kron-like elliptical aperture magnitude                    [mag]
#   3 X_IMAGE                Object position along x                                    [pixel]
#   4 Y_IMAGE                Object position along y                                    [pixel]
#   5 X_WORLD                Barycenter position along world x axis                     [deg]
#   6 Y_WORLD                Barycenter position along world y axis                     [deg]
#   7 A_WORLD                Profile RMS along major axis (world units)                 [deg]
#   8 B_WORLD                Profile RMS along minor axis (world units)                 [deg]
#   9 THETA_WORLD            Position angle (CCW/world-x)                               [deg]
#  10 FWHM_WORLD             FWHM assuming a gaussian core                              [deg]
#  11 ELONGATION             A_IMAGE/B_IMAGE                                           
#  12 ELLIPTICITY            1 - B_IMAGE/A_IMAGE                                       
         1  99.0000    125.8231    104.7850   6.5295425853e+01   3.6209168027e+01     17.72076     10.89963  61.97   0.07428106    1.908    0.476
         2 -16.3024    239.3859     70.2221   3.7128139627e+01   1.7203178103e+01     5.520373     3.933082  -6.34   0.02514495    1.589    0.371
         3 -13.5056    234.8546     29.9822   2.7925143549e+01   2.2720709626e+01     1.707957     1.169771  63.98  0.006428616    1.711    0.416
         4 -13.7971    218.1057     32.2752   2.9730105198e+01   2.6023959120e+01      3.63763      1.13677 -52.18   0.01306994    3.389    0.705
         5 -14.9486    236.3783     53.0540   3.3372118612e+01   1.9826254298e+01     1.385024    0.9274188 -13.00  0.003939543    1.632    0.387
         6 -10.3688    134.0350    145.4492   7.2446825964e+01   2.6292341053e+01     1.113915    0.3460113 -54.90  0.003256448    4.955    0.798
         7 -14.2083    244.2786     10.6890   2.2791649526e+01   2.2769104282e+01     3.086342    0.7258772 -36.41   0.01315912    2.561    0.609
         8  -9.7313    126.0208     15.9796   3.4729967357e+01   5.1429892651e+01    0.3086772    0.2183352 -12.42 0.0006076049    1.645    0.392
         9  -9.8188    155.5976     13.2418   2.9780596203e+01   4.3595361272e+01    0.4965271    0.2722257  -5.31  0.001954573    2.521    0.603
        10  -9.0586    218.8632     11.9454   2.4401012933e+01   2.7995575237e+01    0.2887585     0.149858 -49.90 0.0008779585    1.602    0.376
        11  -8.1710    214.9903      3.9686   2.2530834818e+01   2.9625553649e+01    0.1468103    0.1203104 -64.80            0    1.096    0.088
        12 -12.0303    194.0733    157.2482   6.2522557981e+01   1.3515784207e+01    0.7618281    0.5149649 -63.83   0.00135335    2.886    0.653
        13 -10.6441    245.3703    248.2497   6.8720632171e+01  -3.2557385357e+00    0.2418372     0.153488  17.14  0.002052826    1.133    0.117
        14  -9.3959    174.0313    249.3929   7.9955425587e+01   4.5675683236e+00    0.2405025     0.165549  51.61  0.001083962    2.136    0.532
        15  -9.0012    240.8470    207.0733   6.3574130149e+01   9.4136159114e-01    0.1462978    0.1181269   7.55 0.0006092139    1.242    0.195
        16  -9.7324    248.4911    201.2650   6.1592690290e+01   6.1891537275e-01    0.2291675    0.1957908  49.47  0.001515558    2.170    0.539
        17  -9.0393     15.8838    202.0582   1.0838419082e+02   3.1365559997e+01    0.1689485    0.1292485  54.41 -0.0009232552    1.051    0.049
        18  -9.7300    195.3133    198.9959   6.9506648334e+01   7.7019188632e+00    0.3180764    0.1784321 -55.28  0.001477912    4.125    0.758
        19 -10.5152    192.0418    192.5984   6.9065774009e+01   8.9803364527e+00    0.5636836    0.3380131 -56.82  0.002662351    3.502    0.714
        20  -9.3868    204.9705    200.0505   6.8040690832e+01   6.2429519269e+00    0.1890507    0.1153763   5.44  0.001140652    1.747    0.427
        21 -10.8795    217.3577    186.2098   6.3799679023e+01   6.1893707686e+00    0.2970969    0.2835309  69.77   0.00223372    1.768    0.435
        22  -9.7855    210.1402    187.5865   6.5188890145e+01   7.0283492809e+00    0.2089992    0.1808372 -53.17  0.001462525    1.846    0.458
        23  -8.5251     18.9816    186.6308   1.0703544601e+02   3.4203965795e+01    0.1638421    0.1185931  45.72 0.0005570041    1.130    0.115
        24 -10.6418    234.7950    179.6360   6.0031852411e+01   4.5839129204e+00    0.2752435    0.2013471  -8.64 0.0005162905    1.134    0.118
        25  -9.5968    209.1781    180.3819   6.4135058842e+01   8.0548994176e+00    0.2631456    0.1387613  29.64  0.001472583    1.781    0.439
        26  -8.4218     51.3264    249.6932   1.0294659384e+02   1.9318249125e+01    0.1163406   0.05331632  51.16  0.000273357    1.651    0.394
        27 -13.4525    175.5724     85.1967   4.9355185741e+01   2.8506013364e+01     1.460189     1.071413   7.06  0.002397092    1.868    0.465
        28 -10.3403    195.7696    244.1588   7.5709063765e+01   2.5294311868e+00    0.1843077    0.1338392  20.95 0.0003618736    1.080    0.074
        29 -11.7161    177.9584    141.8586   6.2405610344e+01   1.8685696455e+01    0.7116566    0.3755461 -54.05  0.003002179    2.812    0.644
        30 -10.3234    184.6690    143.9693   6.1589287115e+01   1.7130495092e+01    0.3678036    0.2498229  57.72  0.001782822    1.862    0.463
        31 -12.7216      4.5262    154.7586   1.0952944666e+02   4.2512562783e+01    0.8656293    0.5027109 -89.64  0.004892334    1.561    0.359
        32  -9.8640    164.4514    160.9830   6.8801083805e+01   1.7997431861e+01    0.2347628    0.1756383  36.71  0.000187602    1.229    0.186
        33  -8.6966     40.5966    157.1549   9.9362097130e+01   3.8468535673e+01    0.2241795    0.1197698 -85.41 0.0006747864    1.924    0.480
        34 -10.7130    177.2747    155.7426   6.5302562538e+01   1.6603439149e+01    0.3297423    0.2179181 -20.05  0.001610073    1.716    0.417
        35  -8.5332    213.7174    155.0473   5.8821234533e+01   1.0633267245e+01    0.1669275    0.1368327 -15.34 0.0004689563    1.106    0.096
        36  -8.3834    108.0097    155.0359   8.0577172479e+01   2.9051676344e+01    0.1608736    0.1414893  46.92 0.0009225431    1.020    0.019
        37 -12.3236     65.7413    138.8638   8.9767222843e+01   3.9527613496e+01     2.070304     1.343314  70.28  0.008894749    1.658    0.397
        38 -12.2922     50.6357    140.0637   9.4561720339e+01   4.1319054279e+01    0.8064287    0.4750862 -83.62  0.002175931    1.764    0.433
        39 -13.0393     35.1765    144.0205   9.9757168032e+01   4.2204150579e+01     1.984465    0.7939875  21.83  0.001323379    2.971    0.663
        40 -10.0452    145.5072    148.5648   7.0438698427e+01   2.3563453750e+01    0.2650384     0.206716 -74.93   0.00126867    1.746    0.427
        41  -8.8316    175.0481    177.0181   6.9584037799e+01   1.3729890550e+01    0.1774958    0.1512274  65.77 0.0005109501    1.647    0.393
        42 -12.1041    158.3105     94.0236   5.4977053972e+01   3.0961928428e+01    0.6453412    0.5465087 -19.54 0.0006900718    1.286    0.222
        43  -9.9164    158.2077    142.8633   6.6553615822e+01   2.2208240889e+01    0.3425601    0.2559307 -43.94  0.001505672    1.420    0.296
        44 -10.5360    151.6946    138.9865   6.7141397670e+01   2.4146673685e+01    0.3133316    0.1988706  36.83  0.001084813    1.547    0.354
        45 -10.7344    156.9013    137.1727   6.5642681595e+01   2.3467548802e+01    0.5206291    0.2826493  55.57  0.002235301    2.203    0.546
        46  -8.7891    194.9833    172.2267   6.5117778855e+01   1.1260371027e+01    0.2033286    0.1589317 -47.03  0.001278665    1.655    0.396
        47 -10.3026    211.7229    134.0748   5.4959375127e+01   1.3806967266e+01    0.2322669    0.1768269 -25.92  0.001045719    1.200    0.167
        48 -13.0059     43.4142    141.0319   9.6911522923e+01   4.1982506813e+01     1.722995      0.77279  40.44  0.002708158    1.919    0.479
        49 -10.8939    209.2340    139.2707   5.6422810350e+01   1.3510765998e+01     0.391623    0.2414682   6.42  0.001301349    2.189    0.543
        50 -10.7828    224.6073    128.9265   5.1960576267e+01   1.2314984365e+01    0.3429135    0.3255448  42.29  0.002413461    1.297    0.229
        51 -10.0510    209.3105    127.7079   5.3994418529e+01   1.5122196942e+01    0.4256956    0.2203408 -44.46    0.0020389    2.120    0.528
        52 -11.3974    161.1747    128.2090   6.2796315053e+01   2.4223279234e+01    0.4772615    0.3354047 -44.53  0.001803862    1.474    0.322
        53 -13.4192    197.0298     89.5418   4.7028460291e+01   2.3101587833e+01      2.35428    0.6168769  47.19  0.007477938    4.287    0.767
        54  -8.8873     31.4311    123.9326   9.8922065215e+01   4.7601039081e+01    0.3756255    0.1276519 -84.72  0.001253234    3.550    0.718
        55  -9.0612    161.9943    243.1894   8.1334531554e+01   6.7485917832e+00    0.1580057    0.1293792  19.61 0.0002823723    1.147    0.128
        56  -9.0700    214.4548    121.1548   5.1796416274e+01   1.5123301847e+01    0.2247888    0.1147662 -28.10 0.0006035927    1.841    0.457
        57  -9.5435    236.9121    171.5905   5.8333714162e+01   5.2058326228e+00    0.2108247    0.1312127 -39.87  0.001315552    1.934    0.483
        58 -11.5895    167.3786    114.5505   5.8377496469e+01   2.5353207640e+01    0.6018434    0.3777793 -31.43  0.002840568    1.659    0.397
        59 -10.8153    173.1105    114.5261   5.7260833510e+01   2.4162384488e+01     0.410871    0.3838468 -87.27  0.001574876    1.221    0.181
        60  -8.7201     58.8701    120.1767   8.9021644452e+01   4.5121276696e+01    0.2136893    0.1738142  65.38 0.0002713459    1.147    0.128
        61  -8.3968     79.5212    110.4878   8.0260904585e+01   4.4207716640e+01    0.2617858    0.1447386 -72.54  0.001024938    2.229    0.551
        62  -9.0235    221.1803    109.8545   4.8344931629e+01   1.5463287094e+01    0.1873606    0.1535382 -43.24 0.0006021123    1.266    0.210
        63 -10.3780    175.9321    107.4393   5.5019744234e+01   2.4761490172e+01    0.3234528    0.2571281 -54.21 0.0005422453    1.369    0.270
        64  -9.1160    163.8662    238.8653   8.0500132470e+01   7.0245254478e+00     0.159464    0.1329177  10.56 0.0003665509    1.187    0.157
        65  -9.9005    149.1877    105.6823   5.9971081240e+01   3.0878908323e+01    0.3281488    0.2890671  30.83 0.0007068953    1.198    0.165
        66  -9.3081    150.2916    101.6994   5.8699497807e+01   3.1379527609e+01    0.2267289    0.2117136 -74.09 0.0004141676    1.116    0.104
        67  -9.7192    247.9888    235.0097   6.6592724152e+01  -2.4163657024e+00     0.162706   0.08574041   5.80  0.001143275    1.709    0.415
        68 -10.2235     77.9413    103.4710   7.9203450168e+01   4.6198403555e+01    0.2576605    0.2188717 -71.17 0.0002598625    1.163    0.140
        69  -8.4625    164.9453    234.2470   7.9755083721e+01   7.4419843547e+00    0.1532482     0.106546  26.36 0.0002208742    1.080    0.074
        70  -9.4255    243.4661    229.4885   6.6468955238e+01  -1.4573687946e+00   0.09981273   0.06881882   7.72 7.459285e-05    1.002    0.002
        71 -14.2152    235.9352    108.9369   4.6198633519e+01   1.2988037309e+01     1.904399     1.542949 -53.04  0.008222894    1.466    0.318
        72 -10.3560    151.0378     71.3985   4.9946740028e+01   3.6664740223e+01    0.3004253    0.2283634 -40.28  0.000511516    1.283    0.220
        73  -9.4430    126.0660     66.5193   5.3892027597e+01   4.3774592486e+01    0.2861961    0.2224982 -45.65  0.000424624    1.275    0.215
        74  -9.5029    158.0821     62.3398   4.5824469241e+01   3.6401789845e+01    0.3957519    0.1920417 -39.41 0.0009877043    1.934    0.483
        75  -9.3483    197.4196     58.3583   3.8788735052e+01   2.7467913874e+01    0.3167506    0.2411612 -24.51  0.001714651    1.301    0.231
        76  -9.9154    192.4841     56.9081   3.9009867335e+01   2.8807728258e+01    0.3591763    0.2506487 -43.94   0.00129611    1.298    0.230
        77  -9.1862    103.0466     62.1199   5.8585228690e+01   5.0279706972e+01    0.3153877    0.2540955  89.45  0.001501874    1.408    0.290
        78  -8.9102    186.2794     60.0707   4.0719740772e+01   2.9828711716e+01    0.1991738    0.1723248 -40.16 0.0003095652    1.070    0.065
        79 -10.4127    181.6863     56.5542   4.0349670650e+01   3.1426977051e+01    0.3837323    0.2304146 -33.17 0.0005270672    1.549    0.355
        80 -10.2678    177.3465     56.4502   4.0935807718e+01   3.2498660496e+01    0.4988772    0.2101901 -32.60   0.00162896    2.188    0.543
        81 -11.3237    181.5625     45.0208   3.6977692927e+01   3.3038131000e+01    0.7779232    0.4738367 -11.51  0.003405457    2.135    0.532
        82  -9.5771    144.3815     58.1248   4.7050760466e+01   4.0574164331e+01    0.2511232    0.2066701  51.77 0.0005460181    1.261    0.207
        83  -8.7258    186.9795     53.9678   3.8890758570e+01   3.0512897026e+01    0.2156428    0.1685041  25.50 0.0005758568    1.624    0.384
        84  -8.8440    212.1045    166.0231   6.1124570749e+01   9.4486922743e+00    0.1796796    0.1537818  68.02 0.0005044497    1.884    0.469
        85 -10.4907    205.6809     46.7321   3.4695281575e+01   2.7093073036e+01      0.46368    0.3654307 -81.13  0.002420212    1.344    0.256
        86  -8.8374    204.5709     42.4686   3.3655567933e+01   2.7872955632e+01    0.2186811    0.2058598  21.92 0.0006454727    1.262    0.208
        87  -8.9176    113.9700     49.0576   5.0655691254e+01   4.9980947235e+01    0.2279744    0.2149555 -80.86 0.0003032112    1.024    0.023
        88  -8.7919    200.2302     43.5852   3.4409072727e+01   2.8738218213e+01    0.2489388    0.1669552 -29.38 0.0006058025    1.386    0.278
        89  -8.2062    196.6869     37.6505   3.3119958284e+01   3.0301511102e+01     0.569866    0.3164618  54.24  0.002679946    2.008    0.502
        90 -10.4078    187.4362     38.6560   3.4398405837e+01   3.2410788025e+01    0.4366851    0.3768067  73.59  0.001301721    1.218    0.179
        91  -9.9211    190.6996     35.9743   3.3261528136e+01   3.1944754411e+01    0.4737773    0.2365063 -58.45  0.001998249    2.167    0.539
        92 -10.4908    153.7857     38.4657   3.8771182465e+01   4.1060040940e+01    0.4116982    0.2914973 -16.12  0.001083866    1.649    0.394
        93 -10.7323    121.5194     37.8500   4.4482779023e+01   4.9802161092e+01    0.3119877    0.2886126 -46.45  0.001662666    1.093    0.085
        94 -10.1246    159.3675     36.3856   3.7240678473e+01   3.9861965025e+01    0.2946514     0.266687  86.09 0.0004963602    1.084    0.078
        95  -8.2938    204.0225     36.6070   3.2109087504e+01   2.8705056488e+01    0.2558571    0.1286085  85.53  0.001108962    2.412    0.585
        96  -8.6213     96.8060     34.9965   4.9485061338e+01   5.6730788676e+01    0.2047927    0.1185345 -34.14 0.0008543424    1.766    0.434
        97 -10.2134    147.5040     33.4704   3.8013740744e+01   4.3410043640e+01    0.2856724    0.2433615  63.39 0.0009722024    1.190    0.159
        98 -10.6999    144.6993     30.8698   3.7521777576e+01   4.4507653530e+01    0.3955411    0.2334663 -20.82  0.001291856    1.910    0.476
        99  -8.9177    114.0006     30.4954   4.3137390392e+01   5.2891955317e+01    0.2282094    0.1079921  43.25 0.0008103435    2.529    0.605
       100  -8.4671    198.1566     26.4327   2.9808735667e+01   3.1259329970e+01    0.2454145    0.1411141 -35.49  0.001204592    1.504    0.335
       101 -10.7682    179.2529     24.2298   3.0928408584e+01   3.6178922324e+01    0.6335083    0.4279663  79.75  0.002723819    1.490    0.329
       102 -10.6571    125.6220     23.4725   3.7878882371e+01   5.0659885035e+01    0.3571143    0.2500212 -26.55  0.001023101    1.500    0.333
       103 -10.7788    143.6456     22.7012   3.4688931170e+01   4.5805781538e+01    0.3914675     0.223991  80.95  0.001678818    1.797    0.443
       104  -8.2537    159.7616     20.9314   3.1972453549e+01   4.1646825349e+01     0.194785    0.1769895 -47.93 0.0004302718    1.084    0.078
       105  -9.5072    147.9637     18.4871   3.2555841168e+01   4.5108777349e+01    0.2242343    0.1389165  74.82 0.0007373071    1.558    0.358
       106 -10.0818    131.9702    226.6077   8.5044405768e+01   1.2826345434e+01    0.1938783    0.1669544  33.17 0.0005450337    1.138    0.121
       107  -9.1150     68.0188     16.4837   4.9491184019e+01   6.6621036548e+01    0.2424408    0.1961458  -6.47 0.0005357885    1.385    0.278
       108  -8.9497    189.9634     15.0385   2.7196921491e+01   3.4479501067e+01    0.2229216    0.1752763 -56.07 0.0007689592    1.107    0.097
       109  -8.7407     83.6627    219.0614   9.4244534067e+01   2.0471783373e+01    0.1560456    0.1319707  47.86 0.0003971027    1.112    0.100
       110 -11.4121    173.3127    148.8538   6.4716386611e+01   1.8403183092e+01    0.6959446    0.4050826  -9.71  0.002864751    3.008    0.668
       111  -9.6780    237.6791    217.0963   6.5531966288e+01   3.3172633155e-01     0.193313    0.1457542  27.60  0.000976092    1.441    0.306
       112  -8.6158    155.0509    213.4643   7.8947946588e+01   1.1483428888e+01    0.1589618    0.1323885  20.59 5.934902e-05    1.071    0.066
