#   1 NUMBER                 Running object number                                     
#   2 MAG_AUTO               Kron-like elliptical aperture magnitude                    [mag]
#   3 X_IMAGE                Object position along x                                    [pixel]
#   4 Y_IMAGE                Object position along y                                    [pixel]
#   5 X_WORLD                Barycenter position along world x axis                     [deg]
#   6 Y_WORLD                Barycenter position along world y axis                     [deg]
#   7 A_WORLD                Profile RMS along major axis (world units)                 [deg]
#   8 B_WORLD                Profile RMS along minor axis (world units)                 [deg]
#   9 THETA_WORLD            Position angle (CCW/world-x)                               [deg]
#  10 FWHM_WORLD             FWHM assuming a gaussian core                              [deg]
#  11 ELONGATION             A_IMAGE/B_IMAGE                                           
#  12 ELLIPTICITY            1 - B_IMAGE/A_IMAGE                                       
         1 -14.6043    181.7050    110.2463   1.4729031431e+01   2.4111245926e+01     5.089634     1.613835 -43.48   0.01759131    2.764    0.638
         2 -14.4497    217.7511    116.9547   1.0688649503e+01   1.6770954613e+01     2.007418     1.844529  32.99   0.01411851    1.327    0.246
         3 -14.7904    239.9240     60.7960   3.5666839488e+02   2.1341697901e+01     6.478551     2.050436 -57.35   0.02284277    4.989    0.800
         4 -14.0475    243.6661     93.8822   2.9580284741e+00   1.6220291891e+01     2.074003     1.076328 -51.93   0.01176344    1.803    0.445
         5 -11.6515    238.1166     37.0786   3.5195601747e+02   2.4627817862e+01    0.6301723     0.372306  69.45   0.00407956    2.002    0.500
         6 -11.3786    245.0087     27.7512   3.4965962765e+02   2.4537710324e+01    0.5996861    0.1465473 -50.88  0.002694263    2.969    0.663
         7 -11.5220    249.6048     19.7503   3.4785280273e+02   2.4656748621e+01     1.057073          nan -45.06  0.003828119    4.581    0.782
         8 -11.6891    233.3100      4.1986   3.4548870590e+02   2.9108316533e+01     0.493027    0.2391409 -80.88   0.00221418    1.990    0.498
         9 -15.2450    240.0790    133.9177   1.1086863683e+01   1.0914323205e+01     3.570859     1.717799  35.03   0.01897708    2.917    0.657
        10 -10.4869    245.5009      2.9993   3.4477672386e+02   2.7097057938e+01    0.1950607    0.1486747 -50.11  0.001541841    1.156    0.135
        11  -8.4456    230.5728    213.7000   2.6143484185e+01   6.3637221859e-01    0.1383926   0.08756311 -37.80 0.0009377001    1.558    0.358
        12  -9.2762    248.6981    250.3106   2.8726012571e+01  -5.3754770673e+00    0.2051681   0.09837897  12.89  0.001412097    1.920    0.479
        13  -9.5217    231.2771    249.9055   3.1269749007e+01  -3.9208899425e+00    0.2365237    0.1334509  33.73  0.001414824    2.303    0.566
        14  -9.6563    247.3522    209.5037   2.3017622181e+01  -4.3287787602e-01    0.2881677    0.2269493 -56.74  0.002012387    2.554    0.609
        15  -8.6274    227.4546    206.2293   2.5461880177e+01   1.9563815529e+00    0.1444489   0.09087335 -41.08 0.0009402854    1.658    0.397
        16  -9.1628     11.6900    206.6530   7.3851050607e+01   2.7478223504e+01    0.1220552   0.09231011 -41.06 0.0005511387    1.708    0.414
        17 -12.5605    210.7050    100.4366   8.1628466458e+00   2.0560521012e+01      1.86868    0.6151875 -29.24  0.004494326    5.709    0.825
        18 -12.2704    159.4529    110.4098   1.8880743041e+01   2.8353759003e+01     1.192931    0.7179255 -37.49   0.00326682    1.612    0.380
        19  -9.6851    215.6316    241.7342   3.2626131019e+01  -1.5558233579e+00    0.1984575    0.1816959  86.79  0.001448369    2.679    0.627
        20  -9.6247     53.6799    233.2347   6.5122630967e+01   1.7689389745e+01    0.2002851    0.1859725  18.62 0.0003795697    1.180    0.153
        21 -11.3808    233.0007    197.4555   2.3215543428e+01   2.5817487694e+00    0.3238381    0.2180747 -34.17  0.001125129    1.320    0.243
        22  -7.7681     50.6720    171.2658   6.0319473950e+01   3.2263357422e+01    0.1515983   0.09614987  54.82 0.0003396096    1.572    0.364
        23  -9.3731    180.4352    194.5736   3.1657897919e+01   9.2040460220e+00    0.2971063    0.2080655 -55.92  0.001400133    1.910    0.477
        24  -8.6809     76.5488    192.3732   5.5472105538e+01   2.3895953092e+01    0.2723182    0.1837395 -22.25  0.001091839    2.003    0.501
        25 -11.6068    134.1924    148.0010   3.2986944254e+01   2.5261982481e+01     1.502988    0.3982937 -55.38  0.003688001    5.912    0.831
        26  -9.5595      2.4274    156.0221   7.3993705264e+01   4.0748230014e+01    0.2502572    0.1905937 -12.07   0.00137272    1.628    0.386
        27 -10.8147     68.2790    144.3313   5.1043410406e+01   3.7009679166e+01    0.7918178    0.4043243  56.48  0.002638637    2.478    0.596
        28  -9.1759    147.6151    229.1965   4.3455059180e+01   7.4886593303e+00    0.2029502     0.143169  29.75   0.00071744    1.312    0.238
        29  -8.8326      2.2575    145.9843   7.3476448517e+01   4.3435860776e+01    0.1769858    0.1086325 -85.00  0.000327549    1.483    0.326
        30 -10.5057    142.1847    133.0006   2.7878803608e+01   2.7061490435e+01    0.4719398    0.4363052 -13.94  0.002084797    1.118    0.106
        31 -10.1881    137.3445    138.8374   3.0298944948e+01   2.6695081348e+01    0.6254843    0.2118401 -49.72   0.00175766    2.922    0.658
        32 -11.7061    137.4806    127.5590   2.7756617554e+01   2.9108296747e+01     1.095794    0.4659255 -50.04  0.004092589    2.328    0.571
        33 -11.0404    133.3665    114.3807   2.5616517575e+01   3.2751176976e+01    0.7259673    0.4360453 -34.40  0.002889572    1.872    0.466
        34 -10.3433    135.1510    106.7893   2.3285157300e+01   3.4001960904e+01    0.5501547    0.2540435 -44.85  0.001590424    2.070    0.517
        35  -9.7648    165.7378    133.7885   2.2965459696e+01   2.2617158212e+01    0.2520598    0.1633274 -40.58 0.0007616249    1.418    0.295
        36 -11.4499    160.9352    129.1815   2.2927286014e+01   2.4387055200e+01    0.5841185    0.3382554 -43.39  0.002719923    1.593    0.372
        37  -8.5001    120.9431    128.6932   3.2168687299e+01   3.1986765309e+01    0.2112078    0.1883338  47.35 0.0006958813    1.152    0.132
        38  -8.0968     70.6934    128.7183   4.7392130905e+01   4.0773244978e+01     0.152473      0.11899 -23.90 0.0001724557    1.559    0.359
        39 -11.0375    168.9751    126.6204   2.0751328684e+01   2.3419460110e+01     0.394638     0.277081  49.70  0.001326236    1.600    0.375
        40 -13.0290      3.9586    107.4485   6.9868124196e+01   5.3889237921e+01     2.708128     1.203567  30.43  0.008700657    2.247    0.555
        41 -12.0189     61.1594    109.3410   4.6739546348e+01   4.7366134549e+01     1.659515     1.369778  45.79  0.008347494    1.225    0.184
        42 -12.3989     40.7064    108.5204   5.4622264003e+01   5.0378041287e+01     1.000231    0.6405483 -62.50   0.00264926    1.472    0.321
        43 -12.0708     31.9316    108.7861   5.8280407125e+01   5.1289121397e+01    0.7817683    0.5738881  19.86  0.001605728    1.461    0.316
        44 -12.0801     48.3318    112.3021   5.2305844820e+01   4.8390769706e+01    0.7492736    0.6335877 -27.51  0.003094773    1.319    0.242
        45 -10.2086    149.8735    113.3095   2.1572708722e+01   2.9676710010e+01    0.2958304     0.281574  71.73 0.0006079342    1.120    0.107
        46  -9.3986    142.3392    113.3127   2.3243848931e+01   3.1178799938e+01    0.2735249    0.1470746  40.53 0.0009764971    2.049    0.512
        47 -11.2998     47.9674    106.9796   5.1375968474e+01   4.9879625336e+01    0.6123707    0.4891478 -76.32  0.001427639    1.259    0.206
        48  -9.7070    126.9921    109.5377   2.5985225989e+01   3.5087262550e+01    0.3375564     0.209372 -47.41 0.0005562191    1.554    0.357
        49 -12.9279    200.4820    114.4337   1.2640919964e+01   2.0027573388e+01     1.244071    0.9482822 -25.63  0.007373475    1.317    0.240
        50 -13.0531    187.5466    174.8987   2.6909427922e+01   1.1591985481e+01     1.943094    0.6530306 -39.28  0.005485416    2.735    0.634
        51  -9.7107    143.7897    105.7508   2.1035969391e+01   3.2437794481e+01     0.333687    0.2639891 -82.04  0.001362748    1.533    0.347
        52  -8.0214    100.6543    100.7748   3.0997771973e+01   4.2424196725e+01    0.1956374    0.1425432 -59.07  0.000205916    1.406    0.289
        53 -10.7872     20.8861     97.0253   6.1086565343e+01   5.5572084442e+01    0.6690839    0.4190636 -81.81  0.003103126    1.615    0.381
        54  -9.0593    156.9768     93.5295   1.5169695627e+01   3.2077169148e+01    0.2807002    0.1857103 -31.40 0.0006995233    1.632    0.387
        55  -8.9102    112.4336     93.0808   2.5434137057e+01   4.1711272307e+01    0.4164152    0.1468647 -46.60  0.001362701    2.779    0.640
        56  -8.1024    142.0563     91.6548   1.7739635229e+01   3.5612630252e+01    0.1900772    0.1861808  89.64 0.0006090712    1.074    0.068
        57 -14.5301    177.1362    165.8534   2.7203989934e+01   1.4692547405e+01     3.088484      2.56118 -85.64    0.0176218    1.887    0.470
        58  -8.8042    110.0346     82.7724   2.3094789076e+01   4.4425007809e+01    0.2549763    0.2034453 -46.15 0.0005009293    1.241    0.194
        59  -9.2773    228.1674    223.1384   2.7943358026e+01  -3.6397457870e-01    0.1707309    0.1416057 -16.37 0.0003679181    1.321    0.243
        60  -9.0050    134.2192     75.4922   1.4913968236e+01   4.0428521310e+01    0.2853137    0.2032614 -43.14 0.0008340033    1.358    0.264
        61 -13.7422    236.7050    107.9566   6.4937172927e+00   1.5232454270e+01     1.531989    0.6423776 -45.73  0.007705862    1.999    0.500
        62  -8.5894    210.4507     70.4989   1.5791772618e+00   2.5184413280e+01    0.3299294    0.1433918 -30.82  0.001469787    2.377    0.579
        63 -14.2991    205.5670    178.1520   2.4318470495e+01   8.6416287462e+00      2.65991     1.887556 -36.42   0.01688206    1.260    0.206
        64 -10.0446    221.5091     68.6532   5.2056460895e-04   2.3437714358e+01    0.2245604    0.2044093 -84.35 0.0003706514    1.249    0.200
        65  -8.1014    185.5134     69.5722   4.4169165942e+00   3.0205449814e+01    0.1330761    0.1149181 -55.96   0.00010345    1.017    0.016
        66  -8.6688    193.1296     68.2121   3.0932824437e+00   2.8868994598e+01    0.1830645    0.1698271 -35.47 0.0004021255    1.215    0.177
        67  -9.4531    215.9271     60.5132   3.5877019039e+02   2.5587056013e+01    0.2883947    0.2365692 -29.37  0.001594645    1.334    0.251
        68  -9.9068    220.3522     59.0337   3.5801835326e+02   2.4978347534e+01    0.2423561    0.1976078  54.73 0.0008804593    1.584    0.369
        69  -8.7956     15.1333    182.6267   7.1704653058e+01   3.2939150371e+01    0.1745606     0.125262   5.10 0.0005085253    1.666    0.400
        70 -10.4863    181.2935     50.9736   2.6421964422e-01   3.3854336737e+01    0.2906178      0.22761  87.54 0.0009620279    1.287    0.223
        71  -9.6076    186.0391     48.6714   3.5912212221e+02   3.3164516889e+01    0.2537028    0.2080861 -57.86 0.0003386521    1.018    0.018
        72 -10.3929    224.2230    219.6905   2.8045152499e+01   4.6998570074e-01    0.2121489    0.1933832  -7.88 0.0007760627    1.518    0.341
        73  -9.5427    241.5354    221.6495   2.5697752075e+01  -1.4212587837e+00    0.1842633    0.1625995 -10.90  0.001327988    1.531    0.347
        74 -10.4382    158.0276     33.2352   3.5829529459e+02   4.1476717314e+01    0.6131611    0.3719379  14.34  0.002349787    4.083    0.755
        75 -13.8453    226.8918    167.8298   1.9111299660e+01   7.5477266153e+00     1.684645    0.9512787 -46.92  0.008212578    1.863    0.463
        76 -14.4679    236.0073    155.1917   1.5542596147e+01   8.2963727596e+00     2.714698     1.249614 -50.44   0.01053923    2.792    0.642
        77  -7.6692     95.7623     35.3197   1.0472696567e+01   5.6276944260e+01    0.1386443    0.1034737 -66.26 0.0002203008    1.513    0.339
        78  -9.4803    144.9350     31.1120   3.5940307787e+02   4.4846431807e+01    0.3196133    0.2236872  -7.93   0.00104495    2.083    0.520
        79  -8.0539     80.0538     32.9967   1.4073440708e+01   6.0330274706e+01     0.159024    0.1537242  63.89 0.0003076161    1.030    0.029
        80 -12.7247    224.8513    144.3076   1.5091895226e+01   1.1412262953e+01    0.6033754    0.4857263 -63.46  0.002094703    1.673    0.402
        81 -11.4181    246.6707     33.2066   3.5064616349e+02   2.3631891841e+01     0.470033    0.3623082 -39.02  0.002997615    1.256    0.204
        82  -9.9623    172.7812    220.7585   3.7229369347e+01   5.8826476579e+00    0.2603055    0.1818619 -46.24  0.001475983    1.647    0.393
        83 -10.5897    236.4394     18.9998   3.4835900151e+02   2.6994675125e+01    0.2207332    0.1516439  74.94  0.001255909    1.689    0.408
        84  -7.9058    197.4884    220.5331   3.2636821990e+01   3.1262686418e+00    0.1140204   0.09090045  -6.24 0.0008091488    1.049    0.047
        85  -8.3250    232.2200    219.5909   2.6786864299e+01  -2.9299746632e-01    0.1319813   0.08298287   6.75 0.0003252184    1.458    0.314
