#   1 NUMBER                 Running object number                                     
#   2 MAG_AUTO               Kron-like elliptical aperture magnitude                    [mag]
#   3 X_IMAGE                Object position along x                                    [pixel]
#   4 Y_IMAGE                Object position along y                                    [pixel]
#   5 X_WORLD                Barycenter position along world x axis                     [deg]
#   6 Y_WORLD                Barycenter position along world y axis                     [deg]
#   7 A_WORLD                Profile RMS along major axis (world units)                 [deg]
#   8 B_WORLD                Profile RMS along minor axis (world units)                 [deg]
#   9 THETA_WORLD            Position angle (CCW/world-x)                               [deg]
#  10 FWHM_WORLD             FWHM assuming a gaussian core                              [deg]
#  11 ELONGATION             A_IMAGE/B_IMAGE                                           
#  12 ELLIPTICITY            1 - B_IMAGE/A_IMAGE                                       
         1 -13.8766    174.4493     27.9299   7.6623303329e+01   3.8129942717e+01     1.286217    0.8968045   8.66  0.005039484    1.639    0.390
         2 -12.7002    178.0697     21.0637   7.3792047579e+01   3.7961578803e+01    0.5817336    0.5353274 -28.36  0.001270826    1.057    0.054
         3 -11.6985    181.9638    232.9709   1.2272697071e+02   6.4429467008e+00    0.2710561    0.1272285  39.60  0.001599358    1.810    0.448
         4 -19.5126     47.8825    147.6389   1.4064764202e+02   3.8511777153e+01     18.39259     3.978981 -71.81    0.0595228    4.901    0.796
         5  -9.3864    189.3228    226.6688   1.2062335040e+02   6.1866931530e+00   0.09974676   0.07942157  47.09 0.0007049889    1.700    0.412
         6 -11.1235    166.9889    211.4050   1.2254701711e+02   1.1114950790e+01    0.2422725    0.1987227  80.74  0.001578198    2.186    0.543
         7  -9.3927     16.4859    212.5609   1.5162633039e+02   2.8744052963e+01    0.0997185   0.07413157  59.04 3.516958e-05    1.011    0.011
         8 -12.3011    103.1732    208.5814   1.3457667399e+02   2.0225506390e+01    0.3436408    0.2339162  58.13  0.002244364    1.515    0.340
         9 -12.6258    235.4431    202.7985   1.0924310021e+02   2.6024775516e+00    0.4807511    0.2943479  -2.16  0.003128642    1.449    0.310
        10 -12.6006     12.2176    206.1641   1.5218470000e+02   3.0192190632e+01    0.5073231    0.1991989  28.77  0.003008372    2.426    0.588
        11 -10.5125    130.1275    205.9694   1.2892241694e+02   1.7054144600e+01    0.1756644    0.1463897  30.20 0.0004669132    1.035    0.034
        12 -11.9275    249.8929    195.5061   1.0572546161e+02   1.4325681676e+00    0.3998471    0.1519616 -27.10  0.002102955    2.488    0.598
        13 -10.8768    192.9615    194.7811   1.1523702196e+02   9.5320490969e+00     0.475402    0.2490043 -56.00  0.001695415    6.570    0.848
        14 -10.0106    123.4902    208.5257   1.3054065016e+02   1.7565964831e+01    0.1161329   0.09414757  39.17 0.0008095013    1.052    0.049
        15 -10.6544    111.4655    197.2515   1.3164375089e+02   2.1000755042e+01    0.2563293    0.1335621  23.87  0.001292323    2.207    0.547
        16 -10.9698     95.3885    188.7879   1.3404836762e+02   2.4602832592e+01    0.2325965    0.1674699  45.83 0.0007154499    1.212    0.175
        17 -11.4371    107.1872    186.4610   1.3123724104e+02   2.3440497690e+01    0.5922068    0.1731075  47.10  0.002160843    3.791    0.736
        18 -11.5913     93.2102    180.0988   1.3351481792e+02   2.6479290457e+01    0.3618511    0.2167003 -44.19  0.001997075    2.048    0.512
        19 -11.5206     95.5969    175.2315   1.3238426615e+02   2.7078148086e+01    0.2664934    0.2400141 -48.71 0.0009469216    1.255    0.203
        20 -10.6875     99.7397    180.7252   1.3214643240e+02   2.5491340234e+01    0.2158268    0.1379124  33.90 0.0008352934    1.426    0.299
        21  -9.7521    113.2708    169.3942   1.2758020515e+02   2.5687247608e+01    0.1771614    0.1066177  43.80 0.0003515749    1.535    0.349
        22 -10.8427    100.7187    165.6372   1.2992992491e+02   2.8218616473e+01    0.2184743    0.2078752  11.96 0.0004145143    1.136    0.120
        23 -12.6476     90.0603    160.8353   1.3178546461e+02   3.0651086549e+01     0.371392    0.2856975 -20.53  0.001032195    1.748    0.428
        24 -12.7718    237.8337    219.1149   1.1145854373e+02   6.6755573121e-01    0.7251862    0.3390339 -27.23  0.004463637    2.197    0.545
        25 -10.9401    104.0625    159.6628   1.2827164245e+02   2.8912954042e+01    0.2894901    0.1910947 -40.31 0.0004312002    1.760    0.432
        26 -12.9269    244.3212    205.7941   1.0832121819e+02   1.1350154891e+00    0.6784765    0.3048386  25.61   0.00387488    1.895    0.472
        27 -10.7231    134.0000    144.5149   1.1852973709e+02   2.7121626187e+01    0.4207435    0.1420172 -54.68  0.001338937    4.296    0.767
        28  -9.1914    179.7157    147.6696   1.0912623036e+02   1.8491906960e+01    0.1400035   0.09686259   2.52 0.0003478049    1.612    0.380
        29 -11.0996    139.8835    217.8489   1.2847386863e+02   1.3978155923e+01    0.1773397     0.156279  51.24 0.0005840387    1.288    0.224
        30 -12.0808    100.3257    215.1239   1.3578951954e+02   1.9540682052e+01    0.4652481    0.2248094  53.32  0.001806925    2.174    0.540
        31 -11.5515    102.7922    142.5500   1.2582297165e+02   3.2590950773e+01    0.2698611    0.2257159  32.59 0.0006391431    1.179    0.152
        32 -10.6400    113.8892    141.2260   1.2279160312e+02   3.1123632090e+01    0.3895307    0.1664614 -40.76  0.001514526    2.807    0.644
        33 -10.0972    118.7899    131.7008   1.1971181159e+02   3.2269978005e+01    0.2429393    0.1875632 -34.03 0.0008868756    1.378    0.274
        34 -10.8520    106.5608    129.2461   1.2239149393e+02   3.4817675966e+01    0.4086681    0.2382026 -40.93  0.001447065    1.861    0.463
        35 -10.8273    115.2764    214.5814   1.3282610384e+02   1.7723403978e+01      0.17522    0.1318792 -24.52 0.0009147637    1.794    0.442
        36  -9.5060    113.0263    120.4671   1.1885153497e+02   3.5614405984e+01    0.2084895    0.1379291  37.95 0.0003651375    1.507    0.336
        37 -12.6772    162.5163     42.5654   8.3645402152e+01   3.9315782715e+01    0.5787491    0.4286918  -9.35  0.001712869    1.396    0.284
        38  -9.7645    196.4355    246.4992   1.2198932866e+02   3.1679132821e+00    0.1061825   0.07367366  20.25 0.0008069189    1.032    0.031
