#   1 NUMBER                 Running object number                                     
#   2 MAG_AUTO               Kron-like elliptical aperture magnitude                    [mag]
#   3 X_IMAGE                Object position along x                                    [pixel]
#   4 Y_IMAGE                Object position along y                                    [pixel]
#   5 X_WORLD                Barycenter position along world x axis                     [deg]
#   6 Y_WORLD                Barycenter position along world y axis                     [deg]
#   7 A_WORLD                Profile RMS along major axis (world units)                 [deg]
#   8 B_WORLD                Profile RMS along minor axis (world units)                 [deg]
#   9 THETA_WORLD            Position angle (CCW/world-x)                               [deg]
#  10 FWHM_WORLD             FWHM assuming a gaussian core                              [deg]
#  11 ELONGATION             A_IMAGE/B_IMAGE                                           
#  12 ELLIPTICITY            1 - B_IMAGE/A_IMAGE                                       
         1 -13.1891    181.5915     33.9201   6.4581682539e+01   3.5517411290e+01     1.408721     1.010462  16.56  0.004723169    1.642    0.391
         2 -11.8151    185.7950     27.4178   6.1880279181e+01   3.5184176179e+01    0.5921485    0.5174373  50.30  0.001186867    1.120    0.107
         3  -9.9107     77.7896     10.2066   8.0084030914e+01   6.3815844442e+01    0.4050246    0.2059352  63.14  0.001540778    3.466    0.712
         4 -11.8229    202.5167      3.3108   5.2575483552e+01   3.3281518903e+01    0.8511492    0.4432158  67.64   0.00395479    1.796    0.443
         5  -8.6150      8.7721    217.6898   1.4122728494e+02   2.8945050875e+01   0.08079286   0.06626418 -76.73  0.000336368    1.484    0.326
         6 -10.6681    140.0763    249.2025   1.1996633491e+02   8.6442554737e+00    0.2688863    0.1997584  77.15  0.001885138    1.973    0.493
         7 -19.4987     33.6961    145.3682   1.3180245476e+02   4.0904864369e+01     18.10419     2.801042 -73.36   0.05172063    6.420    0.844
         8 -10.3950    102.5167    194.8095   1.2126310376e+02   2.2452948240e+01    0.3817594    0.2119578  56.78  0.001489187    1.879    0.468
         9  -8.8089     10.0275    214.0429   1.4087991851e+02   2.9463531159e+01    0.1898315    0.1230699  13.35  0.001306057    2.520    0.603
        10  -8.3702    168.4936    189.5172   1.0658944338e+02   1.2802947415e+01    0.1325661    0.1101692  27.91 0.0001128886    1.001    0.001
        11 -10.2891    116.0852    211.4455   1.2039793326e+02   1.7605499127e+01    0.3098562     0.191299  89.45   0.00148463    2.669    0.625
        12  -9.8821     90.6129    183.9671   1.2256177797e+02   2.6168391737e+01    0.3075196    0.1798766  59.81  0.001067669    1.800    0.444
        13 -10.2853    106.3482    210.3360   1.2223160769e+02   1.9187247466e+01    0.2191444    0.1648015 -15.95  0.001175037    2.125    0.529
        14  -9.8163    205.7657    180.5842   9.7619624440e+01   7.6873442570e+00    0.4321313    0.1933724  38.80  0.001654568    1.953    0.488
        15  -9.4867    208.9788    178.9852   9.6709791959e+01   7.3546571603e+00    0.2920311     0.165765  37.35 0.0009271284    1.549    0.354
        16  -9.3754     99.5896    180.8447   1.2017789094e+02   2.5492174117e+01    0.2059193    0.1597508  33.20 0.0005364084    1.268    0.212
        17 -10.0783    195.8470    171.0871   9.7743680908e+01   1.0811865567e+01    0.4624631    0.2674277 -33.96  0.002324038    1.855    0.461
        18 -10.1412     98.0051    168.0062   1.1881340018e+02   2.8262595532e+01    0.2054961    0.1856665  53.98  0.001312654    1.015    0.014
        19 -10.2260    105.1561    172.0293   1.1771518077e+02   2.6382003839e+01    0.2465003    0.1822342  37.96  0.001423468    1.250    0.200
        20 -10.2393     96.2243    161.9580   1.1837084368e+02   2.9764268512e+01    0.2513706    0.2444835 -34.72 0.0005921317    1.179    0.152
        21  -9.4868     92.0124    205.6910   1.2464595209e+02   2.1969494772e+01    0.2510557    0.1400388  43.31  0.001455308    1.465    0.318
        22  -8.7439    163.8414    205.1087   1.0997538268e+02   1.1204159078e+01    0.1797183    0.1517721  42.25 0.0004357513    1.189    0.159
        23 -11.1960    101.1276    154.7742   1.1607807979e+02   3.0516264209e+01    0.5428445    0.3721255 -33.03  0.002762625    1.921    0.479
        24 -11.0757    105.5861    202.1164   1.2146973051e+02   2.0708671376e+01    0.3957865    0.2226248  25.68  0.002049449    2.090    0.521
        25  -9.8966    134.2754    146.5257   1.0644792567e+02   2.6580977908e+01    0.7556078    0.1590012 -52.12   0.00183692    6.730    0.851
        26  -9.4707    144.1684    144.8207   1.0372706250e+02   2.5067627642e+01     0.214168    0.1941994  66.06  0.000661876    1.247    0.198
        27 -10.8851    110.5181    139.9317   1.1112615834e+02   3.2143711039e+01    0.5013894     0.268698 -35.52  0.002055116    2.538    0.606
        28 -10.6395     99.8553    139.8169   1.1387884831e+02   3.3914519728e+01    0.2681837    0.2499179  23.23 0.0004908364    1.140    0.123
        29  -9.9578    105.9564    130.7353   1.1054891278e+02   3.4900933971e+01    0.3325628    0.2787513 -80.79  0.001145662    1.335    0.251
        30  -9.4482    105.1328    126.3885   1.0989510271e+02   3.5993875756e+01    0.2839962    0.2276819 -28.29 0.0008143259    1.434    0.302
        31 -10.0151    117.2008    130.3650   1.0748339367e+02   3.3028409552e+01    0.3233257    0.2612666 -15.28  0.001038814    1.499    0.333
        32  -9.5342    135.5031    122.4804   1.0097632213e+02   3.1226372331e+01    0.2725723    0.1433605 -56.61   0.00104192    2.443    0.591
        33  -8.6980    111.8573    118.9532   1.0645572750e+02   3.6454572418e+01    0.2195481    0.1943851  -3.88 0.0005210426    1.255    0.203
        34  -9.4521    183.1283    215.8427   1.0784082654e+02   6.6258243070e+00    0.2984401    0.1452492  54.64  0.001219508    3.721    0.731
        35  -8.9182    168.1607    113.3976   9.0817329560e+01   2.6131450006e+01    0.2975163    0.2031982 -55.46   0.00130345    1.894    0.472
        36  -8.6323    205.9775    110.2277   8.2144749037e+01   1.8349514270e+01    0.1924419    0.1193494  47.35 0.0006315223    1.632    0.387
        37  -8.3091    121.5094    199.4663   1.1783297730e+02   1.8812997857e+01    0.1239645    0.1053667  34.42 5.422773e-05    1.105    0.095
        38  -8.2280    149.9778    100.7624   9.1802130485e+01   3.2534642011e+01    0.2008549    0.1272031  44.12 0.0003404027    1.549    0.354
        39  -8.7264     94.4326    199.4760   1.2349516096e+02   2.2746668515e+01    0.1201825   0.09942904  54.01  4.80957e-05    1.022    0.022
        40  -8.9303    176.8442     75.0682   7.8259946902e+01   3.0820689874e+01    0.2256289    0.2089836 -62.88 0.0002685221    1.236    0.191
        41 -12.2299    167.0819     49.7733   7.2322475780e+01   3.7183111594e+01    0.9405365     0.610371 -10.92  0.002945239    1.801    0.445
        42 -10.5336    134.9006    246.4664   1.2061088871e+02   9.7214555645e+00    0.1966204    0.1655419 -65.81  0.001042613    1.624    0.384
        43 -10.5406    193.6447    192.6499   1.0211442971e+02   8.0683067719e+00    0.5508769    0.3724815 -38.81  0.002921132    1.765    0.434
        44  -8.9087    178.3201    224.3400   1.0996340538e+02   6.2641069714e+00    0.1221496    0.0788441  12.78  0.000704996    1.715    0.417
        45  -9.5756    136.5105    222.4883   1.1766851165e+02   1.2864162585e+01     0.119848   0.09414849  38.61 -6.662148e-05    1.004    0.004
