#   1 NUMBER                 Running object number                                     
#   2 MAG_AUTO               Kron-like elliptical aperture magnitude                    [mag]
#   3 X_IMAGE                Object position along x                                    [pixel]
#   4 Y_IMAGE                Object position along y                                    [pixel]
#   5 X_WORLD                Barycenter position along world x axis                     [deg]
#   6 Y_WORLD                Barycenter position along world y axis                     [deg]
#   7 A_WORLD                Profile RMS along major axis (world units)                 [deg]
#   8 B_WORLD                Profile RMS along minor axis (world units)                 [deg]
#   9 THETA_WORLD            Position angle (CCW/world-x)                               [deg]
#  10 FWHM_WORLD             FWHM assuming a gaussian core                              [deg]
#  11 ELONGATION             A_IMAGE/B_IMAGE                                           
#  12 ELLIPTICITY            1 - B_IMAGE/A_IMAGE                                       
         1 -14.1466    178.9781     75.8317   8.4084002588e+01   3.0138132840e+01     6.513703     1.685296 -44.81   0.01812087    4.160    0.760
         2 -14.3993    169.8999     58.6655   8.1075227270e+01   3.5225669519e+01       7.7826     4.109915 -86.72   0.01988013    6.282    0.841
         3 -13.3691    208.0881     63.3453   7.5690344665e+01   2.5000099599e+01     4.664694     1.906052 -61.27   0.01200159    5.865    0.829
         4 -12.5533    211.6770     48.7274   7.1515443848e+01   2.6338198724e+01     1.078879     0.831556 -56.67  0.005881076    1.252    0.201
         5 -15.2112    233.8405      4.4248   5.8892610315e+01   2.6691890025e+01     8.869754          nan  63.27   0.02265546    7.681    0.870
         6 -13.7372    236.8388     80.3626   7.5514747618e+01   1.5429512400e+01     2.741848     1.665397 -64.96   0.01241275    1.927    0.481
         7 -15.1052    224.6148     41.7687   6.8145171338e+01   2.4211334387e+01     10.94685       1.7169 -41.06   0.03233352    4.661    0.785
         8 -12.9370    249.8179     26.7140   6.2106187704e+01   2.0448952136e+01    0.5199303    0.2287694 -44.48  0.001578859    1.997    0.499
         9 -14.3889    246.5086     20.1290   6.1045536919e+01   2.2013120583e+01     1.018261    0.7880903 -23.97   0.00289583    1.723    0.420
        10  -9.8507    141.2121     12.4018   7.2676606830e+01   4.8055969729e+01    0.5096381    0.1079008 -32.98  0.001726443    4.403    0.773
        11  -9.2181    115.7950     12.6058   7.7892516076e+01   5.3796074372e+01    0.2738447    0.1861343  64.04  0.001044877    1.499    0.333
        12 -11.0054    120.2307      8.9740   7.5671972677e+01   5.3161580942e+01    0.4461801     0.348519  40.83  0.001575896    1.113    0.102
        13  -8.3159    145.5199      6.4735   7.0091777980e+01   4.7588000444e+01    0.1324826    0.1101637  53.73 3.959148e-05    1.055    0.052
        14  -8.2861     57.3292      5.6553   9.1748866120e+01   6.5375557005e+01   0.09918099   0.09218546 -49.33 0.0004584731    1.751    0.429
        15  -9.7246    172.0914      2.7142   6.5058596978e+01   4.1545823436e+01    0.3471279       0.1956 -65.11  0.001353574    2.202    0.546
        16  -9.9963      2.3342      2.6707   1.1383814326e+02   7.1896028133e+01    0.1769007    0.1639998 -24.55  0.001535706    1.729    0.422
        17 -10.9674    188.1383    136.1936   9.7691143157e+01   1.6230116934e+01    0.6781999    0.4233442 -16.35  0.002502907    2.655    0.623
        18  -9.4341     74.5191    249.9934   1.4052530859e+02   1.4022354837e+01    0.2006719    0.1136709  39.61 0.0007528521    1.841    0.457
        19  -9.5913    179.4946    135.4865   9.9375818421e+01   1.8343273823e+01    0.1538174    0.1536003 -83.38 0.0008104543    1.017    0.017
        20  -9.4407    166.9777    131.9549   1.0131203736e+02   2.1941896934e+01    0.4976836    0.2066621 -43.23  0.001553546    2.419    0.587
        21  -8.3595    117.6535    133.9457   1.1381641783e+02   3.2031241212e+01    0.1997361    0.1853824 -67.88 0.0006340738    1.039    0.038
        22  -8.9651    149.9825    132.4814   1.0540893213e+02   2.5637862873e+01     0.233714     0.136057  68.03 0.0008102538    2.680    0.627
        23 -10.7164    205.5989    121.9177   9.0733336287e+01   1.5086562240e+01    0.5064855    0.3131968  50.96  0.002047378    1.659    0.397
        24 -11.6339    214.6206    115.6312   8.7524409873e+01   1.4224894948e+01    0.8114511    0.5154833 -76.97  0.003114785    2.649    0.623
        25 -11.2639    201.6197    126.2198   9.2547374650e+01   1.5156862534e+01    0.4575768    0.4007521 -52.27  0.001749725    1.134    0.118
        26 -11.8881    200.0244    116.6013   9.0522711658e+01   1.7413510388e+01    0.7569078    0.5707102  -2.66   0.00286871    1.873    0.466
        27 -11.4746    205.0616    110.5827   8.8071637169e+01   1.7396560473e+01    0.5761188    0.4801392   8.24  0.002106943    1.517    0.341
        28 -10.3188    160.3545    128.0344   1.0187968024e+02   2.4288784439e+01    0.4443788    0.2967214 -50.10   0.00193495    1.518    0.341
        29  -8.8791    223.3105    128.3337   8.8946077801e+01   9.8936713832e+00    0.1502193    0.1169852   2.99 0.0007043465    1.677    0.404
        30  -9.5725    192.7033    125.9634   9.4282814754e+01   1.7260469268e+01    0.2754497    0.2180186  83.59 0.0007805006    1.553    0.356
        31  -8.7151    143.0000    124.0060   1.0504006439e+02   2.9041908027e+01    0.2682736    0.0885602 -45.76 0.0008119973    3.009    0.668
        32 -10.3808    224.3691    121.4902   8.7161780453e+01   1.0938684699e+01    0.5008502    0.3024162  73.32  0.001992872    2.527    0.604
        33 -10.5875    168.0935    113.9136   9.6558216416e+01   2.5485189788e+01    0.4169889    0.3422933 -67.66  0.001032007    1.344    0.256
        34  -8.9119    132.3311    110.6689   1.0433160891e+02   3.4271416606e+01    0.3891177    0.2607216  86.37  0.001423085    2.587    0.613
        35 -10.3262    135.0000    108.9938   1.0320944932e+02   3.4057243783e+01      1.02198    0.1727403 -44.89  0.002294741    5.850    0.829
        36  -8.3353    127.3068    110.3439   1.0554806128e+02   3.5405675346e+01    0.1569086    0.1229636  -6.93 0.0007042842    1.692    0.409
        37 -11.2342    199.1335    106.1273   8.8094379398e+01   1.9648438175e+01    0.6348898    0.2655209  52.98  0.002266232    2.427    0.588
        38  -9.4854     97.2463    239.7607   1.3543185231e+02   1.2499722130e+01    0.1895183   0.09582342  34.03 0.0008899446    2.438    0.590
        39 -10.5819    196.7960     98.4617   8.6604282800e+01   2.1660988854e+01    0.3416542    0.2451674 -58.57  0.001566405    1.498    0.333
        40  -9.7366    147.8409     97.9685   9.7045711546e+01   3.3480912349e+01    0.3685137    0.3082104  10.42  0.001141028    1.448    0.309
        41  -8.1575     28.2595    230.0122   1.4688810207e+02   2.3801403448e+01    0.1343447   0.07775048 -81.84 0.0002681832    1.451    0.311
        42  -8.8000    163.5237     96.5091   9.2990876388e+01   3.0084031598e+01    0.1557296    0.1509938 -88.04 -1.458561e-05    1.025    0.024
        43  -9.0074    134.4854     94.9356   9.9525618431e+01   3.7108261939e+01    0.2779756    0.2162541  68.47 0.0009556366    1.506    0.336
        44 -11.9707    194.5083     61.6360   7.7446574563e+01   2.8623943043e+01     1.029543    0.6353645  27.38  0.004091703    2.706    0.630
        45  -8.6681    209.2043     93.8162   8.3156419051e+01   1.9538607077e+01    0.2322174    0.1893218 -71.07 0.0008529656    1.299    0.230
        46  -9.5999    220.0629     91.7365   8.0794257642e+01   1.7344101034e+01    0.2704401    0.1921257 -62.93 0.0006607665    1.520    0.342
        47 -10.5039    158.6421     89.5175   9.2175179194e+01   3.2607068565e+01    0.5247287    0.3682912  22.08  0.001972881    1.960    0.490
        48 -10.0593    141.9527     86.6905   9.5321527476e+01   3.7061483381e+01    0.3187328    0.2966958 -68.13 0.0007225195    1.135    0.119
        49 -13.0391      8.9510    205.0351   1.4850394717e+02   3.0841278471e+01    0.8113959    0.5737026  86.15  0.003728582    1.027    0.027
        50 -10.0824    203.7056     80.9531   8.0876591812e+01   2.3148945787e+01    0.5036282    0.2963791  89.60  0.001807719    2.818    0.645
        51 -11.5793    156.7401     78.8663   8.9604344676e+01   3.5046831559e+01    0.3987906    0.3695002 -49.28  0.001405235    1.101    0.091
        52  -9.4914    163.4879     78.4212   8.7992680875e+01   3.3493385426e+01    0.2837904    0.1330016 -48.49  0.001031818    2.370    0.578
        53  -9.8452    173.2385    204.0818   1.1505561198e+02   5.7624232836e+00    0.2290793     0.183869  47.13 0.0002625716    1.153    0.133
        54  -9.4099    150.5997     72.9010   8.9271135420e+01   3.7578944538e+01    0.4352192    0.3056681   9.43  0.001857649    2.127    0.530
        55 -10.1865     69.6508    145.3145   1.2854777082e+02   3.7335816695e+01    0.3698245    0.2614529  86.77  0.001303133    1.575    0.365
        56 -10.2333    249.7173     65.9507   7.0544223429e+01   1.4875874110e+01    0.5773554    0.3015848 -39.37  0.002636461    1.767    0.434
        57 -10.1254     66.4861    144.4751   1.2921125146e+02   3.7966818545e+01    0.4778413    0.2872111 -74.89  0.001375325    1.701    0.412
        58 -13.1769     28.2790    195.1717   1.4415341317e+02   3.0957322609e+01      1.17994    0.8581355 -89.50  0.008016665    1.068    0.064
        59  -9.4539    148.3476     65.3036   8.7539280086e+01   3.9413079742e+01    0.2819162    0.2372541  76.05 0.0006556947    1.302    0.232
        60 -12.9915     51.5320    172.5184   1.3691048284e+02   3.3331332529e+01     1.076345    0.9064499 -62.34  0.002615374    1.268    0.211
        61 -10.0432    144.3671     59.2982   8.6635093668e+01   4.1334250172e+01    0.2978642    0.2434062 -58.80 0.0006889171    1.389    0.280
        62  -9.1365    133.8179     60.3945   8.9461364096e+01   4.3605198692e+01    0.2217745    0.1268907  42.26 0.0009613455    1.735    0.424
        63  -9.1888    128.0479     58.0254   9.0145228069e+01   4.5285851382e+01    0.2141259    0.2006452  18.87  0.000333577    1.038    0.036
        64  -8.1426     72.5662     58.4585   1.0652338849e+02   5.5714772004e+01    0.1301523    0.1152871 -17.15 0.0001552308    1.036    0.035
        65  -9.1802    136.4126     53.9092   8.6814114594e+01   4.4032757019e+01    0.4587393    0.2473805 -61.72  0.001577185    3.655    0.726
        66  -9.1289    101.0110    175.9867   1.2609906185e+02   2.5266515795e+01    0.1935839    0.1741308  85.84  0.001114794    1.011    0.011
        67  -8.6060    119.7969    149.1689   1.1658131939e+02   2.8085670013e+01    0.1882788    0.1739843 -18.19  0.000234843    1.276    0.216
        68  -9.5523    184.9756    141.0520   9.9507379480e+01   1.5946148843e+01    0.2292252      0.22501 -87.85  0.001226936    1.029    0.029
        69  -9.7321    234.9186    173.9493   9.6887359812e+01  -7.3413159032e-01    0.3132541    0.2020566  51.81  0.001000031    1.783    0.439
        70  -8.6664    192.3053    144.1009   9.8667528387e+01   1.3681263280e+01    0.2115714    0.1936756 -47.76 0.0004070851    1.093    0.086
        71  -8.5738    159.0049    142.7957   1.0570847869e+02   2.1381618031e+01    0.2344444    0.1760775 -71.94  0.001044825    1.615    0.381
        72  -9.2419    133.9810    147.4446   1.1272098859e+02   2.5670458889e+01    0.6228068    0.1750551 -54.35  0.001659539    4.354    0.770
        73  -8.2217    194.4415     26.4238   6.8290499146e+01   3.3551619894e+01    0.1372741     0.118437  87.45 0.0001298912    1.031    0.030
        74  -9.3807    193.9278    196.4899   1.0940108732e+02   3.1507039537e+00    0.6111814    0.3186767 -67.13  0.001528177    7.813    0.872
        75  -8.9973    179.0828    147.6167   1.0229932680e+02   1.5898857109e+01    0.3196189    0.2116546 -25.83  0.001336384    1.905    0.475
        76 -10.3571    215.8385    168.6054   9.9363459690e+01   3.9227114552e+00    0.4423127    0.2787526  61.43  0.001621912    2.143    0.533
        77 -10.1830    211.9854    166.4831   9.9663378704e+01   5.0968614137e+00    0.3883771    0.2632213  58.15  0.001160552    1.750    0.429
        78 -13.0442     41.3214    180.8504   1.4010551112e+02   3.2655071053e+01    0.8318585    0.7270255  61.50  0.001367726    1.253    0.202
        79  -8.8432    117.7579    242.0005   1.3184073115e+02   8.7740811068e+00    0.1457356    0.1045138 -66.16 0.0006299831    1.567    0.362
        80  -9.6927    211.2773    136.7084   9.3139599045e+01   1.0937521321e+01    0.3124954    0.1846342 -19.78  0.001178162    2.530    0.605
