#   1 NUMBER                 Running object number                                     
#   2 MAG_AUTO               Kron-like elliptical aperture magnitude                    [mag]
#   3 X_IMAGE                Object position along x                                    [pixel]
#   4 Y_IMAGE                Object position along y                                    [pixel]
#   5 X_WORLD                Barycenter position along world x axis                     [deg]
#   6 Y_WORLD                Barycenter position along world y axis                     [deg]
#   7 A_WORLD                Profile RMS along major axis (world units)                 [deg]
#   8 B_WORLD                Profile RMS along minor axis (world units)                 [deg]
#   9 THETA_WORLD            Position angle (CCW/world-x)                               [deg]
#  10 FWHM_WORLD             FWHM assuming a gaussian core                              [deg]
#  11 ELONGATION             A_IMAGE/B_IMAGE                                           
#  12 ELLIPTICITY            1 - B_IMAGE/A_IMAGE                                       
         1 -11.0762     35.7509     12.1688   4.8794901375e+01   7.1679630230e+01    0.2345837    0.1714392 -80.35   0.00104674    3.486    0.713
         2 -11.9079     33.1614     22.1901   5.5693951750e+01   7.0315771905e+01     0.771302    0.3484731 -56.39  0.003125618    3.128    0.680
         3 -10.6597    101.1211     21.1700   2.6311330187e+01   5.6848095244e+01    0.4913529    0.2669617 -52.15  0.002012495    2.513    0.602
         4 -10.8914     14.9832     16.4737   6.5185781039e+01   7.3423507836e+01     0.325655    0.2329769 -46.31  0.001165513    1.302    0.232
         5 -10.2515     24.9615     13.6129   5.6627459709e+01   7.2908854745e+01    0.2399745    0.1871676 -64.24  0.001400594    1.847    0.458
         6 -10.4368    226.2781     11.8690   5.8220577254e+00   2.6911417950e+01    0.2284704   0.08128194 -55.81 0.0009545431    2.851    0.649
         7 -11.7363     91.1221     10.1470   2.4124354029e+01   6.0569007932e+01     0.270198    0.2312819  67.37            0    1.180    0.153
         8 -10.6238     96.0378      9.8971   2.2691406255e+01   5.9384644655e+01    0.2607397    0.2028204  55.04 0.0006617132    1.141    0.124
         9 -10.7691     52.5317     11.4828   3.9191228353e+01   6.8908367803e+01     0.363349    0.2200596 -28.92  0.001868368    1.700    0.412
        10 -11.2864     55.8598      9.3539   3.6408950702e+01   6.8549853625e+01    0.2698493    0.2386911  71.09 0.0003157705    1.493    0.330
        11 -11.1692     43.5005     11.3228   4.3793751354e+01   7.0560252563e+01    0.3285316    0.2261817  -5.88    0.0017768    1.588    0.370
        12 -11.4791     45.0633      4.6348   3.8950183448e+01   7.1221649106e+01    0.4331431    0.3401335  71.84  0.002403943    2.033    0.508
        13 -11.1117     49.8922      3.1430   3.5571399973e+01   7.0501362368e+01    0.3206497    0.2285331  25.70  0.001559002    1.294    0.227
        14 -11.3257    126.0721     10.8087   1.6609042861e+01   5.1588836509e+01    0.2234524     0.214843  84.37 0.0002333553    1.077    0.072
        15 -11.0726    116.5211      8.8366   1.7623369025e+01   5.4271287354e+01    0.2655051    0.2472367 -32.97 0.0008854555    1.191    0.161
        16  -9.8424     86.0712     10.2828   2.5642383868e+01   6.1775477640e+01    0.1947168    0.1608003  55.32 0.0004367912    1.125    0.111
        17 -10.0433     80.9292      9.7516   2.6969308625e+01   6.3051016475e+01    0.3490097    0.1753767  35.86  0.001494079    2.110    0.526
        18 -10.6433     35.2358      8.0244   4.6678603053e+01   7.2407522187e+01    0.2173808    0.1661093  24.70 0.0005198042    1.200    0.167
        19 -10.2387     61.8692      6.8823   3.2385447850e+01   6.7628771992e+01    0.2372135     0.182469  10.43 0.0005726931    1.310    0.237
        20 -10.4502     65.6699      5.3230   2.9994504195e+01   6.6994121402e+01    0.2157116    0.1232041  58.51  0.001030377    1.780    0.438
        21 -12.7671     29.5187      4.9215   4.8443673277e+01   7.3743100153e+01    0.3097092    0.2422637 -32.57 0.0004855919    1.318    0.241
        22 -10.2200     33.9720      3.9912   4.4962460118e+01   7.3204168283e+01    0.1908297     0.163991   9.20 0.0003406998    1.062    0.058
        23 -11.6005     19.1954      3.0456   5.4691449687e+01   7.5413138740e+01    0.3957781    0.2113789 -17.20  0.001900659    2.338    0.572
        24 -10.0042    111.8455      6.1995   1.7475185352e+01   5.5730913343e+01    0.2035705    0.1767087 -84.94 0.0006994276    1.219    0.180
        25 -11.0032    193.9984      4.8589   6.4901424404e+00   3.4853772306e+01    0.1927072    0.1698597 -55.41  0.000310835    1.094    0.086
        26  -9.6367     81.4498      5.4514   2.4654505478e+01   6.3383661891e+01    0.1377827    0.1210246  42.36 0.0001171661    1.008    0.008
        27 -10.0216     70.6615      5.0674   2.8003994194e+01   6.5917565968e+01    0.1819841    0.1577372  14.13 0.0003444524    1.124    0.110
        28 -10.1655    100.9616     10.9982   2.1942895515e+01   5.8040130310e+01    0.2038524    0.1870163  59.78            0    1.054    0.052
        29 -10.7719     38.9732      3.9196   4.1890200959e+01   7.2392209373e+01     0.190092    0.1635597  11.83 0.0003426452    1.046    0.044
        30 -10.2552    224.7846      2.9543   3.8687824383e+00   2.8089581018e+01    0.1610982     0.157882  23.59 0.0008627841    1.310    0.237
        31 -11.7587    205.1207      2.5176   5.0489184157e+00   3.2476634289e+01    0.2263161    0.1983897  86.66 0.0003520575    1.135    0.119
        32 -10.7001    148.6325      2.4854   1.0301535992e+01   4.6438087215e+01     0.244724    0.2044231 -82.05  0.001426416    1.131    0.115
        33  -9.6320    120.1836      2.8077   1.4554147613e+01   5.3863706992e+01    0.1828818    0.1425446  45.05 0.0002849183    1.252    0.201
        34 -10.0232    210.6788      1.9171   4.5193734267e+00   3.1271946427e+01    0.1681681    0.1337442 -53.39 0.0003457008    1.106    0.096
        35  -9.6095     11.7970      1.9757   6.0002737338e+01   7.6401115476e+01    0.1649232    0.1432163  86.42 0.0009032544    1.969    0.492
        36 -10.3158    245.2146      1.4095   2.4023536246e+00   2.4057962780e+01    0.1451298     0.100007  89.43  0.000407116    1.433    0.302
        37  -9.6278     80.3749      1.5080   2.2970786779e+01   6.4022262191e+01    0.1339843    0.1186656  38.28 0.0001818346    1.033    0.032
        38 -10.8618     69.2902    115.6443   6.8001834882e+01   4.4243984547e+01    0.3160673    0.2431748 -70.71 0.0004994512    1.366    0.268
        39  -9.7149    110.0203    250.7820   7.5664274646e+01   1.0810359591e+01    0.1570574   0.07190426  33.15 0.0004244219    1.613    0.380
        40 -11.5453     24.2333    249.6666   9.2756745062e+01   2.0696337648e+01    0.3081031    0.1640256  30.04  0.002008774    1.609    0.379
        41 -11.6319     10.1791    245.5230   9.5308245037e+01   2.2678141672e+01    0.2039963    0.1261704  84.95  0.001482881    1.628    0.386
        42 -11.5908      4.3577    248.8004   9.6490752240e+01   2.2631779490e+01    0.4237005    0.1770006  43.91   0.00272828    1.584    0.369
        43 -12.3188      5.2602    243.1750   9.6178877018e+01   2.3502983254e+01    0.3389954    0.1707921  44.85  0.002301928    1.379    0.275
        44 -10.9972     27.0476    117.0050   8.2966923845e+01   4.8810670951e+01      0.19333    0.1803527 -85.46 0.0003322669    1.018    0.018
        45  -9.9159     21.6658    115.7227   8.4698922187e+01   4.9568835140e+01     0.132695    0.0922921 -38.37 0.0002754354    1.606    0.377
        46 -10.0016      6.3275    112.7201   8.9757857810e+01   5.1337277705e+01    0.1931958    0.1149998 -81.90 0.0003526334    1.507    0.336
        47 -11.9971      2.7989    111.7790   9.0905293765e+01   5.1758321328e+01    0.2401298    0.2097285  64.31  0.000248468    1.128    0.113
        48  -9.2005    118.0004    112.2443   5.1846117506e+01   3.6379013517e+01    0.1912847    0.1263462  40.81 0.0008422516    1.456    0.313
        49 -10.4836     25.4505    111.4242   8.2836881650e+01   5.0341616503e+01    0.1313165    0.1205696  85.06 -4.219299e-05    1.036    0.035
        50 -10.9710     16.7284    109.0699   8.5709260820e+01   5.1592184742e+01    0.2144399    0.1892583  -4.08 0.0003320488    1.293    0.227
        51 -10.7037     51.9713    107.9849   7.2627132892e+01   4.8484120955e+01     0.206307    0.2014745 -83.99  0.001222024    1.006    0.006
        52 -12.2436      1.6003    104.7050   9.0764038771e+01   5.3556770699e+01    0.2602981    0.1463193 -79.01 0.0006338771    1.557    0.358
        53 -11.0262    108.8863    103.3551   5.2260922974e+01   4.0162673935e+01    0.2738008    0.2409631 -32.76 0.0003483997    1.188    0.158
        54 -10.3621    112.7113    102.0633   5.0778012618e+01   3.9665926438e+01    0.2083182    0.1984353 -32.50 0.0002826916    1.080    0.074
        55 -10.2556     38.7759    104.8782   7.6963893598e+01   5.0755076891e+01    0.1998856     0.174104 -49.71 0.0003463165    1.140    0.123
        56 -10.2262    104.1120    101.1896   5.3157310150e+01   4.1595858789e+01    0.2238809    0.2003962  14.81 0.0003492185    1.169    0.145
        57  -9.8997    218.0269     98.3246   2.7096323552e+01   1.7756914068e+01    0.1714055    0.1680559  25.42 0.0005243968    1.123    0.110
        58 -11.1866     20.7915     98.1683   8.2829862867e+01   5.4030263974e+01    0.4611812    0.2150532  17.79  0.002073967    2.352    0.575
        59 -11.3232     18.9916     94.4979   8.3030905893e+01   5.5079448840e+01     0.335527    0.2653501 -41.42  0.001972275    1.282    0.220
        60  -9.6899    107.4792     96.5532   5.0876135362e+01   4.1936321540e+01     0.285169    0.1418003 -35.84  0.001032592    2.431    0.589
        61 -10.3956     37.5497     97.4973   7.6158662242e+01   5.2731131728e+01    0.1366147    0.1282536 -62.05 7.536673e-05    1.016    0.016
        62 -11.8738     66.7141     92.3577   6.3749083432e+01   5.0288278669e+01    0.4576156    0.2477776 -59.42   0.00118484    1.903    0.474
        63 -10.2171    144.9407     94.4543   4.0040046983e+01   3.4183720942e+01    0.2105603    0.1360366  73.74 0.0008073536    2.433    0.589
        64 -11.2074     93.4726     92.6368   5.4286097885e+01   4.5586056447e+01     0.390338     0.285651  23.49 0.0007189723    1.513    0.339
        65 -11.3651     74.6194     92.9660   6.0967880593e+01   4.8886053370e+01     0.256914    0.2207278  37.18 0.0002910841    1.157    0.136
        66 -11.7937     58.0194     91.2690   6.6822581989e+01   5.1818588072e+01    0.3296512    0.2717806 -29.77 0.0008587894    1.287    0.223
        67 -10.8125    145.7922     91.1047   3.8911929118e+01   3.4620748527e+01    0.2198338    0.2054872 -88.58 0.0006524023    1.182    0.154
        68  -9.4635     79.9714     93.7898   5.9252267206e+01   4.7787889459e+01    0.1991044    0.1190898  35.05 0.0004536889    1.659    0.397
        69  -9.6364      7.5735     91.1920   8.7177909622e+01   5.6603894495e+01    0.1765689    0.1003011 -61.20 0.0004484387    1.530    0.347
        70  -9.5081    116.2963     90.6727   4.6592471077e+01   4.1327522814e+01    0.1539627    0.1243537 -89.97 0.0002680716    1.631    0.387
        71  -9.5210    111.3223     90.3073   4.7961958580e+01   4.2471803163e+01    0.1573462    0.1221081   3.89 0.0005810259    1.643    0.391
        72 -12.5075     31.1803     87.2831   7.6871095289e+01   5.5896639773e+01     0.252528    0.2305958 -63.38 0.0004892896    1.026    0.025
        73 -13.6005     65.3379     81.9664   6.1577545624e+01   5.2965707929e+01    0.4829059    0.4702433 -84.74  0.000764363    1.092    0.084
        74 -11.3054     92.0149     85.1992   5.2674947472e+01   4.7523065051e+01    0.2443255    0.2166671 -52.20 0.0002741885    1.173    0.148
        75  -9.7454      2.4978     83.0157   8.8336435375e+01   5.8864781875e+01    0.1960579    0.1113458 -77.20  0.000505529    1.555    0.357
        76 -10.2643     48.1930     78.7628   6.7783587995e+01   5.6144263977e+01    0.3060307    0.2015126 -34.21  0.000958809    1.645    0.392
        77 -10.0797    176.5396     76.7817   2.8510662782e+01   2.9947883205e+01    0.2390829    0.1752663  62.47  0.001188851    1.432    0.302
        78 -10.2515     39.3381     76.6998   7.1125133533e+01   5.7683160691e+01    0.3147329    0.1521077  41.79  0.001156511    2.272    0.560
        79 -10.6583     12.0493     69.2845   8.2142650348e+01   6.1763511322e+01    0.1676739    0.1595257 -51.45 0.0003211588    1.073    0.068
        80 -12.2169     11.4183     74.1150   8.3233240255e+01   6.0617919592e+01     0.420778    0.3223877  62.11  0.001232684    1.464    0.317
        81 -12.2877      4.8368     72.9777   8.6066411641e+01   6.1227191284e+01    0.3634891    0.2609098  46.72 0.0003484473    1.563    0.360
        82 -11.3437     16.1919     64.0870   7.9166080762e+01   6.2769066262e+01    0.5113288    0.3122544 -33.61  0.001734258    1.651    0.394
        83 -11.5451     11.7822     59.5195   8.0464331341e+01   6.4137042517e+01     0.252372      0.22356 -15.77 0.0002888261    1.168    0.144
        84  -9.8651     81.6064     84.9459   5.6256934482e+01   4.9536351703e+01    0.2330799     0.144519 -50.26  0.001022429    1.633    0.387
        85  -9.8557     71.1876     72.1739   5.6404492974e+01   5.4247044818e+01    0.1909063     0.170942  76.38            0    1.320    0.243
        86 -11.9331     81.1958     66.8800   5.0834709607e+01   5.3569005868e+01    0.2827914    0.2570077 -26.31            0    1.107    0.097
        87  -9.5905    154.1679     67.1493   3.0110409691e+01   3.6840018264e+01    0.1990014    0.1685943 -63.36 0.0002558443    1.287    0.223
        88  -9.3952     50.6679     67.3240   6.3583747413e+01   5.8517507512e+01    0.1429659    0.1102771  67.84 0.0007050532    1.705    0.414
        89  -9.2404     69.2764     66.2762   5.5292972123e+01   5.5874220644e+01    0.1429175     0.111231 -10.50            0    1.495    0.331
        90 -10.0718     59.3265     64.7992   5.8992407411e+01   5.7829696084e+01    0.2194168     0.184166  38.05  0.000248534    1.228    0.185
        91  -9.3164    166.5373     64.4728   2.6899601278e+01   3.4253230608e+01    0.1438632    0.1405494 -81.75 0.0008088337    1.014    0.013
        92 -10.6890     38.0320     60.0109   6.7347259334e+01   6.1784103137e+01    0.3166706    0.1890789 -55.56 0.0006766777    1.575    0.365
        93  -9.5547     97.5184     60.5349   4.2884344792e+01   5.1471237544e+01    0.1508471    0.1438267  29.48 0.0001105549    1.007    0.007
        94 -10.5866     42.0508     59.0906   6.5118177246e+01   6.1520096877e+01    0.2693816    0.1867714 -47.59 0.0008098858    1.349    0.259
        95 -11.9529     77.8769     58.1183   4.9066038664e+01   5.6010336212e+01    0.2484045    0.2279456 -24.67 0.0003126086    1.090    0.082
        96 -10.1636     58.2929     58.9344   5.7514784366e+01   5.9280019376e+01     0.218685    0.1842575  38.01 0.0003284928    1.228    0.186
        97  -9.5139    216.9971     58.4733   1.7784534246e+01   2.3523558597e+01    0.1738494    0.1278569  64.95 0.0001620802    1.460    0.315
        98  -9.5575    130.7251     57.2748   3.2276784248e+01   4.4231367271e+01    0.1449469    0.1175179 -77.56 0.0003246461    1.490    0.329
        99  -9.1842    120.9805     57.7836   3.4935338851e+01   4.6528538181e+01    0.1975649    0.1192079  52.02 0.0003243438    1.580    0.367
       100 -10.6174     85.6568     54.5108   4.4821998227e+01   5.5154165633e+01    0.3824878    0.2944951  45.32  0.001923787    1.273    0.214
       101 -11.0296     83.1420     51.3595   4.4563060519e+01   5.6270768960e+01    0.4324643    0.2907287  25.70  0.001978541    1.681    0.405
       102 -10.4519     78.2957     50.0130   4.5885777474e+01   5.7510632668e+01    0.2664438    0.2056076  49.70 0.0003172015    1.348    0.258
       103  -9.8677    182.1151     54.6523   2.1492509953e+01   3.1936750786e+01    0.1897545    0.1774733  65.28 0.0005515095    1.082    0.076
       104  -9.6157    148.5791     55.5270   2.7707610861e+01   4.0062785404e+01    0.1459309    0.1422641  60.19 3.958501e-05    1.019    0.018
       105  -9.8465     99.5095     55.5557   4.0457138356e+01   5.1954309906e+01    0.1519255    0.1410082  26.45 0.0001524314    1.043    0.041
       106  -9.8344    115.4269     53.3129   3.4892420229e+01   4.8627719532e+01    0.2008278    0.1437692 -46.46 0.0009349511    1.512    0.339
       107 -12.4865     62.0225     49.6595   5.2515254205e+01   6.0611045051e+01    0.3412145    0.2428251 -42.58 0.0003853889    1.403    0.287
       108 -10.4121      2.8570     51.8051   8.3682145440e+01   6.6402463557e+01    0.3609242    0.1158221 -51.51  0.001437383    2.368    0.578
       109 -10.7506    105.0636     52.0019   3.7424480531e+01   5.1310773309e+01    0.2162574    0.2085746  45.99  0.001190869    1.043    0.041
       110 -10.4609    138.3011     50.2490   2.8189024495e+01   4.3452250221e+01    0.2433819    0.2160809  27.40 0.0004783236    1.204    0.169
       111 -10.3978     93.0990     50.0122   4.0518285546e+01   5.4383011022e+01    0.2500269    0.1989008  42.78            0    1.195    0.164
       112  -9.4760    102.2304     48.0056   3.6807981673e+01   5.2653539075e+01    0.1854844    0.1256583 -34.81 0.0002060937    1.551    0.355
       113 -10.4114     17.5912     46.1469   7.4163350981e+01   6.6890071249e+01    0.2299897    0.1758409  -7.73 0.0009271088    1.335    0.251
       114  -9.1233     72.6298     45.6666   4.6429564509e+01   5.9445367750e+01    0.1558659    0.1099545   4.91   0.00027371    1.836    0.455
       115 -12.3996     85.7595     42.4714   4.0114371133e+01   5.7309861116e+01    0.3693839    0.2814234 -26.13 0.0003324028    1.391    0.281
       116 -11.1328     91.9890     41.5073   3.7568899364e+01   5.6090180508e+01    0.3695548    0.2482567 -52.19 0.0008834595    1.811    0.448
       117 -11.6941     38.5253     41.6910   6.0995461531e+01   6.5771650351e+01    0.2656564    0.2404473  53.90 0.0002654989    1.359    0.264
       118 -11.1357    109.5560     41.0598   3.2024611484e+01   5.2022105411e+01    0.4541523    0.3319587  72.00  0.001471187    1.571    0.363
       119 -11.0348     58.0094     41.5414   5.1126044976e+01   6.2897219579e+01    0.2408194    0.2150236 -33.38 0.0002713938    1.137    0.120
       120 -10.1793     61.9082     41.1039   4.9158973430e+01   6.2300837459e+01    0.2087007    0.1886918   6.80  0.001200958    1.029    0.028
       121 -10.8144     50.9864     41.2270   5.4368402429e+01   6.4103579157e+01    0.3059106    0.1983775 -32.97 0.0007747582    1.564    0.361
       122 -10.0077     44.2737     40.9671   5.7669523482e+01   6.5151569181e+01    0.2933195    0.1937468 -70.51  0.001349505    2.344    0.573
       123 -10.3650     27.3671     42.4868   6.7467644143e+01   6.6864003874e+01    0.3077466    0.1223281  25.62   0.00129929    2.542    0.607
       124 -10.9706    184.4494     40.8728   1.7325023260e+01   3.3208733109e+01    0.4596181    0.2386865  79.34  0.001943044    2.301    0.565
       125  -9.6769    141.1068     41.0022   2.4513619631e+01   4.4083309726e+01     0.219594    0.1660863 -84.10  0.001060739    1.548    0.354
       126 -11.5050    115.9353     38.9078   2.9504130008e+01   5.0770734681e+01     0.351162    0.2434441 -42.78 0.0009614718    1.554    0.356
       127 -10.5265    112.8701     34.7688   2.8721599391e+01   5.2129884516e+01    0.2200845    0.1997405  51.25 0.0003678612    1.024    0.024
       128  -9.8393     81.1938     38.8167   4.0272589149e+01   5.8913474901e+01    0.1943852    0.1602182  10.74 0.0002318045    1.284    0.221
       129  -9.3687      2.2895     39.3151   8.1449436926e+01   6.9323734508e+01    0.1339418   0.07255889 -41.14 0.0002520767    1.591    0.371
       130 -11.1623    121.5934     36.8898   2.7349958061e+01   4.9638255165e+01    0.3389963    0.2708605 -21.93 0.0009947363    1.372    0.271
       131 -10.9438     75.6628     38.0083   4.2045736444e+01   6.0210270670e+01    0.2409862    0.1973642  48.84 0.0003061758    1.249    0.199
       132 -11.5398     67.1391     35.9619   4.4660261984e+01   6.2263592003e+01    0.2885427    0.2488243 -22.32 0.0003497752    1.158    0.137
       133 -10.1376    150.6902     36.0001   2.1054439802e+01   4.2292588147e+01    0.1891443    0.1843883 -49.99 0.0003681325    1.081    0.075
       134  -9.9705     22.8211     34.6722   6.7406447089e+01   6.8991332267e+01    0.2075091    0.1461672 -42.91 0.0002929364    1.260    0.206
       135 -10.5681      5.9701     34.5575   7.7961671750e+01   7.0230730466e+01    0.2167425    0.1880797  68.56 0.0008406733    1.440    0.306
       136  -9.6471    117.4433     32.4724   2.6694653286e+01   5.1297935731e+01    0.1464058    0.1367804  54.67  0.000132466    1.010    0.010
       137 -10.5686     90.1548     31.1142   3.3857169948e+01   5.8134876276e+01    0.2815271    0.1912831  50.95  0.000801021    1.377    0.274
       138 -12.4261     91.2400     26.5280   3.1518865917e+01   5.8537453176e+01     0.325231    0.2552287 -41.04 0.0003341289    1.411    0.291
       139 -12.2921     11.0320     29.7818   7.3214669075e+01   7.0984515608e+01    0.3073869    0.2114406  27.24  0.001153634    1.603    0.376
       140  -9.9094     98.3552     29.8476   3.0764405545e+01   5.6382292719e+01    0.2955593    0.1198781 -39.62  0.001101819    2.654    0.623
       141 -10.2285    135.7866     29.0665   2.1464266912e+01   4.7024553255e+01    0.2077846    0.1854725 -70.78 0.0003513393    1.172    0.147
       142 -10.4951     80.5871     27.6982   3.5640805653e+01   6.0804467915e+01    0.2844892    0.2264861   6.31  0.001510759    1.365    0.267
       143 -12.2296    216.9910     25.6441   9.8007740731e+00   2.7476099987e+01    0.2323864    0.2039974 -68.06 0.0002683418    1.040    0.038
       144 -11.9718    213.0233     23.9333   9.7320622884e+00   2.8538877003e+01    0.2702576    0.1957807 -63.79 0.0002872658    1.291    0.226
       145 -11.2743    183.4517     25.4261   1.3129458122e+01   3.5296686047e+01    0.3367459    0.2276695  68.02 0.0005573673    1.423    0.297
       146  -9.2416    161.5089    249.4764   6.5320073730e+01   4.3372374830e+00    0.1174312   0.08540674  22.16 1.542798e-05    1.017    0.017
       147 -10.6373     31.7001    248.0933   9.1245508633e+01   2.0235957156e+01    0.1975948    0.1758365 -84.26 0.0009898688    1.418    0.295
       148 -10.8972    130.9831     22.1560   1.9915027166e+01   4.9098488271e+01    0.4171362    0.3062513   6.17  0.001740603    1.719    0.418
       149 -11.5593     16.9974    248.6213   9.4105391678e+01   2.1545356649e+01    0.4278834    0.2010795  12.39  0.002075792    3.818    0.738
       150  -9.9487     52.9502     23.6541   4.5450128348e+01   6.6980399449e+01     0.192156    0.1592445  26.76 0.0004904229    1.125    0.112
       151  -9.2515     38.6361     23.3100   5.2978110812e+01   6.9351625373e+01    0.1248285    0.1063634  67.01 0.0007039444    1.751    0.429
       152  -9.9990     15.5471     22.0128   6.7221201677e+01   7.2272485464e+01    0.2568113    0.1753339 -50.12  0.001112283    1.358    0.264
       153 -10.1240    229.8530    247.7832   5.2841276191e+01  -3.7804695453e+00    0.1619329    0.1028248   7.90 0.0004512401    1.167    0.143
       154  -9.9800      1.9607     22.4712   7.7110985105e+01   7.3067121670e+01    0.1660363    0.1126825   2.74 0.0003765023    1.512    0.338
       155 -10.4413    163.2498     20.3079   1.4136583088e+01   4.0923813681e+01    0.2516074    0.2024008  31.14 0.0009255419    1.467    0.318
       156  -9.6356     64.3326     21.2808   3.8989254919e+01   6.5194618964e+01    0.1431415   0.09861463  18.09 0.0007004027    1.610    0.379
       157  -9.5933     21.9722     21.7331   6.2686521008e+01   7.1723814347e+01    0.1505165    0.1041681  16.08 0.0008589913    1.428    0.300
       158 -10.2700    197.8028     19.5689   1.0023446635e+01   3.2490983641e+01      0.19629    0.1709812 -23.85 0.0004410266    1.269    0.212
       159 -10.2741     43.6272     18.7558   4.7823974427e+01   6.9370766832e+01    0.2562955    0.1494806  26.00  0.000889051    1.759    0.432
       160  -9.6616    207.6089     17.7629   8.6710802343e+00   3.0413575392e+01    0.1694991    0.1047474 -41.25 0.0002500015    1.456    0.313
       161  -9.7868     70.2200     18.2266   3.5033548862e+01   6.4407939025e+01    0.1807778     0.165817  81.24  0.001055821    1.369    0.269
       162 -10.2678    147.9635     16.8445   1.5181452533e+01   4.5244595550e+01    0.2009226    0.1820348  86.06 0.0003055707    1.030    0.029
       163 -10.6093    214.3430     16.1036   7.7043807096e+00   2.9072452007e+01    0.2201382    0.1644966 -81.96  0.000311933    1.272    0.214
       164  -9.4916    129.3573     16.4655   1.8131186125e+01   5.0151735046e+01    0.1382037    0.1285783  55.45 0.0003255852    1.060    0.056
       165 -10.1599    147.2005    243.7771   6.7435724441e+01   6.9740391782e+00    0.1650419    0.1173006  10.08   0.00107852    1.375    0.273
       166  -9.7459    153.5593     12.6568   1.3008755462e+01   4.4215432269e+01    0.2067281    0.1470459  42.72  0.000503208    1.531    0.347
       167 -10.9091     37.1958    241.3023   8.9842243618e+01   2.0838819829e+01    0.3452441    0.1050564  52.19  0.001658357    2.662    0.624
       168  -9.5639    117.7482    238.9879   7.2901550207e+01   1.1600076064e+01    0.1222629    0.1054364 -53.00 0.0004016084    1.514    0.339
       169 -11.8024     18.8107    234.9554   9.3272136048e+01   2.3732541286e+01    0.2964972    0.1412151  18.25  0.001599695    2.603    0.616
       170 -11.0667      1.5269    233.7268   9.6655136414e+01   2.5457411250e+01    0.2323915   0.09004257  89.37  0.001101015    2.611    0.617
       171 -10.0026     32.1552    233.0000   9.0469981051e+01   2.2804001098e+01    0.2269428   0.07151737  28.26   0.00100811    2.721    0.633
       172 -10.9641     56.1784    230.8393   8.5287433159e+01   2.0643573155e+01    0.3184891    0.1994262   9.40  0.001787582    2.253    0.556
       173  -9.3520    161.5134    229.5267   6.2772581944e+01   7.0353521960e+00    0.1226285   0.09447701  23.54 0.0008097169    1.032    0.031
       174 -11.7752      6.9454    227.9220   9.5420856014e+01   2.6044920473e+01    0.3486621     0.131703  56.01  0.001954488    2.022    0.505
       175 -11.2269      1.8702    220.5693   9.6237861359e+01   2.7818009969e+01    0.3281782    0.1272754  89.19  0.001776949    2.562    0.610
       176  -9.6424    134.2704     10.4692   1.5093917137e+01   4.9472346296e+01    0.2095348    0.1261551  86.64 0.0006137183    1.798    0.444
       177  -9.3414    210.4261    215.5373   5.1390167961e+01   2.2310814365e+00    0.1197856   0.08855929   7.79 0.0001783516    1.050    0.047
       178  -9.7093    237.4500    186.7472   4.1958930245e+01   2.2312849997e+00    0.1613659   0.09264319 -17.17 0.0009363597    1.617    0.381
       179  -9.4989      1.2992    170.3255   9.4667140011e+01   3.8092820915e+01    0.1112264   0.08314878 -50.28 0.0004117133    1.633    0.387
       180  -9.5401      1.3113    164.3221   9.4410648390e+01   3.9424755808e+01    0.1138577   0.08346575 -48.91  0.000255322    1.652    0.395
       181  -9.6509    212.9723    155.0804   4.0171179341e+01   1.0189601543e+01    0.1593526    0.1300047 -15.58 0.0009807994    1.101    0.092
       182 -10.5521      7.2001    153.9826   9.2320972304e+01   4.1373614905e+01    0.1972468     0.137366  65.23 0.0007685698    1.266    0.210
       183  -9.5754     42.2141    149.3730   8.1833329489e+01   3.9393262338e+01    0.1814683    0.1100734  39.87 0.0002686145    1.523    0.343
       184 -10.3575     23.9826    148.1133   8.7115434428e+01   4.1449127240e+01    0.2830376    0.1856251 -52.67  0.001555691    1.658    0.397
       185 -11.8601      3.6795    146.0510   9.2871505229e+01   4.3456367557e+01    0.3667201    0.2134223 -87.65  0.001527923    1.547    0.354
       186  -9.4203    206.5028    145.4966   3.9376855781e+01   1.2731784745e+01    0.1335122    0.1159081  -2.13 0.0008106803    1.003    0.003
       187  -9.8203     32.0905    141.0686   8.4015435851e+01   4.2414697839e+01    0.1822739     0.164232 -53.57            0    1.209    0.173
       188 -11.3148     69.2329    135.8722   7.1692882938e+01   3.9326571364e+01    0.2451063    0.2249788 -47.75 0.0003632429    1.160    0.138
       189  -9.7783     70.4269    130.7286   7.0442635902e+01   4.0401768751e+01    0.1974521    0.1306045 -50.32 0.0005853602    1.569    0.363
       190 -10.5214     42.6933    129.3587   7.9251877302e+01   4.4223020119e+01     0.470568    0.1588683  44.44  0.001628878    2.959    0.662
       191  -9.1740    126.6865    129.2745   5.3463721521e+01   3.0989700354e+01    0.1473294    0.1179164  70.16 0.0001978248    1.559    0.359
       192 -11.0776    246.5106    127.5212   2.9318202973e+01   8.6428792935e+00    0.2094926    0.1617867  19.84 0.0005658296    1.357    0.263
       193 -10.8813     74.9861    126.5218   6.8219571106e+01   4.0750098252e+01    0.2519706    0.2072225 -60.16 4.212902e-05    1.240    0.193
       194  -9.7604     48.8587    124.8482   7.6557015087e+01   4.4653655116e+01    0.1898002     0.151616  62.59 0.0003112572    1.273    0.215
       195 -13.0196     83.0463    119.7858   6.4282151271e+01   4.1103711905e+01    0.3531577    0.3490003 -15.23 0.0005101938    1.048    0.046
       196 -10.4810     10.1138    121.1354   8.9180094513e+01   4.9039301030e+01    0.2256967    0.1672216 -33.12 0.0007164898    1.573    0.364
       197 -11.0769     15.4300    117.2316   8.7024162020e+01   4.9650775087e+01    0.4286115     0.155251 -50.47  0.001729399    2.803    0.643
       198 -10.4877     24.6535    120.4333   8.4199032515e+01   4.8155799511e+01    0.2956034    0.1490218  29.16  0.001032192    1.970    0.492
