#   1 NUMBER                 Running object number                                     
#   2 MAG_AUTO               Kron-like elliptical aperture magnitude                    [mag]
#   3 X_IMAGE                Object position along x                                    [pixel]
#   4 Y_IMAGE                Object position along y                                    [pixel]
#   5 X_WORLD                Barycenter position along world x axis                     [deg]
#   6 Y_WORLD                Barycenter position along world y axis                     [deg]
#   7 A_WORLD                Profile RMS along major axis (world units)                 [deg]
#   8 B_WORLD                Profile RMS along minor axis (world units)                 [deg]
#   9 THETA_WORLD            Position angle (CCW/world-x)                               [deg]
#  10 FWHM_WORLD             FWHM assuming a gaussian core                              [deg]
#  11 ELONGATION             A_IMAGE/B_IMAGE                                           
#  12 ELLIPTICITY            1 - B_IMAGE/A_IMAGE                                       
         1 -17.4806    243.1966     94.2198   6.4409766529e+01   1.3634512980e+01     7.555589     2.616501 -24.52    0.0288194    2.633    0.620
         2 -17.5897    239.3199     20.8726   4.5987097681e+01   2.2762887791e+01     3.915969     2.581478 -18.32   0.02131711    1.404    0.288
         3 -11.7739    188.2114     96.8553   7.3763327770e+01   2.4609400671e+01     4.101298    0.8729805 -31.98   0.01045545    4.802    0.792
         4 -13.8381    140.0491      8.1721   5.2896717435e+01   4.9111238608e+01      2.41539     1.509444  75.43  0.005981831    1.700    0.412
         5 -12.7976    150.8759      8.0805   5.1215747598e+01   4.6212101375e+01    0.8669138    0.3535322 -21.31  0.001659172    2.392    0.582
         6 -14.7478    146.3968     38.1146   6.3513546220e+01   4.3832649555e+01     5.600235     3.597013  80.19   0.02350442    2.039    0.509
         7 -11.8436    153.0054     20.6853   5.5741299062e+01   4.4325660645e+01    0.3665685    0.2552837 -30.73 0.0004413409    1.392    0.282
         8  -9.8998    196.0487      9.3114   4.6378391855e+01   3.4173559383e+01    0.2234117    0.1214737 -44.17 0.0009971755    1.758    0.431
         9 -11.0185    200.0156      7.1811   4.5349890955e+01   3.3364146990e+01    0.1892475     0.147886 -26.00  0.000695994    1.209    0.173
        10 -10.5265    207.5169      5.4410   4.4184543592e+01   3.1649135488e+01    0.2231626    0.1021222 -35.09 0.0007641508    1.896    0.473
        11  -9.8966    217.4644      1.3574   4.2242264837e+01   2.9584315508e+01    0.1261803    0.1222757 -52.58 0.0001833534    1.077    0.071
        12 -10.2630    208.8972      1.2468   4.2829088366e+01   3.1671527842e+01    0.1571903    0.1130361  73.83 -0.000430966    1.445    0.308
        13 -12.4091     68.6912    145.1261   1.1236877151e+02   3.7193153110e+01    0.7552668    0.3758031  61.67  0.002933477    2.409    0.585
        14 -11.6465    177.2186    137.9903   8.5741354768e+01   2.0265686093e+01    0.2456664    0.1882247  37.45 0.0007924506    1.233    0.189
        15 -11.2121    160.7119    128.0929   8.6988184968e+01   2.5120624250e+01    0.3361704    0.2535528 -47.77  0.001767443    1.463    0.317
        16 -12.8628    153.8221     82.2895   7.6674524663e+01   3.4808630302e+01    0.5670668    0.3961301  42.13  0.001015453    1.460    0.315
        17 -14.8328     16.6372    192.2016   1.2794852181e+02   3.3258814361e+01     1.468312    0.6315791  66.10  0.005449014    1.963    0.491
        18 -13.6621    168.5066     66.9910   6.8950993771e+01   3.3903117952e+01    0.7188351    0.6137645 -11.82  0.001413984    1.172    0.147
        19 -13.3655    170.4637     81.9341   7.3055683331e+01   3.1017682496e+01     1.065916    0.7812688   9.73  0.001592758    1.655    0.396
        20 -12.7377    176.9508     76.8531   7.0310491558e+01   3.0324746421e+01     0.762499    0.5063343 -47.09 0.0003518414    1.630    0.387
        21 -12.4542     41.6391    188.6868   1.2268981275e+02   3.1524937292e+01    0.4444356    0.1695072  62.25  0.002174875    2.684    0.627
        22 -10.7579    192.9665    195.0754   9.3266070683e+01   9.4605895469e+00     0.615528    0.3368773 -59.76  0.001899956    9.518    0.895
        23 -13.3848     48.0253    173.0472   1.2018853884e+02   3.3849905233e+01     0.516756    0.4085775  60.62   0.00164759    1.041    0.040
        24 -10.4870    140.8323    104.1481   8.5755311882e+01   3.3588030411e+01    0.2051471    0.1749275  -1.75 0.0005786823    1.307    0.235
        25 -11.5127    164.1585    102.7148   8.0098274091e+01   2.8880290688e+01    0.2300121    0.1937077  69.98 0.0008686636    1.443    0.307
        26 -10.6623    133.1224     96.0544   8.5509825235e+01   3.6789945506e+01    0.2484048    0.2224872  64.66 0.0004513633    1.215    0.177
        27 -12.8582    155.2705     92.5829   7.9304415757e+01   3.2635518780e+01    0.5885961    0.4250225  32.52  0.002189807    1.479    0.324
        28 -11.6131    139.9116     89.0827   8.1891465770e+01   3.6687477145e+01    0.3601343    0.3128369 -54.49  0.001043364    1.226    0.184
        29  -9.8113    125.1226     85.8787   8.4715373509e+01   4.0516949968e+01    0.2318853    0.2047016 -73.34 0.0007218972    1.283    0.221
        30 -10.2867    128.8012     84.0672   8.3222699044e+01   4.0088686900e+01    0.2324553    0.2068768 -69.44 0.0008087301    1.256    0.204
        31 -13.4954     54.6136    168.1130   1.1827758925e+02   3.4101159537e+01    0.7449017    0.5224271  53.68  0.002682052    1.217    0.179
        32 -11.3321    185.2073     70.7694   6.7016240093e+01   2.9312544028e+01    0.2945408    0.2218475  32.73 0.0007949371    1.414    0.293
        33 -11.2010    190.0502     67.7266   6.5291087169e+01   2.8612710599e+01    0.4316941    0.2457049  34.27  0.001267951    2.099    0.524
        34 -13.5865    130.4087     63.2891   7.6209602798e+01   4.3687808456e+01    0.8103198    0.5071762 -42.11  0.003541243    1.570    0.363
        35 -11.6234    134.7691    107.8878   8.8174568207e+01   3.4103313119e+01     0.961856    0.2023957 -43.94  0.002564821    4.782    0.791
        36 -12.0930    147.2862     57.5526   7.0259365427e+01   4.0624113300e+01    0.2994844    0.2703732 -38.46 0.0007077334    1.099    0.090
        37  -9.4944    195.0594     57.4814   6.1448545701e+01   2.8854539187e+01    0.1794565    0.1488614  67.45 7.583944e-05    1.341    0.254
        38 -12.2291    203.8702     58.0254   6.0303435889e+01   2.6683406533e+01    0.6342826    0.5465503   9.91  0.002507286    1.196    0.164
        39 -10.5285    189.6811     50.4166   6.0120786931e+01   3.1116047927e+01    0.2279291    0.1646522 -38.10  0.001108395    1.324    0.245
        40 -11.3827    151.2788    106.0385   8.3798708341e+01   3.1035690656e+01    0.4468555    0.2784094 -67.23  0.001499055    2.861    0.650
        41 -11.4762    209.2332     37.3633   5.3535773003e+01   2.7962583894e+01    0.3123123    0.2602556 -39.62  0.001066176    1.132    0.117
        42  -9.8890    202.0037     35.4048   5.3818329348e+01   2.9947068823e+01    0.2729173    0.1605563 -42.04 0.0007221322    1.630    0.386
        43 -11.5122    146.5533     99.6889   8.3231938374e+01   3.3229507326e+01    0.3732812    0.2852436 -46.56  0.001081805    1.349    0.259
        44 -10.3670    200.3101    107.3147   7.4252219265e+01   2.0437407791e+01    0.1469042    0.1024311  11.25 0.0002550732    1.633    0.387
        45 -10.8610    203.7019     17.9067   4.8295759407e+01   3.1420366340e+01    0.2801141    0.1866199 -24.10 0.0006850957    1.399    0.285
        46 -11.6994    207.6380    122.1255   7.6517290251e+01   1.6808413445e+01    0.2722543    0.1904103  32.93  0.001458939    1.393    0.282
        47 -13.3629     59.4711    162.9888   1.1666280391e+02   3.4576095648e+01     0.703383    0.4618463  55.63  0.001762994    1.348    0.258
        48 -12.9694     29.7225    175.7477   1.2440806088e+02   3.5181104568e+01    0.4599274    0.1913301 -86.11  0.002420363    2.392    0.582
        49 -12.9565    225.0600    246.5954   9.5348731179e+01  -1.8796978002e-01    0.4004919    0.2893076  -0.74  0.003384197    1.318    0.242
        50 -12.2800    168.0765    113.8361   8.2083566807e+01   2.6113606198e+01    0.3968183      0.34939  72.83  0.000932687    1.401    0.286
        51 -11.8611    202.3795    248.5743   9.9072910592e+01   2.4336571424e+00    0.2025983    0.1464692  27.65 0.0007249351    1.129    0.114
