#   1 NUMBER                 Running object number                                     
#   2 MAG_AUTO               Kron-like elliptical aperture magnitude                    [mag]
#   3 X_IMAGE                Object position along x                                    [pixel]
#   4 Y_IMAGE                Object position along y                                    [pixel]
#   5 X_WORLD                Barycenter position along world x axis                     [deg]
#   6 Y_WORLD                Barycenter position along world y axis                     [deg]
#   7 A_WORLD                Profile RMS along major axis (world units)                 [deg]
#   8 B_WORLD                Profile RMS along minor axis (world units)                 [deg]
#   9 THETA_WORLD            Position angle (CCW/world-x)                               [deg]
#  10 FWHM_WORLD             FWHM assuming a gaussian core                              [deg]
#  11 ELONGATION             A_IMAGE/B_IMAGE                                           
#  12 ELLIPTICITY            1 - B_IMAGE/A_IMAGE                                       
         1 -13.4020     23.4220     71.4436   1.1884920614e+02   5.8927140600e+01     7.539907     1.420757 -67.41   0.01766745    8.639    0.884
         2 -14.3013      3.3753     74.8863   1.2649986051e+02   5.9416940987e+01     3.580683    0.2193815 -61.42   0.01256437    4.033    0.752
         3 -14.4134      5.9422    107.0495   1.2998695977e+02   5.2085661870e+01      10.3068          nan -70.51   0.02272926   10.285    0.903
         4 -13.9644      8.0777    128.1436   1.3158416499e+02   4.7222531603e+01      2.11847    0.9444427 -59.42   0.01159701    1.944    0.485
         5 -14.7477    198.7681     24.7435   5.6248619391e+01   3.2268404564e+01      3.48493     1.908691  21.63   0.01090416    3.253    0.693
         6 -13.9190      1.9902     30.0139   1.1739815063e+02   6.8922276012e+01      4.48056    0.2231388 -60.82   0.01201667    7.715    0.870
         7 -14.0576     99.8933    175.4274   1.1551398764e+02   2.6073628130e+01     2.164256     1.177935 -66.43   0.01053346    1.989    0.497
         8 -10.5051     70.4181    249.0278   1.2878070689e+02   1.6718559190e+01    0.3446687    0.1720172  34.98  0.001705938    2.133    0.531
         9 -10.9834     29.0070    209.7935   1.3333600620e+02   2.8371493090e+01     1.101718    0.6345569 -69.87  0.007391519    1.736    0.424
        10 -15.8697      6.1771    241.4352   1.3864884803e+02   2.5059347700e+01      2.08388     1.370379  76.57   0.01751235    1.128    0.114
        11 -13.7113     22.0468    243.7443   1.3629620559e+02   2.3121730063e+01    0.5774898    0.4626987  51.39  0.002896603    1.405    0.288
        12 -13.9116     10.4040    206.8462   1.3646954264e+02   3.0742340341e+01     0.705353    0.3961691  31.38  0.003740225    2.152    0.535
        13 -15.2526      6.4196    192.5274   1.3645074107e+02   3.3824593511e+01     1.359816    0.6512225  82.97  0.008427546    1.736    0.424
        14 -15.2283     48.6033    239.7784   1.3180003106e+02   2.0879299758e+01     1.628575    0.7554641  69.40  0.008898379    2.035    0.509
        15 -14.1631     35.3283    242.9603   1.3415326063e+02   2.1846710849e+01    0.6977191    0.3519216  73.19  0.002396828    1.702    0.413
        16 -12.7623     58.2247    202.6353   1.2733792570e+02   2.6421584760e+01    0.7777924    0.7151389  28.03  0.005779904    1.512    0.339
        17 -14.1597     89.6761    206.4213   1.2153399655e+02   2.1490666784e+01     2.378768     1.026952  59.65   0.01062925    2.691    0.628
        18 -12.6974     54.3860    223.3489   1.2970244775e+02   2.3036119029e+01    0.8180239    0.5103586  62.60  0.005583852    1.274    0.215
        19 -11.9640     48.2833    213.9322   1.3011741965e+02   2.5473622497e+01    0.3606974    0.2374294 -53.91 0.0007105719    2.058    0.514
        20 -14.1151     90.5186    191.8748   1.1970271409e+02   2.4169200732e+01     1.972142    0.9822826  49.99  0.009997576    1.799    0.444
        21 -14.4598     50.6270    127.9556   1.2050949735e+02   4.3420878478e+01     2.411277     1.598958 -14.54   0.01194933    2.647    0.622
        22 -13.7587     64.1832    187.6337   1.2472165841e+02   2.8651134625e+01     1.252194     1.013445  65.59  0.008520751    1.062    0.058
        23 -13.0261     70.1295    223.6505   1.2688796696e+02   2.1016068489e+01    0.6858915     0.352734  43.23   0.00286798    1.646    0.392
        24 -13.8520     73.2443    215.9593   1.2564713257e+02   2.1992429232e+01     1.648933    0.4031674  45.65  0.006927994    3.096    0.677
        25  -9.6033     36.6805    212.2437   1.3210993681e+02   2.7096704635e+01    0.1989831    0.1198883  45.86    0.0013398    1.477    0.323
        26 -14.0815     64.4433    132.1160   1.1748757082e+02   4.0789732498e+01      2.46659      1.01892 -52.83   0.01063037    2.290    0.563
        27 -10.9887    199.1000    198.8423   9.8816466501e+01   4.5073249506e+00    0.3293176     0.188812  29.67  0.001681258    1.671    0.402
        28  -9.9502    193.2989    194.9439   9.9230317068e+01   6.1103000091e+00    0.1900322    0.1036717 -60.62 0.0007036166    4.253    0.765
        29  -9.9235    208.5926    186.2282   9.4764681483e+01   4.6822252270e+00    0.1780119    0.1189681 -19.14 0.0008534709    1.650    0.394
        30 -12.2969     46.1860    174.6455   1.2722641299e+02   3.3522276935e+01      1.02051    0.5053889 -69.59  0.004743109    1.827    0.453
        31 -11.3138    120.5030    157.8291   1.0796385629e+02   2.6297348011e+01    0.3119526    0.2643246 -80.75  0.001726982    1.246    0.197
        32 -12.0750    120.5614    163.5931   1.0896658066e+02   2.5082301843e+01    0.7288957    0.4506175  47.06  0.003593469    1.525    0.344
        33 -13.2959    142.4278    129.4880   9.6929549775e+01   2.8055011307e+01     1.115924    0.7551626 -39.51  0.005191403    1.543    0.352
        34 -13.3032    156.7174    123.4904   9.2150945098e+01   2.6255467101e+01     1.522622     1.106804  39.07  0.007248756    1.385    0.278
        35 -12.0701    119.8164    124.1314   1.0130735916e+02   3.3710571444e+01    0.6310982    0.3382112 -35.79  0.002489609    2.338    0.572
        36 -13.5969    128.8417    133.1819   1.0105807365e+02   3.0001174779e+01     1.143835    0.8646173 -61.44  0.005713071    1.411    0.291
        37 -13.5898    136.7563    146.3798   1.0195196361e+02   2.5666639388e+01      1.41141     1.082516  33.10   0.00723117    1.363    0.266
        38 -13.1557    151.9440    137.8805   9.6601324934e+01   2.4362942352e+01     1.154144    0.8251051   2.68  0.005059692    2.116    0.527
        39 -10.6854    140.1260    249.5989   1.1685754133e+02   6.8625461384e+00    0.2757348   0.08993315  35.29   0.00114719    3.193    0.687
        40 -14.9670     73.6808    161.6456   1.1956220878e+02   3.2894192174e+01     2.059732     1.499695 -43.29   0.01169827    1.721    0.419
        41  -9.4255     87.2534    240.2377   1.2522511475e+02   1.5921994357e+01    0.1523998   0.09919887  65.19 0.0006247773    1.344    0.256
        42 -14.5259     84.6439    165.2048   1.1751062642e+02   3.0561648030e+01      2.28865     1.174945 -42.72   0.01003255    2.752    0.637
        43 -11.0462    193.3648    236.8856   1.0585807645e+02   3.0255731808e-01    0.1991279     0.188072 -66.41   0.00149314    1.534    0.348
        44  -9.4758    112.3269    132.9667   1.0514433704e+02   3.3153912446e+01    0.2047197    0.1854443 -51.92 0.0006795167    1.116    0.104
        45 -12.7505     88.8186    127.9936   1.1026569822e+02   3.8255636590e+01     1.203917    0.7634403  21.10  0.005514815    2.219    0.549
        46 -11.9619    102.2748    128.6842   1.0684860261e+02   3.5883888401e+01     0.716274    0.5285777  34.90  0.002177667    1.461    0.315
        47  -9.9892    108.5147    120.9715   1.0354149576e+02   3.6515025621e+01    0.2578244    0.2049956  21.18 0.0005646326    1.512    0.338
        48 -11.9922     41.8244    111.8475   1.2043011100e+02   4.8097412774e+01    0.6324102    0.3819354 -65.39  0.002738778    1.398    0.285
        49 -10.1056    167.4005    112.4347   8.6966811624e+01   2.6063240506e+01    0.3191943    0.2558044 -70.29 0.0009008304    1.553    0.356
        50 -12.3008     83.9595    103.7519   1.0644282439e+02   4.4568627508e+01     1.070568     0.710348 -86.69  0.004774811    2.226    0.551
        51 -12.4038     83.8594     90.8670   1.0328779056e+02   4.7484635641e+01     1.038445    0.7334293  74.80  0.004869754    2.092    0.522
        52 -13.5443     55.0440     98.6589   1.1404665746e+02   4.9707327376e+01     1.589311    0.7113205 -49.97  0.007146082    1.996    0.499
        53 -11.8274    150.8300     96.7047   8.6562532666e+01   3.2920767623e+01    0.4757042    0.4027901  34.63  0.002386101    1.214    0.176
        54 -10.8432    184.5011     77.1350   7.3743480555e+01   2.8411421812e+01    0.2624143    0.2137243  29.83 0.0009220339    1.338    0.252
        55 -11.7903     40.2706     74.7989   1.1361835602e+02   5.6717303127e+01    0.3803647    0.2226747 -53.59  0.002057752    1.406    0.289
        56 -12.2523     48.8807     69.7118   1.0927213181e+02   5.6922552693e+01    0.4907287    0.2908678 -36.81  0.002531195    1.678    0.404
        57 -11.7108     47.9830     63.4616   1.0786826368e+02   5.8365168426e+01    0.4443782    0.2391035 -54.59  0.002235762    1.632    0.387
        58 -12.2187     92.1512    144.0283   1.1236697463e+02   3.4093045938e+01    0.6433486    0.4113594  36.19 0.0006199048    1.663    0.399
        59 -14.2378    114.6566    194.9294   1.1506485267e+02   1.9844362685e+01      1.95605     1.628636  70.91    0.0107867    1.152    0.132
