#   1 NUMBER                 Running object number                                     
#   2 MAG_AUTO               Kron-like elliptical aperture magnitude                    [mag]
#   3 X_IMAGE                Object position along x                                    [pixel]
#   4 Y_IMAGE                Object position along y                                    [pixel]
#   5 X_WORLD                Barycenter position along world x axis                     [deg]
#   6 Y_WORLD                Barycenter position along world y axis                     [deg]
#   7 A_WORLD                Profile RMS along major axis (world units)                 [deg]
#   8 B_WORLD                Profile RMS along minor axis (world units)                 [deg]
#   9 THETA_WORLD            Position angle (CCW/world-x)                               [deg]
#  10 FWHM_WORLD             FWHM assuming a gaussian core                              [deg]
#  11 ELONGATION             A_IMAGE/B_IMAGE                                           
#  12 ELLIPTICITY            1 - B_IMAGE/A_IMAGE                                       
         1 -13.6166    231.9725     26.7098   3.5120857660e+02   2.6870116039e+01    0.7902319    0.6100181 -47.43  0.004092852    1.080    0.074
         2  -9.8337    227.0776      9.9125   3.4784676120e+02   2.9566241697e+01     0.175666    0.1319379 -54.54 0.0007307433    1.017    0.016
         3 -10.0906     36.3963    243.4907   7.1826321364e+01   1.7884380345e+01    0.2659995    0.1647286 -25.12  0.001434762    2.617    0.618
         4 -11.3202    101.4232    247.5039   5.7794433338e+01   1.0300006051e+01    0.5141333     0.270365 -66.28  0.002689133    2.585    0.613
         5 -14.4537    130.0262    229.4094   4.9561760949e+01   1.0054825314e+01     1.775753     1.213229  27.81   0.01079851    1.259    0.206
         6 -12.6873     27.8564    249.9668   7.3993299699e+01   1.7459546291e+01    0.3832031    0.2230332   5.35  0.002130264    2.296    0.564
         7 -18.4667     13.3604    203.4525   7.5266183730e+01   2.8353963898e+01     9.901174     3.599317 -81.77   0.04289089    2.765    0.638
         8 -10.7136     89.0819    221.5812   5.7929686726e+01   1.6491126570e+01    0.2842831    0.2013613  28.68 0.0008872194    1.219    0.180
         9  -9.4662     71.7191    222.6178   6.2170301293e+01   1.8318834459e+01    0.1252939   0.09212159 -25.47 0.0007007424    1.723    0.420
        10 -14.0704    112.1031    228.8990   5.3445340215e+01   1.2319641022e+01     2.883853     1.613775  55.17   0.01391029    2.561    0.610
        11 -11.5992    111.5017    214.4275   5.1808659880e+01   1.5104051951e+01     0.240275    0.2268191  73.24 0.0007917135    1.267    0.211
        12 -12.1165    124.8378    205.5060   4.7495921469e+01   1.5081243614e+01    0.3863995    0.1791697 -49.95  0.001772295    2.272    0.560
        13  -9.8857    210.9497    198.8861   2.9110117399e+01   5.0893887918e+00    0.1802559    0.1381974 -11.06 0.0004719315    1.026    0.025
        14 -10.7946    102.8156    238.0719   5.6533557935e+01   1.1777160323e+01    0.3456554    0.1776116 -52.69   0.00137799    2.225    0.551
        15 -11.0536     43.9746    231.8562   6.9439712745e+01   1.9420953144e+01     0.229371    0.1577665 -73.96  0.001027895    1.641    0.391
        16  -9.0611     68.5691    193.5888   6.0016243864e+01   2.4982099191e+01    0.1354361    0.1219992  43.65 0.0001516545    1.013    0.013
        17  -9.1070    234.3948    191.1853   2.4063089693e+01   3.5134073201e+00    0.1501203   0.08884579 -39.48 0.0004590838    1.632    0.387
        18 -10.4019     45.0920    188.7315   6.5888079771e+01   2.8819197969e+01    0.3717178    0.1873717  69.75  0.001416469    2.421    0.587
        19 -10.3327     47.2462    229.2462   6.8506802150e+01   1.9616754179e+01    0.1881638    0.1457627  54.72 0.0009274862    1.167    0.143
        20 -10.5349     37.3676    176.0379   6.6919163884e+01   3.2746870833e+01    0.3924953    0.2253779  15.20   0.00122905    1.968    0.492
        21 -11.0011     47.2761    173.5874   6.3785730980e+01   3.2312117454e+01     0.350559    0.2731656  -5.54  0.001012626    1.575    0.365
        22 -11.1926     49.3829    183.7153   6.4220645149e+01   2.9566493975e+01    0.4710092    0.2133832  52.15   0.00146913    2.285    0.562
        23 -12.9430     46.2133    180.3141   6.4780019326e+01   3.0749583140e+01    0.5610648    0.4429351 -46.29  0.002440687    1.431    0.301
        24  -9.9642    157.1488    184.7901   3.6948567838e+01   1.4505234815e+01    0.1868934    0.1424122  -8.60 0.0004488889    1.322    0.244
        25 -10.7252    115.7798    182.5912   4.6188531645e+01   2.1039390829e+01    0.2078156    0.1200374  40.86 0.0009566959    1.709    0.415
        26 -11.2307    179.8916    166.7932   2.8989764326e+01   1.4432648904e+01    0.6246035    0.3473015 -39.06  0.003137085    1.639    0.390
        27 -11.2333    171.6166    175.1360   3.2199344755e+01   1.4164548685e+01    0.3393914    0.2902174 -26.26  0.001008056    1.091    0.083
        28 -11.3725    173.3866    171.7769   3.1217481794e+01   1.4510132418e+01    0.4068588    0.2858606  50.01  0.001783421    1.867    0.464
        29 -12.8962     59.7293    170.0394   5.9710521551e+01   3.1751899005e+01    0.9121837    0.9025119  48.60   0.00491699    1.073    0.068
        30 -11.2000    104.8051    171.9505   4.7276199855e+01   2.5039204942e+01    0.3075602    0.2413499 -61.84 0.0007374086    1.368    0.269
        31 -11.6305     46.2175    237.8066   6.9300995764e+01   1.8021892191e+01     0.221783    0.1545335 -66.66  0.001289258    1.672    0.402
        32 -12.0673     89.3006    169.9092   5.1173070781e+01   2.7810333708e+01    0.6238239     0.423541  22.64   0.00292931    1.524    0.344
        33 -10.5839     69.3603    173.1808   5.7310044082e+01   2.9752904496e+01    0.2493888    0.2075296  44.86 0.0006445934    1.140    0.123
        34 -10.6612    110.7800    167.3832   4.4914897049e+01   2.5166661589e+01    0.2822857    0.1988723 -78.17 0.0009759585    1.912    0.477
        35 -11.8576     81.4525    164.3352   5.2536027262e+01   3.0292214846e+01    0.7750398    0.3839228  17.12  0.002872133    2.697    0.629
        36 -11.8937     53.3442    158.4187   6.0164674988e+01   3.5508942755e+01    0.4549445     0.310356  70.32 0.0001128139    1.612    0.380
        37 -11.6461     60.6987    156.2760   5.7577312926e+01   3.5155699663e+01    0.7579831    0.3116924 -67.44  0.002822298    2.474    0.596
        38 -10.8501     83.1692    149.7764   4.9601679683e+01   3.3680608010e+01    0.2880279    0.2604453 -23.61 0.0003783235    1.198    0.165
        39 -13.0203     54.8595    147.2769   5.8140088303e+01   3.8261989045e+01    0.7851695     0.720197 -25.77  0.001731237    1.210    0.174
        40 -12.2679     46.9401    143.8462   6.0274348002e+01   4.0134343244e+01    0.5630333    0.3891616  78.94  0.001490747    1.584    0.369
        41 -11.0249     78.6994    145.4698   5.0206398528e+01   3.5451564590e+01    0.3398713    0.2330366  60.12  0.001016361    1.685    0.407
        42 -14.7840     69.4714    144.2936   5.2921731651e+01   3.7103223451e+01     2.632704     1.486286  81.13  0.006067207    2.905    0.656
        43 -11.8644     75.3222    156.3452   5.3089802419e+01   3.3164549144e+01     0.397042    0.3621342   1.14 0.0008755159    1.193    0.162
        44 -12.8268     68.6333    134.8631   5.1519374134e+01   3.9703802743e+01    0.8675767    0.5919371  66.00  0.002007118    1.762    0.432
        45 -11.1351    134.0000    148.0143   3.5236394269e+01   2.5653780142e+01    0.5293591    0.2145671 -53.68   0.00188541    2.727    0.633
        46 -11.8696    131.1467    143.3664   3.4960254693e+01   2.7173664740e+01    0.6897613    0.4033547 -37.12  0.002102435    1.802    0.445
        47 -10.7119    104.0596    232.6813   5.5678521831e+01   1.2597845010e+01    0.2372395    0.1787766 -45.90  0.000534629    1.514    0.339
        48 -12.2373     89.9712    144.2252   4.6518225302e+01   3.4018118305e+01    0.6304027     0.491853 -24.65  0.003049934    1.506    0.336
        49 -11.1643    108.8293    145.4162   4.1289008648e+01   3.0602378258e+01    0.3038125     0.300288 -24.99 0.0006718535    1.009    0.009
        50  -9.7800    108.9161    139.6476   4.0066029546e+01   3.1958230985e+01    0.2100001    0.1940511  41.55  0.000550019    1.098    0.089
        51 -12.1840    104.7330    131.7598   3.9548732924e+01   3.4588004453e+01    0.6399987    0.4392759 -22.91  0.001811622    1.939    0.484
        52  -9.8252    223.1227    131.5244   1.4658408550e+01   1.3814405245e+01     0.389225    0.1224523 -48.11   0.00132867    4.234    0.764
        53 -11.4994     91.0927    131.4632   4.3584054665e+01   3.7036635878e+01    0.3162602    0.2802299 -42.96 0.0003759022    1.139    0.122
        54  -9.6867     82.7539    129.3163   4.5770439103e+01   3.8969184821e+01    0.2464033     0.203196 -72.66 0.0004620518    1.265    0.210
        55 -11.4862    112.4314    125.7055   3.5959881944e+01   3.4622846240e+01    0.4070049     0.273599 -29.27  0.001120921    1.801    0.445
        56 -10.3614     99.2996    121.0931   3.8712961631e+01   3.8159239040e+01    0.2763949    0.2410873  -0.54 0.0004945309    1.311    0.237
        57 -12.2094     71.1265    160.1271   5.4944478985e+01   3.2786403729e+01    0.4786487    0.4060319 -29.19  0.001623893    1.328    0.247
        58  -9.9648    123.5382    117.5114   3.0939630497e+01   3.4367925199e+01    0.1517805    0.1463023 -47.21 6.254882e-05    1.010    0.010
        59 -10.1447    108.0358    116.0223   3.4870515830e+01   3.7734082523e+01    0.2301535    0.2233052 -58.51 0.0003283888    1.016    0.016
        60 -12.8643     54.1425    110.9819   5.2000868839e+01   4.8143166339e+01    0.6911175    0.5125935  68.69  0.003239685    1.563    0.360
        61 -10.8630     61.1158    109.8572   4.9093068357e+01   4.7449867244e+01     0.243724    0.2075556  68.82 0.0008102609    1.268    0.211
        62 -10.8558    114.9885    109.0009   3.1082859283e+01   3.7988477336e+01    0.2498093     0.194473  -8.50   0.00102053    1.695    0.410
        63 -10.9188    111.4059    105.0699   3.1049502430e+01   3.9603757502e+01    0.2951915    0.2373441  41.74 0.0004601013    1.282    0.220
        64 -11.5399     40.6344    103.5557   5.5882005028e+01   5.1872047488e+01    0.3799205    0.2577663  49.29  0.001193393    1.589    0.371
        65 -10.0669     62.5135     97.4339   4.5562811561e+01   5.0487482441e+01    0.2138344    0.1495986 -72.04 0.0004929258    1.583    0.368
        66 -10.3367    114.5504     95.3872   2.7468919229e+01   4.1106901842e+01    0.3071799    0.1359196  58.20 0.0009533478    3.393    0.705
        67  -8.5970    194.2648    222.6298   3.5810841776e+01   3.5493562597e+00   0.09528561   0.09239176 -36.01 0.0006113229    1.659    0.397
        68 -11.1606     15.1705     89.7710   6.4652746759e+01   5.8047514967e+01     0.285859     0.175344  33.65  0.001018777    1.721    0.419
        69 -10.7319     47.4515     89.1311   4.9677808816e+01   5.4857214311e+01    0.3410278    0.2062524  40.52  0.001061592    1.721    0.419
        70  -9.0776    207.7011     82.3640   6.0462098999e+00   2.4061468282e+01    0.1380126   0.08439355 -57.77 0.0007033711    1.722    0.419
        71 -12.0666    184.5155     64.8111   4.7603332864e+00   3.1330262553e+01    0.3920829    0.3240523 -45.77 0.0007992061    1.065    0.061
        72 -10.1406     86.4853     66.6312   2.6958539587e+01   5.3227068851e+01    0.4349641    0.2596921  66.93  0.001665342    2.496    0.599
        73 -11.2071     79.3100     62.0191   2.7819872487e+01   5.5681199010e+01    0.4499516    0.2904196  64.97  0.001298518    2.055    0.513
        74 -13.4961    201.5332     52.7264   3.5968337707e+02   2.9530779903e+01     1.019754    0.8613195  31.76  0.004196887    1.616    0.381
        75 -12.4321    207.5133     48.1348   3.5797272939e+02   2.8942569582e+01    0.4333598    0.4177096 -49.64  0.001532025    1.239    0.193
        76 -10.2012     41.0323     54.7879   4.2057371080e+01   6.4164003724e+01    0.2362673    0.2018207 -46.16 0.0004770707    1.141    0.124
        77 -10.1477     40.7054     47.4854   3.9316538220e+01   6.5811632995e+01    0.2758837    0.2217578  -2.42  0.001028653    1.343    0.255
        78  -9.0135     55.6527     42.2848   2.9443624767e+01   6.4276779796e+01    0.1388842    0.1138029  79.30 0.0007018937    1.650    0.394
        79  -9.3916     50.0098    246.6805   6.9005953258e+01   1.5956493935e+01     0.253469    0.1114751  53.66 0.0007516375    2.226    0.551
        80 -12.1714     32.9338     15.1004   2.6928552420e+01   7.3047259066e+01    0.7062889    0.2121279  49.86  0.002293785    4.386    0.772
        81 -10.3382     61.0473     21.7666   1.6816547560e+01   6.6516046507e+01    0.2063885    0.1847287  76.39  0.001214465    1.268    0.211
