#   1 NUMBER                 Running object number                                     
#   2 MAG_AUTO               Kron-like elliptical aperture magnitude                    [mag]
#   3 X_IMAGE                Object position along x                                    [pixel]
#   4 Y_IMAGE                Object position along y                                    [pixel]
#   5 X_WORLD                Barycenter position along world x axis                     [deg]
#   6 Y_WORLD                Barycenter position along world y axis                     [deg]
#   7 A_WORLD                Profile RMS along major axis (world units)                 [deg]
#   8 B_WORLD                Profile RMS along minor axis (world units)                 [deg]
#   9 THETA_WORLD            Position angle (CCW/world-x)                               [deg]
#  10 FWHM_WORLD             FWHM assuming a gaussian core                              [deg]
#  11 ELONGATION             A_IMAGE/B_IMAGE                                           
#  12 ELLIPTICITY            1 - B_IMAGE/A_IMAGE                                       
         1 -12.8451    150.5693     59.6957   8.2167453447e+01   3.9598853957e+01     1.636936     1.301294  -2.51  0.005774036    1.569    0.362
         2 -12.9748    162.0204     44.7050   7.5495259541e+01   3.8968719896e+01     1.119025     1.009681 -38.22  0.003930479    1.218    0.179
         3 -13.3185    176.1436     11.5083   6.4177969345e+01   3.9371369152e+01     1.401864      1.04399  76.57  0.005944531    1.145    0.127
         4 -11.2707    187.5952    238.1329   1.1494693352e+02  -3.3464445683e+00    0.4512947    0.2278093 -43.99  0.001028717    2.307    0.566
         5  -9.5629    176.0266    249.6439   1.1903831194e+02  -3.1661228426e+00    0.2104942    0.1820761 -17.04 0.0005667825    1.347    0.257
         6 -18.9852     70.8255    228.3986   1.3732999507e+02   1.8308117963e+01     5.390943     4.220885  59.94   0.02200981    1.111    0.100
         7 -11.1692    204.3647    176.9563   1.0006447583e+02   4.3550760379e+00    0.5654487    0.4121421 -61.93   0.00238579    1.791    0.442
         8 -11.2272    203.6588    168.9655   9.8510100946e+01   6.0402710907e+00     0.867083    0.5865036 -51.15  0.004043811    1.623    0.384
         9 -10.1065    198.8015    178.7509   1.0159092033e+02   5.1296110778e+00    0.5450182    0.3626839 -83.42  0.001992301    3.416    0.707
        10 -11.6024    194.9302    169.3194   1.0040452519e+02   7.7775691940e+00    0.4628134    0.4258573 -39.25 0.0009279871    1.107    0.097
        11 -10.7430    192.0682    164.9607   1.0006720362e+02   9.2550265414e+00    0.4684202    0.3374057  24.95  0.001424989    1.592    0.372
        12 -11.8457    137.8442    172.2806   1.1399438364e+02   1.9091216250e+01     0.834243    0.5490479  61.46  0.002282988    1.746    0.427
        13 -10.6501    125.8153    172.8790   1.1701509090e+02   2.1337346716e+01     0.379525    0.3267913 -68.29 0.0007856844    1.180    0.152
        14 -10.6988    180.2454    193.6846   1.0855493352e+02   5.9437095225e+00    0.3687139    0.3068412  81.13  0.001901272    1.551    0.355
        15 -10.1143    142.6607    168.0068   1.1197530477e+02   1.9077056816e+01    0.4117402    0.2905606 -84.38  0.001222234    1.987    0.497
        16  -9.9967    230.1011    167.2584   9.2957760566e+01   1.1059693708e+00    0.2730913    0.1871468 -63.42  0.001245556    2.144    0.534
        17 -10.1068    121.7179    166.1827   1.1672177219e+02   2.3686705152e+01    0.5529018    0.2979291  65.47  0.001902988    3.003    0.667
        18  -8.9602     24.6240    166.6597   1.4056251567e+02   3.7718395795e+01    0.2475967    0.1731931 -44.99  0.001485051    1.728    0.421
        19  -8.5522    167.6360    241.2262   1.1943504111e+02  -3.5153251549e-01    0.1572807    0.1245512 -30.78  0.000260167    1.520    0.342
        20  -9.1223    129.6590    162.2155   1.1395699472e+02   2.3048801693e+01    0.3352931    0.2085949  42.36  0.001140801    1.584    0.369
        21 -11.2900    250.6255    232.2610   1.0190268975e+02  -1.2673095377e+01    0.1892234     0.111854 -30.05 0.0002478469    1.652    0.395
        22  -9.1939     22.6853    156.8468   1.3991259511e+02   4.0168066819e+01    0.2037021    0.1645004  53.53 0.0004158512    1.348    0.258
        23 -10.0676     17.1770    159.8215   1.4153280117e+02   3.9974106175e+01    0.1999937    0.1936239  82.27 0.0007103166    1.289    0.224
        24  -9.5586     17.9069    156.0933   1.4095625618e+02   4.0767271994e+01    0.3041772    0.1998892 -87.31  0.001060303    1.329    0.248
        25  -9.6881    121.6803    199.4264   1.2267146620e+02   1.6143418323e+01    0.2889395     0.265507 -53.77  0.001233968    1.216    0.178
        26  -9.9091    121.7109    158.0901   1.1509768389e+02   2.5587087339e+01    0.3711974    0.2753251 -73.16 0.0008659714    1.518    0.341
        27 -11.3360    133.8711    146.1988   1.0945418005e+02   2.5908027214e+01     1.302698     0.356632 -55.10  0.003109261    5.317    0.812
        28  -9.2357      7.0345    150.5617   1.4291363861e+02   4.2908878286e+01    0.3158953    0.1626467 -40.55  0.001645499    2.549    0.608
        29 -11.9715    163.8165    189.4398   1.1134142727e+02   1.0093218386e+01    0.8226898    0.4673868  50.11  0.003517475    1.762    0.433
        30  -8.6773    177.9761    148.5656   9.9463061215e+01   1.5732242169e+01     0.235659     0.204026 -42.80 0.0001500456    1.164    0.141
        31  -9.9667    143.7465    146.5964   1.0707256701e+02   2.3723253310e+01    0.4900911    0.2450838 -57.98  0.001740259    2.416    0.586
        32  -9.7402     26.9628    146.5127   1.3759837440e+02   4.2180139123e+01    0.2618843    0.2219769 -72.22 0.0009991995    1.067    0.063
        33 -10.1930    224.2587    142.6947   8.8673269678e+01   6.8268243524e+00    0.2478797    0.2362286 -47.50 0.0003421247    1.060    0.057
        34 -11.5972    108.2008    136.6106   1.1402165586e+02   3.3266219020e+01    0.5415025    0.3983273 -79.66   0.00156192    1.668    0.400
        35 -10.3514    108.5087    131.5059   1.1277719499e+02   3.4411946778e+01    0.3043096    0.2561393  67.50 0.0009365138    1.299    0.230
        36 -10.1942    169.4173    196.1978   1.1139302024e+02   7.5979444531e+00    0.4843396    0.1460149 -48.05  0.001539969    3.630    0.725
        37 -11.4045    117.2135    136.8960   1.1166748098e+02   3.1465788399e+01    0.5864104    0.3969987 -50.42  0.001664154    1.455    0.312
        38 -10.4029    170.3716    184.1863   1.0884640537e+02   9.8465351473e+00    0.4543788    0.3443131  48.51  0.001560165    1.283    0.221
        39 -11.1396    135.3540    123.1993   1.0359304443e+02   3.0846447456e+01    0.9208029    0.2079554 -46.75  0.002333466    4.458    0.776
        40 -11.1089    172.7141    189.3830   1.0935625114e+02   8.3086423813e+00    0.4317194    0.3954566 -63.14  0.001374451    1.206    0.171
        41 -10.0124     44.0149    130.6409   1.3069706060e+02   4.4213400061e+01    0.2077436    0.1694875 -89.98  0.001018608    1.255    0.203
        42 -10.0418    160.4906    128.6693   9.8731857903e+01   2.3991656017e+01    0.4254833    0.2913638 -54.83  0.001834925    1.561    0.359
        43 -10.7625    121.2004    128.3225   1.0858734282e+02   3.2663197118e+01    0.3348131    0.2789342 -45.54 0.0009706345    1.196    0.164
        44  -7.8391    171.3050    126.2817   9.5635289269e+01   2.1998609901e+01    0.1559121    0.1270503   9.35 0.0001640955    1.556    0.357
        45 -10.6054    110.3069    124.0514   1.1052033780e+02   3.5806169103e+01     0.439037    0.2794597 -41.14 0.0009334214    1.617    0.381
        46  -9.6109    114.5275    118.1728   1.0790159093e+02   3.6325775499e+01    0.2698681    0.2151371  42.10 0.0002759918    1.277    0.217
        47 -10.4749    175.8002    186.9899   1.0820546451e+02   8.1677682577e+00    0.4558957    0.2904797 -63.40  0.001423437    2.151    0.535
        48  -8.0922     19.6135    125.7312   1.3666426007e+02   4.7630177189e+01    0.1243921    0.0791387 -39.33 0.0006988696    1.705    0.414
        49  -9.3887    242.7334    124.1455   8.1335985601e+01   6.4448488522e+00     0.216665    0.1902102  77.88 0.0002912715    1.288    0.224
        50 -10.5681    176.4388    229.2739   1.1575090592e+02   1.0197038330e-01    0.3256423    0.2350744 -13.11  0.001059449    1.843    0.457
        51  -8.8144    139.9901    120.9599   1.0183576804e+02   3.0325612786e+01     0.250414    0.1952025  85.82 0.0005714449    1.654    0.395
        52 -11.1139    151.8261    183.0917   1.1283254011e+02   1.3863407284e+01    0.3699589    0.3179203 -76.79  0.001299314    1.297    0.229
        53 -12.4022     66.0097    109.5008   1.2001410689e+02   4.6478624545e+01    0.9833784    0.5248063 -51.51  0.003524094    1.666    0.400
        54 -12.1795     60.5191    109.3015   1.2165376386e+02   4.7247857613e+01    0.8480658    0.5397238  -0.84  0.003901934    2.402    0.584
        55 -10.4972    117.4506    109.8214   1.0494038381e+02   3.7601157286e+01    0.2890168    0.2234163  44.03  0.001074096    1.308    0.236
        56  -9.7132    134.5697    107.3251   9.9670172417e+01   3.4489472847e+01    0.3090998    0.1508584 -48.35  0.001142594    2.120    0.528
        57  -8.8076     36.9654    102.5957   1.2754254091e+02   5.1391940391e+01    0.1695712    0.1260933  18.64 0.0007106495    1.583    0.368
        58  -8.4533    124.6591     96.2745   9.9270049473e+01   3.8969861028e+01    0.1522132     0.122453  83.49 0.0002692814    1.615    0.381
        59  -9.6785    113.1766     95.1854   1.0214918971e+02   4.1597905304e+01    0.2253887    0.2033428  -0.92 0.0005077384    1.166    0.143
        60  -9.0473    144.0698     81.0365   8.9910595519e+01   3.7537728766e+01    0.2301111    0.2237707  37.76 0.0005067729    1.021    0.020
        61  -8.9301    182.0338     79.0483   8.1126012616e+01   2.8617689865e+01    0.2208358    0.2080261  61.82            0    1.063    0.059
        62 -10.9572     81.9307    136.7511   1.2126164379e+02   3.7753537635e+01    0.5083238    0.2523468  43.67  0.001766259    2.127    0.530
        63  -9.7997    237.5215     68.5206   6.9708090496e+01   1.7096941260e+01    0.2301761     0.221913  73.36  0.001432588    1.223    0.183
        64 -10.3664    159.9260    248.1873   1.2200439413e+02  -1.5641860660e-01    0.3200347    0.2352969  19.82  0.001695016    1.556    0.357
        65  -9.4166    150.8338    241.7980   1.2290484031e+02   2.5136920991e+00    0.2731677    0.1986045 -56.70  0.001567315    1.651    0.394
        66 -11.5446    166.2710     36.0094   7.2279153472e+01   3.9053296528e+01    0.4077353    0.3816275 -70.13  0.000820331    1.133    0.117
        67  -8.5171    242.2809     64.3411   6.8188713080e+01   1.6692033220e+01     0.122504    0.1085685  11.68 0.0003132277    1.628    0.386
        68  -8.3612    123.5169     64.1368   9.0011901317e+01   4.5207625528e+01     0.199268    0.1438676 -35.37 0.0003660585    1.445    0.308
        69 -10.5326    135.0614     41.4731   8.0056493441e+01   4.5931487990e+01    0.2304583     0.219493  -1.09 0.0004950776    1.131    0.116
        70  -9.1492    229.9218     19.8716   6.0013167455e+01   2.5625972858e+01    0.2744797     0.156445 -44.65  0.001052746    1.684    0.406
