#   1 NUMBER                 Running object number                                     
#   2 MAG_AUTO               Kron-like elliptical aperture magnitude                    [mag]
#   3 X_IMAGE                Object position along x                                    [pixel]
#   4 Y_IMAGE                Object position along y                                    [pixel]
#   5 X_WORLD                Barycenter position along world x axis                     [deg]
#   6 Y_WORLD                Barycenter position along world y axis                     [deg]
#   7 A_WORLD                Profile RMS along major axis (world units)                 [deg]
#   8 B_WORLD                Profile RMS along minor axis (world units)                 [deg]
#   9 THETA_WORLD            Position angle (CCW/world-x)                               [deg]
#  10 FWHM_WORLD             FWHM assuming a gaussian core                              [deg]
#  11 ELONGATION             A_IMAGE/B_IMAGE                                           
#  12 ELLIPTICITY            1 - B_IMAGE/A_IMAGE                                       
         1 -13.3191     12.2515     47.4993   6.4217608198e+01   6.8905022356e+01    0.6387193    0.4542043  84.32  0.001440559    2.038    0.509
         2 -12.8247    231.5464     56.4740   4.7621272120e+00   2.1187332638e+01    0.6811764    0.2290257 -48.74  0.002833995    2.529    0.605
         3 -12.0016     55.9169     36.8712   3.5236028173e+01   6.5173770929e+01    0.6154584    0.3753661  -0.42  0.002522016    2.677    0.626
         4 -12.3663    249.4020     21.1115   3.5584189440e+02   2.2220708036e+01    0.5166265    0.1691857 -32.96  0.001038516    2.548    0.608
         5 -13.0026    235.5012      7.9703   3.5383048218e+02   2.6331612816e+01    0.5765817    0.3408757 -17.65  0.002886726    2.370    0.578
         6 -13.1451    243.3489      4.3282   3.5271501856e+02   2.5191439751e+01    0.6734607    0.4286241 -46.64  0.003408862    1.208    0.172
         7 -12.8752     28.5602     20.1134   4.0956977026e+01   7.2547567190e+01     0.306343    0.2530226   2.73 0.0004365953    1.053    0.050
         8 -12.9487    239.6709     14.1703   3.5492419223e+02   2.4847536308e+01      0.35909     0.248671 -74.90  0.001686045    1.269    0.212
         9 -10.4273     81.8771     19.6725   1.6953349444e+01   6.1972689526e+01    0.4317158    0.1579143 -35.04  0.001675541    2.818    0.645
        10 -11.1892     20.9960      2.3482   3.3995535340e+01   7.6238012260e+01    0.7868927    0.4109643  10.09  0.003538205    2.842    0.648
        11 -10.7039     28.7992      4.2103   3.0250830136e+01   7.4743256528e+01    0.2208685    0.1896638 -19.82 0.0009427334    1.274    0.215
        12 -10.4621     32.8740      1.7113   2.6033050938e+01   7.4305617359e+01    0.2439068    0.1492096  43.91 0.0007228682    1.486    0.327
        13 -12.6757      3.2298     12.5439   5.5476134550e+01   7.6806311793e+01    0.5634889    0.3370168 -37.79  0.002315079    1.413    0.293
        14 -12.4558     14.4139     17.5129   4.9278923988e+01   7.4823552581e+01    0.4663709    0.4413104  61.42  0.003177452    1.584    0.369
        15 -12.1216      9.7421      9.7215   4.8102913297e+01   7.6662202913e+01    0.5132754    0.3023329  27.91  0.002973197    1.689    0.408
        16 -11.3854    216.9459     16.0650   3.5666291772e+02   2.9258720152e+01    0.4640147    0.1765396  61.88  0.002137697    2.885    0.653
        17 -11.0767    169.2038     15.1711   2.1339529306e-01   4.0356503921e+01    0.2508839    0.1573786 -35.44  0.001211422    1.566    0.362
        18 -12.3539    249.5680      8.5256   3.5328907284e+02   2.3579429210e+01    0.7216831    0.2149146 -29.74  0.003188929    3.226    0.690
        19 -11.6823    136.8579     14.6509   3.7704266615e+00   4.8589675353e+01    0.3266087    0.2305778 -59.81 0.0001374463    1.423    0.297
        20 -11.0389    138.9986     11.2684   2.3361042150e+00   4.8364529467e+01    0.2168118    0.1913519 -89.45 0.0008987107    1.007    0.007
        21 -12.4151     75.3937     10.7107   1.4386528412e+01   6.4435699067e+01    0.6244297     0.344158  42.48  0.001658972    1.686    0.407
        22 -13.0760     65.1726     11.7429   1.8197099868e+01   6.6679063369e+01    0.3830958    0.2627775  37.58 0.0005734176    1.338    0.253
        23 -11.7169     54.0849     13.7838   2.3625104105e+01   6.8844191048e+01    0.3143656    0.2506965  28.50 0.0005170605    1.124    0.111
        24 -10.9083    145.5546     12.1864   1.8393788333e+00   4.6598294516e+01     0.296159    0.1637084 -44.82  0.001054803    1.765    0.433
        25 -10.8793    145.0448      8.0011   5.3370853106e-01   4.7119394809e+01     0.256251    0.1880868 -71.75 0.0006524267    1.282    0.220
        26 -10.7069    178.0704     12.1618   3.5855903788e+02   3.8509282616e+01     0.186899    0.1683288  72.48 0.0004199819    1.238    0.192
        27 -11.8869     82.1911      6.8883   1.0619703991e+01   6.3156801633e+01    0.2300633    0.2050233  40.74 0.0002656941    1.065    0.061
        28 -10.8626     58.4242      5.2540   1.6873654451e+01   6.8801473231e+01    0.3181009    0.2691445 -64.00  0.001717301    1.558    0.358
        29 -11.6582    155.8493      8.7097   3.5961325773e+02   4.4320007686e+01    0.5738026    0.2008215  74.99  0.002269308    2.585    0.613
        30  -9.4212     90.4210      9.2678   9.7939956448e+00   6.0937937604e+01    0.1830321    0.1206604 -37.66  0.000859098    1.674    0.403
        31  -9.5126    114.0039      8.5745   4.9359001839e+00   5.5039295407e+01    0.2007244    0.1201165  71.37 8.210116e-05    1.489    0.329
        32 -10.8134     97.2561      3.8724   5.9222284710e+00   5.9678747975e+01     0.329324    0.2281582  15.27  0.001596809    1.731    0.422
        33 -10.6529     67.8463      5.2374   1.3727750258e+01   6.6685881436e+01    0.3343724    0.2297366  78.18  0.001544285    1.709    0.415
        34 -10.1036     35.8696      6.0993   2.7492797324e+01   7.3276126519e+01    0.3283878    0.1256754  35.30  0.001354074    2.730    0.634
        35 -10.4661    222.8891      5.1812   3.5385913890e+02   2.9170624718e+01    0.1881668    0.1204421 -57.93 0.0008818863    1.203    0.169
        36 -11.7492    179.3288      3.6152   3.5613649365e+02   3.9044364182e+01    0.3679781    0.2248819  64.47 0.0004979236    1.661    0.398
        37 -11.3039    164.4788      4.5194   3.5756050073e+02   4.2559262490e+01    0.2226513    0.1882952 -68.28 0.0005408786    1.059    0.056
        38  -9.7597    112.3093      2.3353   2.7316691743e+00   5.5978151176e+01    0.1409101   0.08830155  42.14 0.0002918306    1.678    0.404
        39 -10.3420     91.0585      2.0555   6.3142829923e+00   6.1363259221e+01    0.2018313    0.1729718  55.68 0.0004736144    1.040    0.038
        40 -11.2755    230.3761      1.4656   3.5269212095e+02   2.8022344734e+01    0.2194155    0.1005591  83.92 0.0009416785    2.125    0.529
        41  -9.9207    120.7161      1.4147   1.1898474764e+00   5.3896585868e+01     0.241635    0.1172503  77.25  0.001092816    1.860    0.462
        42 -10.4129     73.2882      1.4200   1.0105899614e+01   6.5723676414e+01    0.2973097    0.1190541  67.33  0.001236369    2.370    0.578
        43  -9.6483    172.2816    191.9998   4.4476699874e+01   8.7322581910e+00    0.1705657     0.115427 -38.98 0.0006864668    1.473    0.321
        44 -11.3637    248.3172    248.2036   3.9994176932e+01  -8.9511958667e+00    0.4007088    0.1703196 -13.71  0.002091354    2.759    0.638
        45 -11.7336    224.7209    248.5817   4.3902856429e+01  -6.5984413643e+00    0.2781502     0.186121 -33.11  0.001959449    1.671    0.401
        46 -11.2804    218.9907    247.7323   4.4755758031e+01  -5.8772409606e+00    0.3072634    0.2338521 -46.11  0.002113662    2.190    0.543
        47 -11.5247     22.1248    248.8829   8.4802514195e+01   1.8206762847e+01    0.4603966    0.1592088  41.43  0.002370711    1.979    0.495
        48  -9.3479     61.6593    192.6738   7.1539896072e+01   2.5792502290e+01    0.1373761    0.1066783 -27.40 0.0007051338    1.733    0.423
        49 -10.1031    156.0000    185.0697   4.6738962720e+01   1.2699283234e+01    0.3827811   0.07909629 -47.38  0.001054788    4.966    0.799
        50 -10.0740     61.9967    184.9403   7.0567205625e+01   2.7626813905e+01    0.2191447    0.1983133  64.58 0.0007249275    1.014    0.014
        51 -11.8672     15.4065    182.0101   8.2821057690e+01   3.3577020478e+01    0.4562092    0.2267287  57.40  0.002196939    1.809    0.447
        52 -11.5217     28.8417    180.6929   7.9141402324e+01   3.2607554829e+01    0.5928882    0.2337178  36.56  0.002544757    2.206    0.547
        53 -10.7965     23.8043    180.6705   8.0496240144e+01   3.3119105311e+01    0.3253321     0.164154  45.61 0.0003689308    1.753    0.430
        54  -9.9670    244.0000    180.9764   2.9390022423e+01   1.4666579654e-01    0.2007968   0.05599771 -36.87 0.0008049594    2.960    0.662
        55  -9.4759      1.3277    180.3228   8.6386776810e+01   3.5173861415e+01    0.1239796   0.08938444 -50.67 0.0007048816    1.691    0.409
        56 -10.3714     18.1238    173.1856   8.1480986125e+01   3.5545858081e+01    0.1991972    0.1328638  63.30  0.000796163    1.339    0.253
        57 -10.1695    176.1877    169.3721   3.9301097299e+01   1.2319962604e+01    0.3342757    0.1496383 -30.34  0.001228951    2.785    0.641
        58 -10.2573      2.5199    165.0123   8.5261871256e+01   3.8914543250e+01     0.198032   0.08033745  69.75 0.0004583934    2.426    0.588
        59  -9.3276    133.5866    162.5707   4.7700867098e+01   2.1414774255e+01     0.147101    0.1444286  56.88            0    1.076    0.071
        60 -12.0608     17.6103    159.6447   8.0569892236e+01   3.9094329521e+01    0.3979503    0.3215127 -63.68   0.00132701    1.272    0.214
        61  -9.2348    116.9905    161.7608   5.1838217700e+01   2.4631464399e+01    0.1956726     0.126439  36.34 0.0003262516    1.520    0.342
        62 -10.8638      2.5922    157.1843   8.4774781039e+01   4.0922850358e+01    0.2217756    0.1951349  10.99 0.0007917665    1.414    0.293
        63  -9.6590    250.6715    156.3162   2.3723469090e+01   2.8839005890e+00    0.1137606   0.08717635 -52.04 0.0007045539    1.678    0.404
        64 -10.8656     12.4959    154.1102   8.1640546686e+01   4.0981224463e+01    0.4089739    0.1943074  49.79  0.001366346    2.001    0.500
        65  -9.7996    158.1906    153.8489   3.9960142629e+01   1.8701173889e+01    0.2110358    0.1726957 -11.74 0.0004192239    1.322    0.244
        66 -12.0542     13.7811    147.9770   8.0739164821e+01   4.2507180046e+01    0.2603501    0.2170752  82.48 0.0002907207    1.037    0.035
        67 -11.3375    234.0580    146.9902   2.4278480478e+01   6.7190262299e+00    0.2671454     0.148817 -35.24 0.0007879282    1.466    0.318
        68 -10.7721      6.6804    145.4116   8.2736145496e+01   4.3726593459e+01    0.2390981    0.1202491  28.23  0.001019327    2.072    0.517
        69  -9.2395    218.4942    144.5066   2.6195123973e+01   9.6043568153e+00      0.13519    0.1137282 -29.39 0.0001277244    1.039    0.037
        70 -10.8828     17.2250    143.1107   7.9204171862e+01   4.3533149593e+01    0.2780742     0.138868  53.65  0.001218976    2.027    0.507
        71 -11.5355    239.6421    140.3499   2.2100882137e+01   6.9168379642e+00    0.2344493    0.1788174 -23.83 0.0005144664    1.119    0.106
        72  -9.7534    189.2839    139.9849   3.0355874312e+01   1.5575904927e+01     0.208079    0.1680468 -34.73 0.0005203253    1.118    0.105
        73  -9.6108    207.6747    136.2952   2.6217024579e+01   1.2884052629e+01    0.1323016    0.1057227 -66.12 0.0002251401    1.624    0.384
        74 -12.4009     37.6331    135.3551   7.1504653857e+01   4.3694525838e+01    0.2732057    0.2495561 -89.20 0.0003251746    1.017    0.017
        75 -10.9922     36.4932    131.4716   7.1331809952e+01   4.4885822428e+01    0.3215858    0.2346655 -79.97  0.001128157    1.280    0.219
        76 -11.4855    241.5349    134.5033   2.0632618776e+01   7.5433930838e+00    0.2329523    0.1785857 -32.48 0.0006402313    1.039    0.037
        77 -11.5522     16.4354    131.4409   7.8266044811e+01   4.6763694396e+01    0.3877304    0.2470144  54.93  0.001930159    1.597    0.374
        78 -10.1568     47.2881    133.6297   6.7938835204e+01   4.3045825639e+01    0.2386652    0.1946543   7.93 0.0007940534    1.466    0.318
        79 -10.5434     53.1333    133.0707   6.5843580316e+01   4.2454012425e+01     0.229453    0.1918183 -43.17 0.0002731581    1.277    0.217
        80  -9.4939     64.3508    131.2814   6.1694001591e+01   4.1373486671e+01    0.1563802     0.118368 -25.20 0.0006407246    1.651    0.394
        81 -11.5932      4.8621    130.0793   8.2071416471e+01   4.7955356378e+01    0.2494511    0.2110865 -79.77 0.0003024267    1.048    0.046
        82 -10.2620    216.9846    129.4296   2.3175705022e+01   1.2428360649e+01    0.2202504    0.1562004 -35.61 0.0003804466    1.193    0.162
        83 -10.7091     73.5714    129.0454   5.8136261696e+01   4.0551601650e+01    0.3328524    0.2758476 -63.68 0.0007911948    1.164    0.141
        84 -10.6615     55.8324    127.1273   6.3832238086e+01   4.3717341090e+01    0.2130494    0.1722089 -38.18  0.000459885    1.350    0.259
        85 -10.2155     24.4264    127.2754   7.4984696672e+01   4.7230632581e+01    0.2550304    0.1496695  48.44   0.00117606    1.773    0.436
        86 -10.3468     82.7480    124.5027   5.4084532978e+01   4.0215596439e+01    0.3009768     0.211023 -58.02 0.0008019292    1.387    0.279
        87 -10.4975     47.2066    124.0378   6.6323105950e+01   4.5690401895e+01    0.2296368    0.2155103  32.57 0.0004473071    1.155    0.135
        88 -11.5489      9.8160    121.7491   7.9541138296e+01   4.9887708766e+01    0.4983367    0.2177661  64.85  0.001313342    2.767    0.639
        89 -10.4302     68.4670    121.8969   5.8346683352e+01   4.3280002239e+01    0.2362084    0.1495157 -61.88 0.0006342055    1.524    0.344
        90 -10.6285     61.1645    121.1920   6.0768165157e+01   4.4577966144e+01    0.2326755    0.2048923 -41.77 0.0005495239    1.179    0.152
        91  -9.7726     85.1421    118.5028   5.1869760036e+01   4.1356578176e+01    0.3073736    0.1695544 -36.57 0.0007717039    2.270    0.559
        92 -12.2912    249.4469    117.5655   1.6092467991e+01   8.9288665657e+00    0.4725197    0.2064615 -27.33  0.002085558    2.430    0.588
        93 -12.7416    248.0113    111.7157   1.5049773505e+01   1.0049308640e+01    0.5884153    0.3093109  36.54  0.002915005    2.820    0.645
        94 -10.1496      1.4656    117.9717   8.2170673065e+01   5.1417723027e+01    0.2280772    0.1423808 -63.02 0.0008583363    1.400    0.286
        95 -10.2506      4.5050    115.4603   8.0816038811e+01   5.1924761478e+01     0.221492    0.1386801 -47.45 0.0005787173    1.606    0.377
        96 -10.3245     70.6869    114.3207   5.5839900639e+01   4.4946362476e+01    0.2513084    0.2209025  76.08 0.0009932137    1.216    0.177
        97 -10.4440     16.1833    115.5840   7.6470933068e+01   5.1115538561e+01    0.2350016    0.1918627  72.42  0.000551742    1.224    0.183
        98 -10.7632     55.2080    110.1851   6.0574776582e+01   4.8406937592e+01     0.258806    0.2377601 -51.91  0.000594657    1.059    0.056
        99 -11.8379     12.5871    109.2503   7.7021317509e+01   5.3099836361e+01    0.4108342    0.3192728 -74.01  0.001248289    1.111    0.100
       100 -10.7546     44.0531    109.1930   6.4650183015e+01   5.0137670124e+01    0.3018258    0.1962842 -54.34 0.0007675102    1.414    0.293
       101 -11.6736     30.8468    106.7915   6.9402367120e+01   5.2248033707e+01    0.4807747     0.344588 -75.90  0.001362068    1.315    0.239
       102 -10.3889     20.2097    108.4388   7.3910930725e+01   5.2752937415e+01    0.2463712    0.1457856  11.54  0.001138175    2.030    0.507
       103 -11.3700     75.1058    104.2630   5.1721844675e+01   4.6826830303e+01    0.2983105    0.2551781  71.76  0.000326893    1.307    0.235
       104 -10.2084      3.1881    104.8482   8.0173316215e+01   5.4858220453e+01    0.2344128    0.1562926  30.40  0.001245905    1.681    0.405
       105  -9.2286    106.0164    103.2171   4.1079696856e+01   4.1043682721e+01    0.2017309     0.132163  42.76            0    1.559    0.359
       106  -9.2942     42.3061    103.7218   6.4193468953e+01   5.1829212803e+01     0.148393    0.1106634  66.60 0.0003361527    1.552    0.356
       107 -12.6528    248.8102     99.2195   1.2329721250e+01   1.1810040397e+01    0.4489698    0.2218009 -34.84  0.001925591    1.625    0.385
       108 -10.9595     61.6884    107.8917   5.7596544496e+01   4.8072730223e+01    0.2614186    0.1791333 -42.83  0.001168969    1.491    0.329
       109 -10.1777     91.8007    101.1143   4.5030514653e+01   4.4485539554e+01    0.2464777    0.2234897 -86.97 0.0007406131    1.189    0.159
       110 -10.5283     76.7050     98.0574   4.9436293497e+01   4.8119405376e+01    0.3300439    0.2413157 -32.21  0.000885304    1.531    0.347
       111 -11.0053     62.4580     98.1054   5.4828473635e+01   5.0521465940e+01     0.342654    0.2621077 -46.50 0.0008124732    1.259    0.206
       112  -9.5171     10.1928     99.1679   7.6604880286e+01   5.5982642222e+01    0.1799046    0.1448538  74.81 0.0002439239    1.284    0.221
       113  -9.9833     52.0572     97.2467   5.8741900946e+01   5.2291338809e+01     0.273302     0.184353 -38.79 0.0007222224    1.551    0.355
       114  -9.8766     15.3076     97.0402   7.4130609601e+01   5.6212174575e+01    0.2543554    0.0363767 -53.38 0.0003239972    4.281    0.766
       115 -11.6439     57.3703     90.7842   5.4862482304e+01   5.3189878350e+01    0.3620678    0.2889489 -37.26 0.0007649353    1.260    0.206
       116  -9.4503     31.5379     92.5467   6.6276682995e+01   5.6014253040e+01    0.1450811    0.1319276 -62.27 2.284542e-05    1.021    0.021
       117 -10.4500      7.5500     92.5243   7.6762368094e+01   5.7917614137e+01    0.2937105   0.04241522  34.94 0.0008101732    5.784    0.827
       118 -10.9589     35.1896     90.5345   6.4226827733e+01   5.6160358464e+01    0.2701972    0.2295408 -83.78 0.0003561095    1.230    0.187
       119 -10.1043     22.1856     88.3629   6.9537852438e+01   5.7992554733e+01    0.3671893    0.1832781 -88.68  0.001387218    2.763    0.638
       120  -9.5397    114.5678     88.4084   3.4088579472e+01   4.2515453515e+01    0.1558251    0.1540406 -72.22 6.557173e-06    1.011    0.011
       121  -9.4699     17.3891     88.1791   7.1666710578e+01   5.8422896705e+01    0.1918225    0.1235921 -82.78 0.0004368617    1.584    0.369
       122 -12.1832    248.5167     85.0739   9.3639140746e+00   1.3957215517e+01     0.366542    0.2046054 -58.85  0.001926848    1.955    0.489
       123 -10.1561    109.3167     86.0201   3.4870629243e+01   4.4231682203e+01    0.2176842    0.1975581 -48.79  0.000305209    1.088    0.081
       124 -11.8846    239.6263     84.3848   1.0158635413e+01   1.5627707363e+01    0.2430508    0.1986415 -32.60 0.0007671145    1.176    0.150
       125  -9.2697     48.9903     90.2122   5.8193713596e+01   5.4546506983e+01    0.1843323    0.1227113  28.54            0    1.604    0.376
       126  -9.7818      8.2475     85.2262   7.5304416362e+01   5.9807042171e+01     0.188525    0.1506323  66.32  0.001064879    1.394    0.283
       127  -9.9275     76.9961     82.2289   4.4511136127e+01   5.1909320348e+01    0.2180092    0.2007981  37.37 0.0004252645    1.113    0.101
       128 -10.7076     17.9609     81.6656   7.0105240045e+01   6.0088093170e+01    0.3178017    0.2346552  42.05  0.001704602    1.540    0.351
       129 -11.2815    184.8393     85.2517   1.7710415013e+01   2.6629391046e+01    0.2380993    0.2006902 -44.11 0.0002877978    1.078    0.072
       130  -9.4994      1.3860     80.8672   7.7792919865e+01   6.1296068101e+01    0.1896952   0.09767175 -60.33 0.0002201025    1.560    0.359
       131 -10.3603    120.0880     79.9081   2.9840873385e+01   4.3008102169e+01    0.2386159    0.2348934  28.12 0.0007724563    1.064    0.060
       132 -12.0024     88.1925     77.2474   3.8778376142e+01   5.0786976481e+01    0.3082434    0.2604861 -42.20 0.0002207469    1.170    0.145
       133 -10.7368     26.5329     78.0891   6.5194891147e+01   6.0275304952e+01    0.2921722    0.2058343  43.58 0.0008553204    1.625    0.385
       134 -11.5115     22.0533     76.3984   6.6952805872e+01   6.1113161271e+01    0.4018834    0.2554654   5.71  0.001260307    1.830    0.453
       135  -9.5683    211.9020     76.1838   1.1519104975e+01   2.2263387644e+01    0.1705002    0.1497193 -24.75 0.0004318795    1.259    0.206
       136  -9.7462    168.4886     74.4771   1.7537238062e+01   3.2288217133e+01    0.2949948    0.1135487 -46.68  0.001025131    2.549    0.608
       137 -10.1971     44.6991     74.2590   5.5502046942e+01   5.9136784730e+01    0.2010846    0.1960418 -85.06 0.0006949605    1.135    0.119
       138 -10.0860      6.8381     73.2252   7.3823452390e+01   6.2994920227e+01    0.2980355    0.1499424  -8.35 0.0009923357    2.465    0.594
       139  -9.7507    160.0567     71.6761   1.8249874194e+01   3.4805408808e+01    0.1965074    0.1846996 -89.38 0.0003015698    1.059    0.055
       140 -11.5275    102.8420     69.5603   3.1293643647e+01   4.9143922548e+01    0.3494706     0.266513 -48.34 0.0003909264    1.335    0.251
       141 -13.5076     16.2036     67.3608   6.7693455793e+01   6.3864203323e+01    0.4194011    0.3580077 -73.41  0.001113918    1.199    0.166
       142 -10.6251     92.8057     68.0410   3.3950409086e+01   5.1728704528e+01    0.3313787    0.2589681 -55.56  0.001275721    1.379    0.275
       143 -11.3170    247.6003     68.7791   5.9792085298e+00   1.6455718063e+01     0.188121   0.08643603 -43.42 0.0007376338    1.646    0.392
       144 -11.2553     50.4753     67.9786   5.0757960108e+01   5.9798830086e+01    0.3197466    0.2401886 -37.58 0.0008341955    1.279    0.218
       145  -9.4883    165.2217     68.1191   1.6282164417e+01   3.4152972212e+01    0.1951399    0.1564972 -68.66 0.0003087935    1.259    0.206
       146 -11.1708      6.3654     67.8152   7.2975402028e+01   6.4390306120e+01    0.2319182    0.1951399 -43.56  0.000285428    1.081    0.075
       147 -11.0002    130.1076     65.9690   2.2718741308e+01   4.3222317053e+01    0.3815977    0.2698612  39.19 0.0006093166    1.593    0.372
       148  -9.7252      2.4795     67.5066   7.4953506091e+01   6.4663088932e+01    0.1358438    0.1107446 -53.67 0.0008100606    1.034    0.033
       149 -12.3327     29.8910     62.7763   5.9162197412e+01   6.3715202156e+01    0.5216442    0.5104985 -55.18   0.00146391    1.143    0.125
       150 -10.8120    160.1520     63.8471   1.5912421676e+01   3.6100016579e+01    0.4573981    0.3092252  14.38  0.001859469    2.618    0.618
       151 -10.1008     81.5480     64.9785   3.6749625881e+01   5.4785292399e+01    0.2308495    0.2030844  39.61 0.0002948572    1.136    0.119
       152 -10.7281    154.9814     63.6787   1.6795506806e+01   3.7406887400e+01    0.2751407    0.2090879 -43.45 0.0003951593    1.261    0.207
       153 -11.3121    122.9384     63.1190   2.3484535730e+01   4.5510696288e+01    0.4204049    0.2144436 -38.38  0.001181592    1.958    0.489
       154  -9.8366    109.1397     64.1681   2.7515633539e+01   4.8693011460e+01    0.2316918    0.2118382  14.69 0.0006962447    1.202    0.168
       155 -10.3503    209.9168     62.9966   8.5444332914e+00   2.4690805948e+01    0.2107208    0.1652827 -52.52 0.0005479646    1.077    0.071
       156 -10.9757     16.9052     42.5332   5.9526511166e+01   6.9626850812e+01    0.4337278    0.2455452 -58.57  0.002178709    1.719    0.418
       157 -12.0497      4.0413     61.7319   7.2918439091e+01   6.6025285879e+01    0.5334479    0.3000564 -12.19 0.0003147901    2.010    0.503
       158 -11.1874      3.1671     53.0549   7.1370729605e+01   6.8174451130e+01     0.322651    0.1882675   5.94  0.001693731    1.894    0.472
       159 -11.9082      8.0088     51.5217   6.8051676096e+01   6.8264798414e+01    0.3906148    0.2665313 -86.30  0.001482412    1.814    0.449
       160 -12.0257     12.1852     54.3517   6.6388894375e+01   6.7317226522e+01     0.753503    0.2361226 -56.75  0.002828862    2.434    0.589
       161 -10.6785     11.2758    248.5866   8.6963557137e+01   1.9337617207e+01    0.3348255   0.09149712  47.04  0.001569951    2.328    0.570
       162 -10.0420     90.7898     61.2166   3.2083057145e+01   5.3522935322e+01    0.3348605    0.1765701  52.33 0.0006625621    1.958    0.489
       163 -11.7626     46.7908     60.4108   4.9776154850e+01   6.2071163189e+01    0.3846833    0.2784101 -14.41 0.0008163573    1.592    0.372
       164  -9.9565    189.1045     59.9956   1.0366479260e+01   2.9770836237e+01    0.2052851    0.1776349 -60.48 0.0003137338    1.016    0.016
       165  -9.5571      6.6462    249.2272   8.7898108782e+01   1.9655815285e+01    0.1355466   0.09221573 -82.25 0.0004457322    1.571    0.363
       166 -10.2621    135.0998     58.3852   1.9068518334e+01   4.3273254235e+01    0.2165757    0.2068969 -16.86 0.0005319235    1.155    0.134
       167  -9.6140    110.4644     56.9159   2.4512796532e+01   4.9674568604e+01     0.217567    0.1497165 -37.68 0.0003682692    1.479    0.324
       168 -11.2624    115.5769     55.1163   2.2506455211e+01   4.8720769078e+01    0.2736244    0.2373737  71.61  0.001416557    1.163    0.140
       169 -11.1397     89.2909     55.2531   3.0266877177e+01   5.4974980565e+01    0.3026164    0.2660226 -64.88  0.001115011    1.283    0.220
       170  -8.9190     99.6708     55.3017   2.6992041126e+01   5.2558700351e+01    0.1531511    0.1196717 -80.78 0.0007032855    1.646    0.393
       171 -13.4743    149.6012     51.2155   1.3892579960e+01   4.0731096723e+01    0.3802388    0.3368579 -69.56 0.0006832604    1.073    0.068
       172 -11.1377    105.1363     52.4751   2.4318786553e+01   5.1731863442e+01    0.2608185      0.24962 -48.11 0.0002654383    1.072    0.067
       173 -11.4778     53.8206     49.2817   4.1919972928e+01   6.3275892207e+01    0.4684026    0.3736931  -8.47  0.002497228    1.328    0.247
       174  -9.3245    134.2567     51.6501   1.6978983846e+01   4.4567933465e+01    0.1549315    0.1083259 -63.23 0.0003666501    1.600    0.375
       175  -9.4092     67.8714     56.2100   3.8634608217e+01   5.9318919256e+01    0.1969147    0.1644616  -3.42 0.0003517186    1.295    0.228
       176 -10.1576    246.6629     61.6829   4.5465288231e+00   1.7609943158e+01    0.1110883   0.09370643   0.33  0.000704848    1.700    0.412
       177 -11.9753     44.7095     43.5114   4.3855059389e+01   6.5919241916e+01    0.5356093    0.3726042 -54.03 -0.0002138697    1.655    0.396
       178 -11.7704     52.3416     43.1508   3.9891626735e+01   6.4708836521e+01    0.6504096    0.3611242  27.49  0.002862088    2.029    0.507
       179 -10.2023    180.1128     47.0084   8.0116536787e+00   3.3786416996e+01    0.2047403    0.1798912 -66.61 0.0002982687    1.005    0.005
       180 -12.0984    121.5029     46.7259   1.8018516148e+01   4.8570620618e+01    0.2844084    0.2649156  80.68  0.000194869    1.037    0.036
       181 -10.5345    222.0797     45.9545   3.2151444772e+00   2.4526949343e+01    0.1934612    0.1551024 -56.09 0.0003189551    1.006    0.006
       182 -10.6443    237.0857     44.2658   1.5675141789e+00   2.1741224392e+01    0.2298582    0.1443202 -43.56  0.001275066    1.252    0.202
       183 -10.9424    143.1045     42.9271   1.2356457749e+01   4.3595693871e+01    0.4989242    0.2989285  30.92  0.002022743    2.549    0.608
       184  -9.7670    105.8708     47.8034   2.2316640115e+01   5.2316637218e+01    0.2080416    0.1734019 -87.18 0.0006732738    1.370    0.270
       185  -9.7103    127.1425     43.3652   1.5575539529e+01   4.7629022495e+01    0.2045442    0.1351794  77.16 0.0003461447    1.639    0.390
       186 -11.0785    108.2579     42.4391   1.9597320746e+01   5.2550319749e+01     0.377532    0.2646682  33.71 0.0004451761    1.630    0.386
       187 -10.3535     72.8455     43.0908   3.1035438539e+01   6.0721357111e+01    0.2083327    0.1983663 -70.30 0.0002695527    1.219    0.180
       188  -9.4423    131.2406     42.0063   1.4260784827e+01   4.6771718946e+01    0.1898052    0.1238965 -32.60 0.0006618846    1.592    0.372
       189 -10.1615     90.4935     41.7254   2.4322036435e+01   5.6977077450e+01    0.2970566    0.2221567  86.11   0.00140726    1.783    0.439
       190 -10.9027     97.8303     40.8414   2.1767247012e+01   5.5356293734e+01    0.2997286    0.2467995  55.16 0.0005612826    1.159    0.137
       191 -10.1335     68.4813     41.5281   3.2041631729e+01   6.1899785806e+01    0.1420491    0.1342994  15.85 3.716354e-05    1.029    0.028
       192  -9.6748     72.3709    249.8815   7.4389199408e+01   1.2320903326e+01     0.148767    0.1070296 -52.60 0.0009326878    1.765    0.434
       193  -9.4263    203.6835     40.2864   3.5754631419e+00   2.9233906348e+01     0.140015   0.08356162 -62.53 0.0001941708    1.588    0.370
       194 -10.4668    148.6737     39.8496   1.0408826663e+01   4.2594859861e+01    0.2587381    0.2090989 -75.81 0.0003702268    1.215    0.177
       195 -10.2935     78.8483     46.9196   3.0470551069e+01   5.8775005576e+01    0.2304861    0.1892542  16.79 0.0005419049    1.314    0.239
       196  -9.4574    102.5422     40.5193   2.0332264728e+01   5.4251281003e+01    0.1454438    0.1390591  57.69 4.989009e-05    1.007    0.007
       197 -12.0629     84.7609     36.5180   2.3880003837e+01   5.9104780388e+01    0.6725735     0.420665  13.08  0.002783302    2.465    0.594
       198 -10.8430     76.3948     33.3673   2.5265057147e+01   6.1475310613e+01    0.3550336    0.2640381  70.77  0.001205869    1.638    0.390
       199  -9.2602     64.2918     39.2934   3.2723182052e+01   6.3130924592e+01    0.1422311    0.1058288   9.26 0.0004838523    1.553    0.356
       200 -11.4790     27.7404     37.5467   5.0652953409e+01   6.9503123340e+01    0.2347728    0.2055462 -22.23 0.0002253569    1.041    0.040
       201 -11.5409     23.8631     34.6792   5.1738054683e+01   7.0540722320e+01     0.451428    0.3058098 -15.93  0.002196285    1.520    0.342
       202 -10.1244    108.2090     36.6407   1.7323573029e+01   5.3391772503e+01    0.2349085    0.1776421   9.00 0.0007880409    1.688    0.408
       203 -10.3369    233.0418     39.2750   7.8073435491e-01   2.3175373377e+01    0.1706767    0.1339278 -63.52  0.000250155    1.089    0.082
       204 -12.1951    247.5388     35.3126   3.5889095959e+02   2.0883937115e+01    0.2827244    0.1625157 -39.87  0.001065853    1.376    0.273
       205  -9.7946    167.3925     59.2140   1.3327016032e+01   3.5063145876e+01    0.2088141    0.1213525 -46.96 0.0003150774    1.617    0.382
       206 -10.3769     63.9867     34.7132   3.0658861118e+01   6.3937232059e+01      0.19609    0.1682204  34.30 0.0002834884    1.102    0.093
       207 -10.0508    240.3071     34.6712   3.5924387587e+02   2.2332150742e+01    0.1319998   0.06719492 -57.11  0.000316822    1.657    0.397
       208 -10.9051     92.9146     33.6599   2.0137406128e+01   5.7577600306e+01    0.2616587    0.2200063 -16.10 0.0008088704    1.288    0.224
       209 -10.1116     34.2029     33.3116   4.4746479780e+01   6.9444834954e+01    0.2228416     0.164428 -26.43 0.0007302182    1.274    0.215
       210  -9.1427    101.7059     33.7271   1.7774263660e+01   5.5412934315e+01    0.1440263    0.1052801  31.81 0.0002567656    1.520    0.342
       211 -11.6746     12.8352     30.8925   5.7392937770e+01   7.2447032753e+01    0.4011663    0.3366714 -25.39    0.0019348    1.016    0.016
       212 -11.3325      7.7057     30.1818   6.0760983438e+01   7.3021533723e+01    0.3833906    0.2097615 -64.90  0.001234125    2.091    0.522
       213  -9.9306    196.4772     31.5441   2.0507112401e+00   3.1978306234e+01    0.1326941    0.1122989 -64.98 7.190467e-05    1.024    0.024
       214  -9.7662    119.5930     31.2014   1.2667802806e+01   5.1208502366e+01    0.1850104    0.1400457  -4.11 0.0003258674    1.656    0.396
       215 -10.1919     19.0334     30.8259   5.3076472007e+01   7.1844052040e+01    0.2175968    0.1699373 -39.27 0.0006672088    1.183    0.154
       216  -9.9516    162.7807     28.7718   4.9361708885e+00   4.0430628555e+01     0.388284    0.1222917 -25.03  0.001282962    3.832    0.739
       217  -9.7218    126.0623     28.9617   1.0579928809e+01   4.9816642191e+01    0.2327095    0.1581474  38.40  0.001117003    1.693    0.409
       218 -10.1421     49.0039     28.4980   3.4251782695e+01   6.7826151741e+01    0.2398489    0.1726304 -11.93 -0.0001637534    1.487    0.328
       219 -12.2554    231.7807     26.6348   3.5807387252e+02   2.4980050368e+01    0.3344826    0.2158125  86.53  0.001162039    1.578    0.366
       220 -10.6929    198.3653     28.3604   1.0629839774e+00   3.1935195371e+01     0.283933    0.1495435  88.14  0.001368531    1.999    0.500
       221 -11.5781    111.8964     27.0169   1.2652856161e+01   5.3691183603e+01    0.3544467    0.3088407  43.50  0.002001171    1.164    0.141
       222 -10.1048    176.7682     26.8651   2.7694799089e+00   3.7203340710e+01    0.1837223    0.1739859 -71.88 0.0003458463    1.154    0.134
       223 -10.0288    119.0266     27.5021   1.1377792408e+01   5.1805732386e+01    0.2256969    0.1301443  63.42  0.001028505    1.588    0.370
       224 -11.2882    248.5596     46.4556   1.1594522500e+00   1.9291482628e+01     0.285739    0.2489647 -12.16   0.00198528    1.563    0.360
       225  -9.2873    144.0040     26.7483   6.8434494460e+00   4.5445801403e+01    0.1795022    0.1125216  71.56 0.0003481178    1.490    0.329
       226 -10.0692    182.9633    246.5177   5.1119590959e+01  -1.5105215410e+00    0.1793428   0.09550071  27.64   0.00102422    1.566    0.361
       227 -10.8155     72.8551    244.8866   7.3876806426e+01   1.3184593882e+01    0.2591308    0.1962105  37.03 0.0008829979    1.110    0.099
       228 -12.1943     74.6993    239.4355   7.3007077651e+01   1.3985699085e+01    0.5036802     0.425216 -77.51  0.002894779    1.367    0.268
       229 -10.7499    218.9717     25.3267   3.5866769374e+02   2.7771133589e+01    0.1731675    0.1386402 -72.45 0.0003839284    1.107    0.097
       230  -9.7850     90.1635     25.3707   1.7247542138e+01   5.9316488328e+01    0.2056374    0.1295106  72.50 0.0009454446    1.785    0.440
       231 -10.6797     69.7592     25.5474   2.3846993705e+01   6.4036698664e+01    0.2860504    0.1683653  49.84  0.001373698    1.571    0.363
       232 -11.5008     69.7653     21.6500   2.1859868778e+01   6.4533472918e+01    0.3460511    0.2540109  72.84  0.001800794    1.675    0.403
       233 -10.0547     55.0239     24.9590   2.9518608176e+01   6.7207653830e+01    0.1951012    0.1746299  11.40            0    1.022    0.022
       234 -10.5189     10.3521     24.8193   5.6326786008e+01   7.3879827969e+01    0.2969045    0.1663727   8.02  0.001336857    1.899    0.473
       235 -10.7838    152.9521     23.9034   4.6836546885e+00   4.3482511799e+01    0.2407528    0.1857183 -49.67 -0.0009232552    1.250    0.200
       236 -10.9370    159.5489     22.4551   3.4150061281e+00   4.1975297191e+01     0.315186    0.2308391  35.35  0.001655633    1.779    0.438
       237 -10.4063    156.4093     21.7551   3.5770488402e+00   4.2845602315e+01    0.2400303    0.1760989  48.77 0.0006007742    1.536    0.349
       238  -9.7527     79.9872     27.7984   2.1423537446e+01   6.1426666246e+01    0.2500691    0.1413846  32.93  0.001083538    2.032    0.508
       239 -11.5075     34.1042     22.6286   3.9029566554e+01   7.1299151936e+01    0.2420699     0.195071   9.08 0.0001731958    1.126    0.112
       240  -9.7578      4.3285    243.9583   8.8188489338e+01   2.0883392438e+01    0.1553618    0.1128839  68.76 0.0004400938    1.136    0.119
       241  -9.8657     88.8135    241.0252   7.0046163824e+01   1.1859261074e+01    0.1884498    0.1349416 -27.67  0.001074481    1.975    0.494
       242 -10.6463     99.9861     21.6386   1.3097723469e+01   5.7324020538e+01    0.3072268    0.2609649  58.80  0.001747856    1.074    0.069
       243  -9.3489     48.3703     22.2572   3.1131561126e+01   6.8879322633e+01     0.139588   0.09246819  19.15 0.0006971139    1.644    0.392
       244 -10.2764    193.0670     20.9571   3.5962633610e+02   3.4017811528e+01    0.1930518      0.16055 -66.76 0.0003312972    1.014    0.014
       245  -9.1859    120.3326     21.2615   8.7579578734e+00   5.2177219505e+01    0.1435141   0.09694409  43.10 0.0001967767    1.574    0.365
       246 -11.6352     34.5774    237.6883   8.1648598516e+01   1.9085774306e+01    0.5768482    0.1799322  29.75  0.002488554    2.775    0.640
       247 -10.2447     58.9658     21.0000   2.5664451980e+01   6.6945944443e+01    0.2232415   0.07177893  51.65 0.0008006037    2.930    0.659
       248  -9.9367     44.9904     19.5202   3.1231154833e+01   6.9896204086e+01    0.2583913    0.1718645  62.56  0.001270903    2.221    0.550
       249  -9.8707      3.5695    237.9803   8.8150418408e+01   2.2128883116e+01    0.1588564   0.09579329  87.36 0.0004367665    1.546    0.353
       250  -9.6687     45.4628    244.4581   7.9727747082e+01   1.6542526559e+01    0.1230133   0.09265417  51.72 8.864428e-05    1.035    0.034
       251 -10.7545    182.9788    234.2590   4.9322054317e+01   2.3824844148e-01    0.1976206    0.1621404 -13.87 0.0007148827    1.185    0.156
       252  -9.9913    196.1848    238.6748   4.7482028634e+01  -2.0570059772e+00    0.1589103    0.1292017  -7.04  0.001010506    1.151    0.131
       253 -10.9171     30.3110    233.6162   8.2341700144e+01   2.0368854217e+01    0.3608165    0.1979935  72.49  0.001660802    1.743    0.426
       254 -10.6812    248.4952    229.0959   3.7000419762e+01  -6.7598189506e+00    0.1574631   0.08650888 -29.66  0.001019493    1.564    0.361
       255  -9.5152     39.6567    229.3170   8.0027930364e+01   2.0234755234e+01    0.1382812    0.0699921  56.13 0.0007048735    1.716    0.417
       256 -10.8982    165.1165     17.1328   1.1972722529e+00   4.1161423528e+01    0.2379199    0.1661008  51.90 0.0005808375    1.611    0.379
       257 -10.1506    192.8065    227.1877   4.6344304116e+01   2.6527989340e-03    0.1751974    0.1478782   3.80 0.0007840882    1.132    0.117
       258 -10.8096    131.9444     16.1113   4.9743091413e+00   4.9712137824e+01    0.2111567    0.1902938 -55.14  0.000297132    1.141    0.123
       259 -10.2420      3.6436    226.0267   8.7731734223e+01   2.4564295068e+01    0.1662749    0.1255076  73.61 0.0007487612    1.128    0.113
       260  -9.6302    193.2065     16.1742   3.5838287989e+02   3.4515802665e+01    0.1839907    0.1211437 -65.11  0.000243852    1.319    0.242
       261  -9.6344    187.4289     15.8262   3.5875918681e+02   3.5899376264e+01    0.1624101    0.1249702 -17.37 0.0004274608    1.619    0.382
       262  -9.8898     78.9014    223.8472   7.0579545033e+01   1.6539596597e+01    0.1929961    0.1726284   4.30  0.001217622    1.326    0.246
       263 -10.2737    233.5008    223.4930   3.8509096979e+01  -4.4387575240e+00    0.1142792   0.08668957  -5.94   0.00066817    1.064    0.060
       264  -9.4111    110.1691     16.7636   8.8938409830e+00   5.5257901583e+01    0.2446793   0.07818466  55.90 0.0008893286    2.587    0.614
       265  -9.1147     76.6517     16.2461   1.6830669718e+01   6.3580606620e+01    0.1298901    0.1038222 -84.76 0.0002289926    1.579    0.367
       266  -9.3227    126.3712    220.6791   5.9234143005e+01   1.0444338301e+01    0.1380174    0.0941897  56.90 0.0007033729    1.802    0.445
       267 -10.9418     49.3380    218.6254   7.7041972631e+01   2.1392183997e+01    0.3500959    0.2186868   4.53  0.001676369    2.565    0.610
       268 -10.2482     23.9204    216.0002   8.2785225571e+01   2.4778787696e+01    0.1887152    0.1455463  60.98  0.000296573    1.037    0.036
       269 -10.6509    234.0038    215.1909   3.7048051090e+01  -3.4041927317e+00    0.1554161     0.113226 -37.46 0.0008384938    1.627    0.385
       270 -11.2216    217.3650    210.9056   3.9154332792e+01  -7.8424332638e-01    0.4396079     0.178223 -35.28   0.00214472    2.257    0.557
       271 -10.5737     26.9008     13.1069   3.7637028784e+01   7.3871914890e+01    0.1998541    0.1330746   0.00 0.0005584951    1.606    0.377
       272  -9.4882     55.9763    216.9951   7.5337687153e+01   2.0944244136e+01    0.1525454    0.1277544  54.94 0.0009449695    1.004    0.004
       273  -9.4661    106.6852    211.3255   6.2532713257e+01   1.5207231263e+01    0.1407469   0.09723306  60.19  0.000704309    1.668    0.400
       274 -11.6876      4.9311    209.7350   8.6827467866e+01   2.7975437620e+01     0.471016    0.1643099  59.90  0.001624714    2.444    0.591
       275 -11.2631      5.0394    204.4813   8.6581323529e+01   2.9150905205e+01    0.2877776    0.2056283 -52.20  0.001595921    1.800    0.444
       276  -9.4866    193.4897    210.4720   4.3471273956e+01   2.4538388968e+00    0.1269669    0.1052095   0.26 0.0001451108    1.028    0.027
       277 -11.3296     11.2141    209.0516   8.5355447615e+01   2.7563009249e+01    0.2767711    0.2084432  68.64   0.00107082    1.072    0.067
       278  -9.3413     28.4069    205.4433   8.1078430664e+01   2.6693743334e+01    0.1307079    0.1041695  63.75 0.0001234134    1.033    0.032
       279 -10.1169    238.3868    200.7533   3.3847221215e+01  -1.9576663770e+00     0.200795   0.09177952 -34.86 0.0004456371    1.878    0.467
       280  -9.3531    120.4528    200.4367   5.7668384609e+01   1.5367582752e+01    0.1395398    0.1266034  26.62 0.0001900354    1.017    0.016
       281 -10.8401     21.9985    198.6837   8.2207550802e+01   2.8920692513e+01    0.3052163    0.2042134   4.94  0.001214822    2.138    0.532
       282 -10.0237    177.4962    198.0483   4.4482992023e+01   6.8428386619e+00    0.1972931    0.1255467 -40.72  0.001031558    1.594    0.373
       283  -9.5263     50.4733    197.4939   7.4935244687e+01   2.6057706169e+01    0.1377166    0.1173633  61.75 9.166537e-05    1.014    0.014
       284 -10.3915    210.8089     19.3544   3.5785022263e+02   3.0211980117e+01    0.1850324    0.1663296  63.39 0.0006228949    1.403    0.287
       285  -9.6280     40.2329    196.9834   7.7506618469e+01   2.7384933044e+01    0.1667162    0.1047106 -79.69 0.0002811306    1.570    0.363
       286 -11.7987     15.2875    192.2506   8.3484024192e+01   3.1092241764e+01    0.3528468    0.3123803  13.80    0.0014535    1.424    0.298
       287  -9.4042    209.5661    193.4158   3.7448020033e+01   2.8982164948e+00    0.1283001    0.1028793  -7.74 3.781285e-05    1.034    0.033
       288 -10.2066    134.4957    196.9960   5.3780067563e+01   1.3840682638e+01    0.3604361    0.2334801 -14.56   0.00161375    2.207    0.547
