#   1 NUMBER                 Running object number                                     
#   2 MAG_AUTO               Kron-like elliptical aperture magnitude                    [mag]
#   3 X_IMAGE                Object position along x                                    [pixel]
#   4 Y_IMAGE                Object position along y                                    [pixel]
#   5 X_WORLD                Barycenter position along world x axis                     [deg]
#   6 Y_WORLD                Barycenter position along world y axis                     [deg]
#   7 A_WORLD                Profile RMS along major axis (world units)                 [deg]
#   8 B_WORLD                Profile RMS along minor axis (world units)                 [deg]
#   9 THETA_WORLD            Position angle (CCW/world-x)                               [deg]
#  10 FWHM_WORLD             FWHM assuming a gaussian core                              [deg]
#  11 ELONGATION             A_IMAGE/B_IMAGE                                           
#  12 ELLIPTICITY            1 - B_IMAGE/A_IMAGE                                       
         1 -13.1495      5.7692     50.6146   8.1242727211e+01   6.6562410412e+01     1.435543    0.7788849 -81.28  0.007359455    1.883    0.469
         2 -12.3426     57.0940     35.3425   5.0477204359e+01   6.4435942450e+01    0.7769845    0.4038644 -32.59   0.00345335    1.918    0.478
         3 -11.2851      2.5166     24.6837   7.5702974199e+01   7.2615781517e+01    0.4911751    0.2985069 -35.93  0.002686326    1.433    0.302
         4 -11.9540      3.1636     13.3588   7.0651145723e+01   7.4940747501e+01    0.3462795    0.2034458 -36.47 0.0008095755    1.392    0.281
         5 -12.4951    132.9014     18.9805   2.0052296965e+01   4.9843182693e+01    0.3749867    0.2881942  40.78 0.0003910901    1.321    0.243
         6 -10.4053     31.0132     13.9066   5.2570258840e+01   7.2119728536e+01    0.3561465    0.2181344 -49.87  0.001899259    1.838    0.456
         7 -11.0054     19.9560     17.0023   6.1072472423e+01   7.2846879206e+01    0.4056822    0.3321466  83.54  0.002430887    2.110    0.526
         8 -10.8081     11.7484     14.2887   6.5078088025e+01   7.4126889434e+01    0.4282033    0.1632887 -28.55  0.001654347    3.634    0.725
         9 -10.7462     15.2040     13.2293   6.2170623536e+01   7.4022332578e+01    0.1975845    0.1328253 -34.04  0.000553145    1.207    0.171
        10 -12.4772    238.1154     17.6234   7.4723821110e+00   2.3634918864e+01    0.2811889    0.2156521 -39.72 0.0003283419    1.114    0.102
        11 -12.2019    232.9079     15.0266   7.1925681355e+00   2.5064056898e+01    0.5016495    0.1947344 -34.28  0.002240321    2.045    0.511
        12 -11.4637    234.7103     10.0148   5.8103998873e+00   2.5187550936e+01    0.2535856    0.1795716 -62.98  0.001039505    1.279    0.218
        13 -10.1410     71.5634     14.4017   3.3840531770e+01   6.5080274803e+01    0.5186315    0.2510556 -45.31  0.002132227    2.662    0.624
        14 -11.2377     76.6533     10.0292   2.9685307313e+01   6.4532156111e+01    0.5679739     0.248376  45.90  0.001688091    2.145    0.534
        15 -10.4591     60.2100     13.8338   3.7937643203e+01   6.7409640767e+01    0.2600699    0.1950786 -30.34 0.0009542833    1.295    0.228
        16 -10.7645    130.4438     13.3578   1.8233838589e+01   5.1086948557e+01    0.3274553    0.1341765 -25.01 0.0008940987    2.413    0.585
        17 -10.0308     99.1794     12.7521   2.4591662795e+01   5.9047850373e+01    0.3341592    0.1640053 -34.56 0.0009026361    2.053    0.513
        18 -10.7007    102.0972     10.3708   2.2736089370e+01   5.8590526260e+01    0.4045747     0.259971 -12.60  0.001231912    1.637    0.389
        19 -10.5266     54.3605     13.2514   4.0127073809e+01   6.8571538493e+01    0.4005257    0.1910266 -20.99 0.0009875738    2.390    0.582
        20 -10.5220    165.1038     12.6815   1.2860827156e+01   4.2016922971e+01    0.2519342    0.1846739 -38.86 0.0007968256    1.330    0.248
        21 -10.8725    159.8425      8.8122   1.2175792045e+01   4.3780659353e+01    0.2532322    0.1960275  88.90 0.0004648954    1.287    0.223
        22 -11.7092    154.9308      8.1768   1.2566121368e+01   4.5137053027e+01    0.5084468    0.3400741 -39.39  0.002535408    1.481    0.325
        23 -12.5191    119.5841     11.5413   1.9494741606e+01   5.4082509019e+01    0.3605178    0.2699189   1.87 0.0002859802    1.461    0.316
        24 -11.5604    145.4130      6.2244   1.3109615854e+01   4.7831859702e+01    0.4898472    0.3670186  23.94  0.002074731    1.513    0.339
        25 -11.7857     28.5525     19.6376   5.7211288572e+01   7.1407088046e+01    0.2934691    0.2774536 -11.80   9.4108e-05    1.244    0.196
        26 -10.6873      9.5719      8.4847   6.3484728786e+01   7.5411932229e+01    0.3047158    0.2510987 -14.48  0.002133684    1.150    0.131
        27 -10.8869     11.4699      2.0888   5.8144502941e+01   7.6377329515e+01    0.3017414    0.1527395 -30.86  0.001060145    1.753    0.430
        28  -9.4752     64.8062      8.5832   3.3054877649e+01   6.7187012369e+01    0.1652919    0.1299153  62.72 0.0003739607    1.573    0.364
        29 -10.8441     36.4915      7.7949   4.5672104999e+01   7.2323836680e+01    0.3614776    0.2263957  41.74 0.0007347124    1.804    0.446
        30 -10.6766    176.6699     11.4168   1.1107925291e+01   3.9121395270e+01    0.3621615    0.2032397 -82.07   0.00157919    2.044    0.511
        31 -10.3491     20.2572      5.8776   5.4377914756e+01   7.4797650205e+01    0.3243617    0.1859757 -34.62   0.00183834    1.460    0.315
        32 -10.3776     16.8010      2.5665   5.4571560254e+01   7.5736242018e+01    0.2032882    0.1558048 -38.83 0.0006814257    1.297    0.229
        33 -11.5240     25.5048      2.1609   4.8425275840e+01   7.4728197103e+01    0.4663131    0.2073059  40.11   0.00190257    2.551    0.608
        34 -10.3045     35.2931      1.4120   4.2051460923e+01   7.3409188128e+01    0.2266536     0.119278  42.01 0.0008190586    2.013    0.503
        35 -10.7725    223.0289      5.3488   5.3955564564e+00   2.8297469198e+01    0.2793774    0.1803636 -21.77  0.001101098    1.585    0.369
        36  -9.2038     91.9036      7.0000   2.3611780017e+01   6.1384736375e+01    0.2154687   0.07565171  61.68 0.0007798388    2.788    0.641
        37 -11.3518    229.8646      3.2285   4.4173273087e+00   2.6948217649e+01    0.4172125    0.1920148 -24.01  0.001966624    2.096    0.523
        38 -11.0511    164.6883      4.9212   1.0275947337e+01   4.2865393050e+01    0.2727649     0.224723 -40.36 0.0004266584    1.200    0.167
        39 -11.8868    168.1410      1.9979   8.9305190146e+00   4.2220003617e+01    0.2553436    0.2136415  84.02 0.0002789033    1.135    0.119
        40 -11.0059    125.9211      3.2229   1.4827268623e+01   5.3212043581e+01    0.4357257    0.2671681  10.65  0.001960985    1.978    0.495
        41 -11.9237    243.1050      3.0622   3.6076297098e+00   2.4057301606e+01    0.3463628    0.2212806  73.36  0.001103319    1.692    0.409
        42 -11.0357    179.0011      3.8247   8.4557200704e+00   3.9241465887e+01    0.2212926     0.189284 -36.86 0.0002461051    1.158    0.137
        43 -11.0624     73.8373      2.1073   2.6137705181e+01   6.5985686754e+01    0.3298071    0.2647909 -75.62  0.001584001    1.765    0.434
        44  -9.4409     97.8217      3.5668   2.0435288565e+01   6.0286851411e+01     0.171493    0.1324153  76.79  0.000380043    1.435    0.303
        45 -10.8869     90.9757      2.1438   2.1354356827e+01   6.2060142746e+01     0.207155    0.1812002   5.32 0.0002811959    1.110    0.099
        46 -10.3404    141.0221      1.6870   1.1985094570e+01   4.9381499688e+01    0.1997322    0.1651601  71.79 0.0002012519    1.145    0.126
        47 -10.0624    138.0501     10.6877   1.5899661373e+01   4.9357901835e+01     0.266957    0.1807933 -50.67  0.000972955    1.585    0.369
        48 -10.7382    244.1109    179.0110   4.4268136806e+01   7.2640970166e-01    0.2734861     0.134792 -17.01  0.001235599    2.149    0.535
        49  -9.7747    109.9701    250.4661   7.9014706846e+01   1.0536528588e+01    0.1714462   0.08403468  38.64 0.0005567198    1.551    0.355
        50 -10.5450     90.4917    249.4062   8.2440687221e+01   1.3219037495e+01    0.1945752    0.1471053  47.71 0.0006696822    1.021    0.020
        51  -9.3989     72.2668    250.3698   8.5776772199e+01   1.5327843768e+01    0.0886477   0.08147673  -8.15 0.0006990886    1.662    0.398
        52 -12.1748     21.5545    248.5452   9.4489044570e+01   2.1210139442e+01    0.4867529    0.1256628  46.14  0.002684826    2.305    0.566
        53 -11.6208     14.4286    244.7696   9.5556338692e+01   2.2526919523e+01    0.2072361    0.1181091  63.09   0.00110079    1.261    0.207
        54 -10.5128     12.6791    250.2565   9.6025282148e+01   2.1791836400e+01    0.1712993     0.120775  33.18  0.001302436    1.618    0.382
        55 -10.0317      1.7766    180.1586   9.5517698298e+01   3.5911801901e+01    0.1449477    0.1177648 -76.13  0.000933114    1.362    0.266
        56  -9.5714    172.4815    175.4934   5.6536943915e+01   1.2983906451e+01    0.1344212    0.1213483  18.12 1.345337e-05    1.015    0.015
        57 -11.0704     18.0264    172.5912   9.1535349638e+01   3.6163497107e+01    0.2918509     0.132174  58.15   0.00152836    1.920    0.479
        58 -11.0568    248.0236    168.7124   4.1666279339e+01   1.4531056672e+00    0.1730402    0.1397245   3.77 0.0006554227    1.080    0.074
        59 -10.9519      5.1756    167.8774   9.4196149214e+01   3.8299888068e+01    0.1913702    0.1246584  69.07 0.0009071436    1.219    0.180
        60 -10.9076     33.9322    166.0432   8.7319076473e+01   3.6090226799e+01    0.3407007    0.1771273  28.32 0.0007896943    2.156    0.536
        61  -9.9769     67.5148    165.5054   7.9032485391e+01   3.2236767072e+01    0.1331188     0.115144  74.36 5.572703e-05    1.007    0.006
        62 -11.0874     51.3689    161.8685   8.2627494633e+01   3.5111505604e+01    0.3580517    0.2216285 -66.77  0.001021599    1.539    0.350
        63 -10.0999      9.0287    162.9957   9.3039787226e+01   3.9079152870e+01     0.236043    0.1551176 -25.33  0.001322309    2.672    0.626
        64  -9.1693    132.4864    161.4945   6.2624746029e+01   2.2781781645e+01    0.1394481    0.1328226  36.17 0.0004357835    1.024    0.023
        65 -11.5121    246.9912    157.4813   3.9577503350e+01   3.0776856446e+00    0.2145731    0.1436707 -23.03  0.001267798    1.272    0.214
        66 -10.9372     20.1903    157.0269   8.9954034261e+01   3.9489299143e+01    0.3382873    0.2146778 -89.00  0.001488456    1.322    0.244
        67  -9.6326      1.6404    157.6903   9.4492514489e+01   4.0850037589e+01    0.1121602   0.07926778 -53.19   0.00070416    1.739    0.425
        68 -10.4905     67.0257    157.8006   7.8174940705e+01   3.4074690026e+01     0.208859    0.1729124 -84.16 0.0002785426    1.119    0.107
        69  -9.8790    216.4814    154.4793   4.3961053317e+01   8.5786829720e+00    0.1346669    0.1161587  -4.42  4.47342e-05    1.015    0.015
        70 -10.0365    158.6606    153.7434   5.5188307504e+01   1.9458249292e+01    0.2720441    0.1709279  30.88  0.001257056    1.683    0.406
        71  -9.7156     40.8677    153.1472   8.4368203037e+01   3.8351459447e+01    0.1704367    0.1290872 -67.17 0.0005868828    1.295    0.228
        72 -10.5387     10.7361    153.0716   9.2015344422e+01   4.1208349777e+01     0.270549    0.1608898  37.20 0.0009462837    1.715    0.417
        73  -9.5200    222.5485    151.5114   4.2286042762e+01   7.9634448031e+00    0.1329001    0.1152219  -9.86 0.0001536457    1.058    0.055
        74 -10.7191     13.9687    147.9863   9.0847247749e+01   4.2134232890e+01    0.1830297    0.1439197  81.28 0.0003207898    1.014    0.014
        75  -9.9160    234.2100    146.9510   3.9385556213e+01   6.6208292386e+00    0.1802207   0.09303866 -31.50 0.0008693483    1.724    0.420
        76 -11.0706      7.9908    145.8625   9.2228144869e+01   4.3104154426e+01    0.2448726    0.1571397  47.87  0.001161017    1.495    0.331
        77 -10.1683    216.7674    145.4102   4.1964122990e+01   9.9182980107e+00    0.1840042    0.1194269  29.32 0.0005114248    1.602    0.376
        78  -9.8997    187.6693    144.0832   4.7060374688e+01   1.5619796645e+01    0.1977141    0.1727293 -13.47 0.0004750248    1.082    0.075
        79 -10.7654     24.9630    142.9376   8.7546959011e+01   4.2385475505e+01    0.1908331    0.1545197  86.42 0.0003440759    1.007    0.007
        80  -9.8490     14.0056    140.0031   9.0226132429e+01   4.4027487582e+01    0.1521635    0.1210775  85.28 0.0003283919    1.005    0.005
        81 -10.6525     65.3497    138.9492   7.5938544898e+01   3.8798177474e+01    0.2180533    0.2033821  44.85  0.000495102    1.190    0.160
        82 -10.7980    236.2976    138.1040   3.7136902993e+01   7.5373700697e+00    0.2210002     0.166491  22.28 0.0006802634    1.356    0.263
        83  -9.1788    144.2902    137.2766   5.4910641630e+01   2.5558193440e+01    0.1442615    0.1162261   0.30 0.0002415291    1.520    0.342
        84 -10.2704      2.5137    134.4859   9.2902823909e+01   4.6188973759e+01    0.1891818   0.09340049  86.55 0.0003147096    1.708    0.415
        85  -9.2131      9.3577    136.2918   9.1186355226e+01   4.5274835792e+01     0.120052   0.08275058 -50.04 0.0003723744    1.690    0.408
        86 -12.2015    241.6719    133.7900   3.5360105470e+01   7.2246526691e+00    0.3299351    0.2219382 -13.66  0.001810457    1.404    0.288
        87  -9.5787     20.7171    134.3648   8.7901173176e+01   4.4837982839e+01    0.1373244   0.07853757  70.23 0.0004062013    1.686    0.407
        88 -11.1105     53.5794    131.8902   7.8214652360e+01   4.2052159459e+01    0.4714007    0.2381942  53.35  0.001833125    2.134    0.531
        89 -10.3824     59.0167    131.3208   7.6551341101e+01   4.1510427385e+01    0.2518327    0.1718925 -58.73 0.0005429874    1.391    0.281
        90 -11.5888     37.4863    129.5861   8.2579933706e+01   4.4439956641e+01    0.5155312    0.2703959 -55.28  0.001001575    1.854    0.461
        91 -10.8447      4.3043    130.1862   9.2113673423e+01   4.7100138650e+01    0.1729335    0.1678675 -59.78 0.0006199708    1.330    0.248
        92 -10.7340     73.4751    128.8715   7.1938812348e+01   4.0125693885e+01    0.2661496    0.2318017  51.09 0.0007930058    1.176    0.150
        93 -10.9532     56.6083    126.7155   7.6524895404e+01   4.2963337909e+01    0.2734977    0.2059615 -36.31 0.0007524909    1.641    0.391
        94 -10.4066    230.0000    124.9933   3.5176615961e+01   1.0610928220e+01    0.2351769    0.0692486 -33.13  0.000810002    2.995    0.666
        95 -11.1030     15.6621    125.2208   8.8466900659e+01   4.7491241444e+01     0.320942    0.1624531  37.19  0.001668604    2.043    0.511
        96 -12.1547     10.2262    121.1654   8.9681922010e+01   4.8891551158e+01     0.536356    0.2640041  84.09  0.002631978    1.909    0.476
        97 -10.0933     30.2621    124.6064   8.4090745593e+01   4.6393348951e+01     0.152144    0.1308119   7.89 0.0004911959    1.520    0.342
        98 -11.8559    243.3578    121.0781   3.2261412641e+01   8.7493904380e+00    0.4383162   0.09018946 -35.98  0.001383743    3.889    0.743
        99 -10.7011     20.0215    121.3737   8.6783702883e+01   4.8097353112e+01     0.297169    0.1365981 -61.83  0.001428542    1.869    0.465
       100 -10.0589     56.4512    121.2124   7.5659908135e+01   4.4361176058e+01    0.1977088    0.1246588 -80.44 0.0004777897    1.603    0.376
       101 -10.9830     24.5989    118.8039   8.5101306321e+01   4.8354840678e+01     0.336048    0.1804156 -76.09  0.001690253    1.572    0.364
       102 -10.5316      1.4028    118.5458   9.2064232134e+01   5.0108548633e+01    0.2295335    0.0958094 -78.49 0.0001734837    1.882    0.469
       103 -11.5184    249.6630    117.7388   3.0609214487e+01   8.1051302934e+00    0.2661078    0.1769155 -34.61 0.0007876156    1.318    0.241
       104  -9.4619     86.0103    116.0173   6.5661318236e+01   4.1329898564e+01    0.1815261     0.157174 -63.58  0.000305412    1.086    0.079
       105  -9.8486     52.7896    116.1684   7.5925872458e+01   4.6087384540e+01    0.1850019    0.1517923 -46.80 0.0002709036    1.304    0.233
       106 -10.6152      9.7777    111.2129   8.8860748524e+01   5.1385058516e+01    0.2591191    0.1432117 -36.21  0.001297774    2.393    0.582
       107 -11.4365     24.4734    106.9230   8.3614347560e+01   5.1355183782e+01    0.4067637    0.2519442  -8.34  0.002007362    2.508    0.601
       108 -11.5564     16.1425    115.2082   8.7296400922e+01   4.9937299088e+01    0.2724399    0.2243712  57.04 0.0005744675    1.269    0.212
       109 -12.7714     15.6367    110.3372   8.6911464041e+01   5.1192287531e+01     0.638302    0.4437253  85.74  0.003734999    1.279    0.218
       110 -11.0427    182.5983    114.4257   4.0989958150e+01   2.1990045199e+01    0.2924967    0.2742714  20.33 0.0005888125    1.085    0.078
       111  -9.9660    105.5777    114.7355   5.9659468784e+01   3.8170886764e+01    0.2911548    0.1409626 -48.20  0.001123094    2.000    0.500
       112  -9.8595     72.1618    115.0171   6.9659611819e+01   4.3752748465e+01    0.1996593     0.164864  -1.65 0.0006521985    1.597    0.374
       113 -11.8908    248.6522    111.8338   2.9401940054e+01   9.1179448777e+00    0.4175294    0.2320517  33.64   0.00168993    2.205    0.547
       114 -10.3764     92.9142    111.4252   6.2546899338e+01   4.1265902586e+01    0.4087771    0.2218002  59.87  0.001041861    2.613    0.617
       115 -12.0182     37.5146    109.4795   7.9709055599e+01   4.9495420596e+01    0.4156093    0.3336585  31.77  0.002010576    1.436    0.304
       116 -10.8622     55.1558    109.7091   7.3994302757e+01   4.7425017005e+01    0.2594413     0.202108 -62.27 0.0006190818    1.154    0.133
       117 -10.4104      2.8462    105.9110   9.0540507072e+01   5.3129891899e+01    0.3541139    0.1596531  81.70   0.00164003    2.201    0.546
       118  -9.9633    111.6900    105.8504   5.5682319720e+01   3.9053236900e+01    0.2374913    0.1735991  48.98            0    1.429    0.300
       119 -11.2924     36.3627    101.0111   7.8688164846e+01   5.1761113802e+01    0.5345181    0.2850595  70.20  0.001572371    2.573    0.611
       120  -9.9903     32.4270     96.4824   7.9271725988e+01   5.3292363477e+01     0.222088    0.1633748  85.96 3.695909e-05    1.369    0.270
       121 -12.0311     21.6661     98.6083   8.3383851409e+01   5.3685425188e+01    0.5944291    0.3643562  85.97  0.002858797    1.642    0.391
       122 -10.5707     15.5684     96.9409   8.5268120297e+01   5.4561906171e+01    0.2202088    0.1949164 -24.89 0.0009563044    1.388    0.280
       123 -11.1489     62.0172     98.9149   6.9467793217e+01   4.9235606036e+01     0.449431    0.2831494 -46.72  0.001572733    1.554    0.357
       124  -9.6148     66.9230     97.7700   6.7542339019e+01   4.8823060044e+01    0.1926279     0.133916  47.07 0.0002810355    1.566    0.361
       125  -9.8307      9.7132     99.0479   8.7549584913e+01   5.4424867127e+01    0.1780417    0.1299061 -80.15 0.0003165685    1.104    0.094
       126  -9.1355     94.7857     98.0163   5.8581582668e+01   4.4135804132e+01    0.1924231    0.1184412 -51.80 -0.000430966    1.537    0.349
       127  -9.5149     76.6825     97.6484   6.4259936633e+01   4.7356116948e+01    0.1547962    0.1115433 -27.65 0.0007047261    1.738    0.425
       128 -10.2458    241.4896     96.5281   2.6774220647e+01   1.2645050772e+01     0.137737    0.1158614 -27.78 3.691821e-05    1.019    0.019
       129  -9.7800     57.3810     96.2432   7.0453064905e+01   5.0532304713e+01     0.191243     0.126465 -71.28 0.0002143761    1.481    0.325
       130 -10.3845      1.7058     93.4018   8.9666160916e+01   5.6292675661e+01    0.2332983    0.1360224 -78.34  0.000602566    1.350    0.259
       131 -10.3172    231.6325     91.7169   2.6942146925e+01   1.5305189063e+01    0.2085196    0.1097328 -38.46 0.0007731231    1.658    0.397
       132 -10.8997    249.5423     91.0478   2.4426889529e+01   1.1882534866e+01    0.2124817     0.111899 -30.25 0.0006762277    1.575    0.365
       133 -11.0156    158.2026     90.4084   3.9529607529e+01   3.2048238165e+01    0.3771783    0.2795713  33.70  0.001029704    1.508    0.337
       134  -9.7555     56.4765     90.9508   6.9544810708e+01   5.1975321181e+01    0.2272273    0.1259197 -57.66 0.0006253642    1.580    0.367
       135 -10.9572     10.5440     90.7148   8.6210576820e+01   5.6459043432e+01     0.235393    0.1771764 -54.80 0.0004507687    1.261    0.207
       136  -9.8231      9.8712     86.2878   8.5849765832e+01   5.7607890817e+01    0.2644379    0.1145218  67.25  0.001042575    3.288    0.696
       137 -10.3454     83.6875     88.9564   5.9625362946e+01   4.8282326232e+01      0.29785    0.2192966  24.54 0.0008999894    1.621    0.383
       138 -11.2597     21.5801     86.7246   8.1537329388e+01   5.6690338549e+01    0.4036779    0.1889553 -82.31  0.001471493    2.225    0.551
       139 -11.0557     21.6761     83.3311   8.0907609692e+01   5.7535409190e+01    0.3817796    0.1852001 -48.38   0.00158181    1.915    0.478
       140 -10.1782     65.3146     86.9666   6.5392774229e+01   5.1725500851e+01    0.2138122     0.181152 -60.93  0.001157779    1.079    0.073
       141 -11.8412    107.2407     84.6559   5.0917108992e+01   4.4754329585e+01    0.2912553    0.2661324 -84.66 0.0002753067    1.201    0.167
       142 -11.2078     30.5818     81.7247   7.7149998061e+01   5.7185473505e+01    0.4539142    0.2183441 -59.58  0.001839118    1.680    0.405
       143 -10.3941    247.3039     84.6554   2.3174015467e+01   1.3204511730e+01    0.1397979    0.0898127 -51.88 0.0007040631    1.687    0.407
       144 -10.9167     76.6621     82.4426   6.0132886069e+01   5.1029432375e+01    0.2734818    0.2401965  87.77  0.000367676    1.285    0.222
       145 -10.4039     42.5656     81.2421   7.2394264133e+01   5.6089303442e+01    0.2875331    0.1258726 -66.16  0.001162143    2.154    0.536
       146 -10.5193      7.0171     81.4811   8.6248310969e+01   5.8972010968e+01    0.3191687     0.166958 -42.52  0.001633323    1.983    0.496
       147  -9.1794     84.3076     79.2499   5.6539921390e+01   5.0444149050e+01    0.1437167    0.1163192 -10.31 0.0001926994    1.508    0.337
       148 -11.4598     21.8387     75.3298   7.9325426682e+01   5.9520653747e+01    0.3014171    0.2319495 -61.32  0.001306396    1.073    0.068
       149 -10.3377     15.2231     79.5865   8.2763611780e+01   5.8939923591e+01     0.206876    0.1371271   4.40 0.0005500585    1.969    0.492
       150 -11.0311     88.1136     77.3050   5.4645078331e+01   5.0187219421e+01    0.2648675    0.2200463 -59.69 0.0002227974    1.218    0.179
       151  -9.5419      3.1945     77.9668   8.7236434183e+01   6.0044427026e+01    0.1720555   0.08032959 -74.97 0.0003614144    1.697    0.411
       152 -10.6895     99.8895     76.5508   5.0585848118e+01   4.8048398609e+01    0.2822538    0.2112746 -50.91 0.0003082718    1.305    0.234
       153 -10.2210     56.2960     75.0310   6.5449255372e+01   5.5905892224e+01    0.2048873     0.174735 -55.82 0.0006707403    1.049    0.047
       154 -12.1664    167.7451     73.3879   3.2421182832e+01   3.2855138603e+01    0.2989773    0.2496915 -38.50 0.0003281657    1.138    0.121
       155 -14.2459     16.6852     67.3728   7.9855625053e+01   6.1863241891e+01    0.5747687    0.3782025 -57.86  0.001196578    1.228    0.185
       156 -10.6327    247.2198    249.6210   5.5486420127e+01  -7.3116489800e+00    0.1465472   0.07020862  24.66 0.0007743613    1.628    0.386
       157 -12.9389     12.3338     47.2366   7.7103875225e+01   6.6975855046e+01     0.458767    0.3262644 -88.46 0.0009001743    1.631    0.387
       158 -10.1765      1.5834     73.2655   8.7217041792e+01   6.1280831988e+01    0.2413293    0.1499057 -59.96 0.0008680896    1.300    0.231
       159  -9.8137      7.5357     73.5479   8.4841045181e+01   6.0909858399e+01    0.1853626    0.1566707  43.36 0.0001170856    1.413    0.292
       160  -9.6965      4.6668     73.3292   8.5975534252e+01   6.1115619211e+01    0.1968026    0.1276331  65.11 0.0005731608    1.754    0.430
       161 -10.9142     44.6074     74.5390   6.9911908998e+01   5.7508322656e+01    0.2286905    0.2131358 -79.49 0.0003781879    1.128    0.114
       162 -10.1340     26.0129     71.9707   7.6892467109e+01   6.0013013197e+01    0.2123195    0.1764421 -52.66  0.001294382    1.088    0.081
       163 -10.0212     37.7003     70.9432   7.1780847871e+01   5.9153474298e+01    0.2412144    0.1265712  63.24 0.0008957314    3.527    0.716
       164 -11.4717     50.2516     68.2801   6.5869499154e+01   5.8323517065e+01     0.322392    0.2354249 -37.22 0.0006489795    1.347    0.257
       165 -10.3044      6.8001     68.5595   8.4316155636e+01   6.2177700525e+01    0.2711486    0.1579574 -73.23 0.0009028655    1.396    0.284
       166 -11.6295      2.7052     63.1735   8.5160612815e+01   6.3696873519e+01    0.4675536    0.2560066 -85.52  0.002288598    1.755    0.430
       167 -11.5446    122.7154     67.3345   4.0803998823e+01   4.4927947135e+01    0.2820466    0.2569742 -48.43 0.0002673011    1.093    0.085
       168 -12.2732    147.0050     65.5922   3.4263955401e+01   3.9364564701e+01    0.2987119    0.2637276 -51.68 0.0007460677    1.141    0.124
       169  -9.4674     68.8347     66.8203   5.8074492228e+01   5.5947271516e+01    0.1852522    0.1616315 -67.51 0.0003464678    1.228    0.185
       170  -9.2090     93.5643     66.5072   4.9198479553e+01   5.1488289407e+01    0.1524811    0.1423544 -36.80 4.019377e-05    1.011    0.011
       171 -10.5040     32.8072     63.8116   7.1965358426e+01   6.1378995878e+01    0.2074164    0.1914666  13.33  0.000264749    1.260    0.207
       172 -11.1256     28.4696     61.0613   7.3141069573e+01   6.2450538912e+01    0.5724826    0.4952979 -26.80  0.002572122    1.221    0.181
       173 -10.1426    110.4528     64.5509   4.3257379872e+01   4.8282724145e+01    0.3370475    0.2318577 -76.55  0.001010915    2.350    0.574
       174  -9.7513     81.2074     65.1479   5.2945657198e+01   5.4168275461e+01    0.1979125    0.1786842  84.00  0.001054979    1.315    0.239
       175 -10.3480    155.6589     62.8468   3.1503918381e+01   3.7674136845e+01    0.3789195    0.2393208 -34.10  0.001637567    1.523    0.343
       176  -9.8609    106.2739     63.9337   4.4275107299e+01   4.9332654659e+01    0.2141264    0.1868792 -31.81 0.0002969049    1.106    0.096
       177 -10.9289    202.0100     62.5363   2.3391578900e+01   2.6243123016e+01     0.264466    0.1966486 -31.28 5.759942e-05    1.240    0.193
       178 -11.3446     57.2034     58.6562   5.9878860750e+01   5.9588932605e+01    0.4023452    0.3066573 -19.39 0.0008355386    1.470    0.320
       179 -10.0380     90.6021     60.9935   4.8188760557e+01   5.3233148462e+01    0.3519962    0.2015516  43.34  0.001125507    1.848    0.459
       180 -11.5215     46.7370     60.3206   6.4862841793e+01   6.0638918634e+01     0.379915    0.2423965 -30.64 0.0009508249    1.732    0.423
       181  -9.0958    138.2667     60.2581   3.4439904030e+01   4.2474378661e+01    0.1479835     0.119939  16.19  0.000682031    1.451    0.311
       182 -10.2680    134.9009     58.1696   3.4500074445e+01   4.3673263681e+01    0.2831502    0.2199183 -75.33 0.0003808446    1.616    0.381
       183 -10.3321    119.9748     59.3288   3.8696502429e+01   4.7084364101e+01    0.3515704    0.2136221 -25.89  0.001440208    1.824    0.452
       184  -9.2379    109.2850     60.2961   4.2054820385e+01   4.9374060524e+01    0.1521296    0.1201891   4.03 0.0001738447    1.545    0.353
       185  -9.7786     98.2481     60.0030   4.5318626284e+01   5.1850625078e+01    0.2062766    0.1930534 -32.98 0.0004248533    1.019    0.019
       186  -9.5315    169.2030     59.5918   2.7827895781e+01   3.4788326903e+01    0.2056536    0.1411888  47.23 0.0002991076    1.540    0.351
       187  -9.1429    127.4178     58.5299   3.6464629506e+01   4.5444955235e+01    0.1544835    0.1481402 -24.78 1.695179e-05    1.016    0.016
       188 -10.5965     80.3477     56.4880   5.0071675342e+01   5.6160847026e+01    0.4365384    0.2861403 -13.06  0.001521842    2.213    0.548
       189 -11.4413    231.0059     57.3168   1.8259847421e+01   2.0350465465e+01    0.3455895    0.1477648 -36.75  0.001469891    1.919    0.479
       190  -9.5665    151.0189     54.0920   2.9518350313e+01   4.0296313182e+01    0.1764275    0.1743518 -43.11 0.0003567243    1.016    0.016
       191  -9.4278    140.2487     54.3436   3.1910542741e+01   4.2988276277e+01    0.1542645    0.1200455   7.40 0.0004721056    1.574    0.365
       192 -12.4880    105.0270     52.5460   4.0379571974e+01   5.1790034002e+01    0.2921427    0.2738408 -17.29  0.000336548    1.030    0.030
       193 -10.7147     89.0677     51.9620   4.5239533436e+01   5.5344436655e+01    0.5271978    0.2060088 -42.86  0.001824054    2.446    0.591
       194 -12.4043     38.4878     50.2390   6.5169754818e+01   6.3935967002e+01    0.6548719    0.4304453 -45.32  0.002582425    1.298    0.229
       195 -10.2354     27.5046     53.7360   7.1499569966e+01   6.4271713336e+01    0.2175189    0.1822779   6.28  0.000992656    1.378    0.274
       196 -10.7395    128.2384     50.3153   3.3249880768e+01   4.6661788830e+01    0.3394944    0.2383714  27.39 0.0009440549    1.721    0.419
       197  -9.5616     74.0000     49.9693   4.9866377134e+01   5.8663989344e+01    0.2447676    0.0777339 -43.47 0.0007993507    2.921    0.658
       198 -11.4563     52.0402     47.8496   5.8078973797e+01   6.2700740618e+01     0.528261    0.3132126 -56.28  0.002493552    1.744    0.427
       199 -10.1574     78.0197     47.1171   4.7184318350e+01   5.8471402234e+01    0.4491216    0.1926239 -45.64  0.001709596    2.301    0.565
       200 -11.4257     44.6376     43.6457   5.9796186188e+01   6.4615998113e+01    0.6640501    0.2988106 -59.37   0.00259962    2.729    0.634
       201 -11.8008     45.1065     38.3139   5.7353731852e+01   6.5660136226e+01    0.3051508    0.2695881 -78.77  0.001811137    1.492    0.330
       202  -9.2762    164.2771     48.3365   2.5052542924e+01   3.7780491629e+01    0.1533025    0.1173869  17.74 0.0002746706    1.611    0.379
       203  -9.7575    171.7153     47.0247   2.3355227424e+01   3.6057570812e+01    0.2103971    0.1825392 -35.06 0.0002552443    1.108    0.098
       204  -9.6395     82.4990     47.1223   4.5557472131e+01   5.7596020693e+01    0.2263976    0.1376704 -38.09  0.001018582    1.549    0.354
       205 -11.0678    112.3757     45.4100   3.5454268716e+01   5.1335254045e+01    0.2704378    0.2511712   0.54 0.0003481439    1.078    0.072
       206  -9.5370    104.4679     46.4439   3.8121704615e+01   5.3004948290e+01    0.1497404     0.143282 -10.54 7.207913e-05    1.004    0.004
       207  -9.6556    142.9715     45.4918   2.8153673016e+01   4.3705640349e+01    0.2236206    0.1521094  61.88 0.0005134072    1.511    0.338
       208 -10.5948     72.9535     43.1300   4.7408914404e+01   6.0189645308e+01    0.2353685    0.1925992 -37.48            0    1.148    0.129
       209 -10.8731     23.8871     41.7279   6.9413084847e+01   6.7343660414e+01    0.3800023    0.2238917 -54.06  0.001233297    1.396    0.284
       210 -12.8918     27.5724     37.7494   6.6004458575e+01   6.7865428752e+01      0.29021    0.2377023 -53.96 0.0004024593    1.166    0.142
       211 -11.2988     24.3733     34.8270   6.6584481032e+01   6.8806898598e+01    0.2804104    0.1837048 -38.43 0.0008654593    1.309    0.236
       212 -10.7909     97.4796     41.4536   3.8167582504e+01   5.5439937037e+01    0.4018489    0.2603974  15.65 0.0008679315    2.193    0.544
       213 -10.9540    224.7043    247.6207   5.8729422265e+01  -4.4236065956e+00    0.3250251    0.1094682 -26.67  0.001588782    3.707    0.730
       214 -10.5313     89.0889     40.8488   4.0608912425e+01   5.7376118542e+01    0.3244919    0.2794427 -88.88  0.001585269    1.519    0.342
       215  -9.9663     67.3983     41.2222   4.8772115917e+01   6.1563254739e+01    0.1963444    0.1267626 -48.94 0.0003817485    1.602    0.376
       216 -10.1719    235.8016     40.1406   1.3343186018e+01   2.1527115518e+01    0.1704466    0.1544009   8.31 0.0004819606    1.319    0.242
       217 -10.2010    226.4089     40.2352   1.4281269124e+01   2.3604133439e+01     0.202858    0.1061879 -39.09 0.0009145599    1.608    0.378
       218  -9.3782    168.0000     39.1311   2.1368564226e+01   3.8124430002e+01    0.2433169   0.08314454 -27.84 0.0007906163    2.861    0.650
       219 -10.3160    109.5290     38.4148   3.3379237613e+01   5.3142985218e+01    0.2581815    0.1792434 -21.21 0.0005964217    1.502    0.334
       220 -11.3410    111.3480     34.8263   3.1388420418e+01   5.3251200941e+01    0.2997786    0.2490671  41.42 0.0008253471    1.199    0.166
       221  -9.9075      1.3220     37.4912   8.0358236981e+01   6.9828217777e+01    0.2015164    0.0915925 -66.34 0.0001879516    1.751    0.429
       222 -11.3285    248.1610     36.3324   1.1303506385e+01   1.9352645238e+01    0.2347331    0.1857677 -40.76 0.0002931919    1.040    0.039
       223  -9.9482    202.0153     37.0269   1.6048268650e+01   2.9767799748e+01    0.1723832    0.1538495 -45.15 0.0004160185    1.024    0.024
       224 -10.6431     83.6293     36.0624   4.0347551878e+01   5.9343058880e+01    0.4026387    0.2272389 -10.01  0.001481359    2.934    0.659
       225 -11.2873     65.4079     36.7164   4.7560841855e+01   6.2759427022e+01    0.2798864    0.2288971  22.14  0.000203696    1.272    0.214
       226 -10.3735     97.1391     36.1172   3.5970083176e+01   5.6390646920e+01    0.2152777    0.2046673 -24.31 0.0004986148    1.065    0.061
       227 -11.6370     74.7770     35.5462   4.3321347431e+01   6.1218747140e+01    0.5120081    0.3421937 -39.43 0.0005322754    1.438    0.304
       228 -10.0710     73.3204     31.3222   4.1884744454e+01   6.2220952404e+01    0.2052931    0.1679182  23.40 0.0004567973    1.239    0.193
       229 -11.0822     17.4547     31.4469   6.9151926741e+01   7.0147122499e+01    0.4274283    0.2611114  -3.36  0.002319085    1.993    0.498
       230 -10.8033      9.8983     34.8489   7.4721307042e+01   6.9956184864e+01    0.2882028    0.2193208  13.95  0.001848676    1.550    0.355
       231 -11.2153      7.2235     30.0720   7.4679136297e+01   7.1177518846e+01    0.3061648    0.2298475 -83.96 0.0008622831    1.612    0.380
       232 -10.8223    240.9901     34.1196   1.1359731296e+01   2.1133728195e+01    0.1944134    0.1657188 -44.47 0.0003540605    1.024    0.023
       233  -9.4091    146.3516     33.7719   2.3218570423e+01   4.4504471092e+01    0.1983003    0.1417714 -13.31 0.0003753243    1.552    0.355
       234  -9.2520    134.4913     34.5183   2.5833117030e+01   4.7485532196e+01    0.1486649    0.1452612 -58.73 0.0008099786    1.042    0.041
       235 -11.2013    122.3851     33.5807   2.8137081961e+01   5.0702646316e+01    0.3389378      0.26902  59.12 0.0004661719    1.272    0.214
       236  -9.2941    140.7338     33.6851   2.4255410404e+01   4.5981963325e+01    0.1501617    0.1134227  22.26  0.000231536    1.548    0.354
       237  -9.0995     34.2475     33.4579   6.0699331823e+01   6.8037860372e+01    0.2438882     0.148917  52.42  0.001157064    2.597    0.615
       238  -9.6253     30.6625     32.3202   6.2114173455e+01   6.8682545933e+01    0.1715907    0.1316287  45.89 0.0009939255    1.707    0.414
       239  -9.7088    221.5843     31.7850   1.2506074653e+01   2.5746254060e+01    0.1944848    0.1062599 -40.29 0.0002505312    1.561    0.359
       240  -9.8925    207.1738     32.6154   1.4200402438e+01   2.9060372525e+01    0.1909697    0.1227315  55.96 0.0004166244    1.684    0.406
       241  -9.5992    129.1890     31.8463   2.5915284845e+01   4.9214056969e+01    0.1973355    0.1679055  25.20 0.0003394856    1.242    0.195
       242 -10.9653      1.6050     31.4186   7.8474212283e+01   7.1184453696e+01    0.2209903    0.1336534 -66.33  0.001284396    1.408    0.290
       243 -10.0002    178.0000     30.9695   1.7231396352e+01   3.6589071823e+01    0.2392953   0.08070028 -26.21 0.0005941746    2.899    0.655
       244 -11.1875    100.3593     28.7243   3.1731435409e+01   5.6760018530e+01    0.4616653    0.2708759  42.64 0.0008616009    1.717    0.418
       245 -11.8891    248.9377     27.5218   9.1068475259e+00   2.0218985993e+01    0.3209769    0.2503134 -17.10  0.001957484    1.379    0.275
       246  -9.8836    234.4103     29.1822   1.0671973183e+01   2.3150528732e+01    0.2033166   0.09514592 -39.95 0.0007935221    1.739    0.425
       247 -11.6669    156.4525     28.0865   1.9430838683e+01   4.2579450541e+01    0.4011504    0.2790971 -85.15 0.0004417206    1.672    0.402
       248 -10.2602     49.8429     28.0201   5.0279296810e+01   6.6943062877e+01    0.3389654    0.1604795 -23.73  0.001255364    3.148    0.682
       249 -11.8701    197.0359     26.9325   1.3659697639e+01   3.2235249957e+01    0.4839935    0.3135285 -55.72  0.002371536    1.524    0.344
       250 -10.2015    118.7102     27.8002   2.6611138509e+01   5.2415694262e+01     0.264676    0.1839799  46.56  0.001210593    1.415    0.293
       251 -11.1933    112.3163     27.0345   2.7816582234e+01   5.4110104095e+01    0.3569483    0.2579327  -8.81  0.001724812    1.516    0.341
       252  -9.9477     79.6613     27.4900   3.7705954092e+01   6.1547075126e+01    0.2583019    0.1702637  -6.08   0.00104545    1.835    0.455
       253 -10.0282     34.3558     43.1395   6.4583568434e+01   6.5977204826e+01    0.2232585    0.1368562 -38.84 0.0007769053    1.461    0.315
       254 -10.2875    238.6229     27.7133   9.9533129586e+00   2.2396430265e+01    0.1258246   0.09702244  30.88 0.0007016713    1.725    0.420
       255 -10.7984    146.3348     26.9856   2.0721638019e+01   4.5379016114e+01    0.3406183    0.2165648  68.18 0.0008212269    1.589    0.371
       256  -9.8457     16.0617     26.6789   6.8047509746e+01   7.1271446441e+01    0.1688141    0.1366429 -28.53 0.0003446985    1.115    0.103
       257 -11.6171    216.3445     25.3393   1.1255584822e+01   2.7728978389e+01     0.367918    0.2288319  69.30  0.001875186    1.693    0.409
       258 -10.2735     10.8746     24.4222   7.0305380313e+01   7.2147082542e+01      0.32321    0.1772756 -20.45  0.001065315    2.062    0.515
       259  -9.8592    160.4928    248.9899   6.9797031321e+01   3.8947310841e+00    0.1360339    0.1087478 -32.48   0.00101904    1.564    0.361
       260 -10.7289      4.0805     17.9662   7.2056788595e+01   7.3945402975e+01    0.2767818    0.1690817 -32.22  0.001665363    1.441    0.306
       261 -10.1290     83.3285    248.1788   8.3638275057e+01   1.4311032423e+01    0.2215723   0.09298396  52.81  0.001007579    2.064    0.515
       262 -11.0638    141.2424     17.7016   1.8093846394e+01   4.7795386048e+01    0.6543618    0.1957459  53.03   0.00178728    2.996    0.666
       263 -10.4181    137.0220     14.9668   1.7740440591e+01   4.9197352750e+01    0.2664069     0.198528 -34.56 0.0003607165    1.355    0.262
       264 -11.7085    128.5037     24.0294   2.2930265296e+01   5.0395866642e+01    0.2687321    0.2488641  22.40 0.0003055075    1.093    0.085
       265 -11.5476      5.9564    244.8250   9.6974672775e+01   2.3311161746e+01    0.3245338    0.1356755  57.70  0.001898028    1.639    0.390
       266  -9.9277     71.2274     25.5752   3.9853815512e+01   6.3556707797e+01     0.199624    0.1227238  33.48 0.0009438065    1.723    0.420
       267 -10.5830    160.0000     24.0641   1.7473397350e+01   4.2126344518e+01     0.322608    0.2034937 -34.12  0.001499171    1.532    0.347
       268 -10.6261    161.5269     20.4869   1.6010538757e+01   4.2131807150e+01    0.3636606    0.1856181  -6.20   0.00136127    2.777    0.640
       269  -9.9990     54.1211     23.2102   4.5799341676e+01   6.7078938079e+01    0.2351936     0.168241 -57.23  0.001129314    1.954    0.488
       270 -10.7965     22.5100     24.0357   6.2993773535e+01   7.1221552219e+01      0.23834    0.1867188  -8.43 0.0003229045    1.286    0.223
       271 -10.5522     28.1048    245.2786   9.3246052106e+01   2.1089353301e+01    0.2134771    0.1140671 -72.07  0.001467667    2.091    0.522
       272  -9.9370     24.3211     20.2873   6.0068355382e+01   7.1764837643e+01    0.2062866    0.1275104 -35.55   0.00025829    1.368    0.269
       273 -10.7386     73.0228    244.5221   8.5237471429e+01   1.6163505876e+01    0.2532939     0.142426  41.47  0.001256205    1.377    0.274
       274 -12.0733     75.4240    238.9335   8.4390178955e+01   1.6777691268e+01    0.4443278    0.3686057 -71.25   0.00342928    1.469    0.319
       275 -10.0482     45.6856    244.5440   9.0143392017e+01   1.9342078729e+01    0.1531892   0.06889569  46.68 0.0009455292    1.586    0.369
       276 -11.2916     63.8868     22.1137   4.0977037856e+01   6.5507419364e+01     0.339257    0.2202307 -21.96  0.001217737    1.511    0.338
       277 -10.4898     59.0352     21.1281   4.2497484288e+01   6.6554520441e+01    0.2224137     0.203102 -24.77  0.000432123    1.160    0.138
       278 -10.0606    123.1835     25.9658   2.4840936527e+01   5.1520417871e+01    0.2750212    0.2266258 -50.02   0.00142062    1.297    0.229
       279  -9.7258    186.5406     22.5192   1.3504773294e+01   3.5394794394e+01    0.1432587    0.1299523 -59.25 2.155518e-05    1.025    0.024
       280 -10.2443     82.9239     22.0714   3.3916524264e+01   6.1640974201e+01    0.2540238    0.2025528  31.75 0.0009873953    1.226    0.185
       281 -10.4790     87.1346     20.1152   3.1591157518e+01   6.0974568843e+01      0.25273    0.1821523  22.03 0.0002604467    1.476    0.322
       282  -9.0826     34.9649     22.0725   5.4849194645e+01   7.0158945582e+01    0.2313977    0.2170545  24.97  0.001531421    1.314    0.239
       283 -11.0024    249.0338     20.9749   7.5263003411e+00   2.0932636194e+01    0.1986686    0.1582663 -47.73 0.0003329152    1.023    0.022
       284  -9.3877    155.7261     21.6809   1.7272607487e+01   4.3528477950e+01    0.1468257      0.10842  29.08 0.0003036243    1.569    0.363
       285  -9.2215     74.6778     21.2861   3.6373855402e+01   6.3499783030e+01    0.1307395    0.1108094 -66.88 0.0007004224    1.599    0.374
       286  -9.8735     99.0571     20.0473   2.8095704728e+01   5.8225486057e+01     0.207961    0.1631557 -56.17            0    1.533    0.348
       287  -9.4549    115.6737    240.3159   7.7007687959e+01   1.1278316776e+01    0.1164781   0.07183363  57.80 0.0007044256    1.672    0.402
       288 -10.2359    195.2581    238.5132   6.2365825202e+01   4.0571454145e-01    0.1845305    0.1459329 -18.71  0.001053385    1.395    0.283
       289 -10.7556     18.0400    236.6762   9.4648973562e+01   2.3549214130e+01    0.3428268    0.0963703  49.70   0.00186127    2.280    0.561
       290 -10.2594    165.8633     18.2712   1.4662641861e+01   4.1233474845e+01    0.3191789    0.1588976 -44.65  0.001330309    1.989    0.497
       291 -10.9212    169.4172     16.7834   1.3708043418e+01   4.0460279104e+01    0.2573659     0.237973 -56.02  0.001001654    1.042    0.040
       292 -10.4861    108.0668     18.1846   2.4937695165e+01   5.6265163076e+01    0.2403863    0.2037333  -4.77 0.0008521446    1.195    0.163
       293 -10.4287     41.1605     19.1348   4.9932717164e+01   6.9816855003e+01    0.2009216      0.17349   3.89 0.0004648134    1.127    0.113
       294 -10.4387     76.6784     15.5110   3.2638112208e+01   6.3861704186e+01    0.2575649    0.1958961  24.05  0.001024714    1.297    0.229
       295 -10.1873     67.4183    235.9043   8.5658347601e+01   1.8267610182e+01      0.21115    0.1371813  23.38  0.001322494    1.960    0.490
       296 -11.0218    183.2447    234.2537   6.3882892796e+01   2.5904170879e+00    0.2361368     0.207138  25.71  0.001220593    1.215    0.177
       297 -10.9837    249.5626     15.1630   6.1056674278e+00   2.1451097721e+01     0.242124    0.1509729 -54.95 0.0005019652    1.391    0.281
       298 -10.0811    215.8259     16.3129   8.8444445269e+00   2.8854796008e+01    0.3329251   0.07192352  62.20  0.001100376    4.051    0.753
       299  -9.9938    193.0573     16.2786   1.0908929629e+01   3.4427037338e+01    0.1930173     0.166306 -89.43 0.0003294144    1.137    0.121
       300 -11.3599    185.1219    228.1751   6.2698733855e+01   3.0965287607e+00    0.4038458     0.240201  -4.19   0.00219216    2.379    0.580
       301  -9.9202     64.6875     12.8566   3.5568873340e+01   6.6673610891e+01    0.2267223    0.1664097  19.47 0.0005482176    1.361    0.265
       302 -11.0562    160.4943    235.1710   6.8111028517e+01   5.7068437082e+00    0.2388141    0.1259361  25.14 0.0008868967    1.917    0.478
       303 -11.6453     30.3838    233.7547   9.2335613692e+01   2.2816365037e+01    0.3484977    0.1892285  56.20  0.002364374    1.357    0.263
       304 -10.5292     39.6379    229.4317   9.0424344118e+01   2.2595953904e+01    0.2152301    0.1097697  52.77  0.001359697    1.473    0.321
       305  -9.2077     59.3197    229.3154   8.6721308481e+01   2.0377227067e+01   0.09466528   0.08711619  -8.44 0.0005056913    1.655    0.396
       306  -9.7003    151.5152    228.4895   6.8927420570e+01   7.9449974090e+00    0.1186539   0.09554286  35.35 0.0001991028    1.040    0.038
       307 -10.0560    191.1789    226.7086   6.1406434213e+01   2.4156949117e+00    0.1771459    0.1611025 -27.46  0.001326876    1.419    0.295
       308  -9.8229    131.3187    226.6714   7.2554999953e+01   1.1169059582e+01    0.1191813   0.08071474  60.06 0.0005448841    1.684    0.406
       309 -10.4075      3.8017    225.8840   9.6782345619e+01   2.6778754383e+01    0.1454755    0.1203943  78.29  0.001066409    1.284    0.221
       310 -10.0136    211.8400    218.7594   5.6584388644e+01   4.6169491431e-01    0.1727067    0.1535832 -58.91 0.0008222125    1.951    0.487
       311  -9.4334    206.4970     10.5841   8.0363519005e+00   3.1691056435e+01    0.1345771    0.1191346 -61.70 5.678237e-05    1.015    0.014
       312 -11.0231     47.2577    218.9986   8.8352132256e+01   2.3645565204e+01    0.3291943   0.09102422  41.42  0.001545421    2.549    0.608
       313  -9.4901    176.3341    218.6955   6.2932369215e+01   5.6564142432e+00    0.1127785   0.08845937  56.27 0.0003433045    1.664    0.399
       314  -9.6708    135.5542    216.4875   7.0469413534e+01   1.2160044498e+01    0.1219536    0.1022252  38.33   0.00017924    1.006    0.006
       315 -10.4939     29.3518    215.7398   9.1634884458e+01   2.6196980015e+01    0.2027228    0.1414655  30.16  0.001178634    1.646    0.392
       316 -10.0740     24.1335    216.1347   9.2656250112e+01   2.6652413128e+01    0.1567856   0.09330592  64.52 0.0004250741    1.301    0.232
       317 -10.9593      8.0171    215.9567   9.5684223809e+01   2.8220681400e+01    0.2403977    0.1083071  50.48  0.001505953    1.618    0.382
       318 -10.5498     14.5255    215.4780   9.4448850988e+01   2.7709375318e+01    0.1637542    0.1149704  44.64 0.0009714771    1.315    0.239
       319 -12.1244     11.9863    210.3955   9.4721193119e+01   2.8912391451e+01     0.465711    0.1877963  80.76  0.002239424    2.277    0.561
       320  -9.6339    110.3733    211.8377   7.4973481625e+01   1.6698671167e+01    0.1517675    0.1128894 -47.04 0.0009379495    1.642    0.391
       321 -12.3168      5.0658    207.8387   9.5943614336e+01   3.0027016147e+01    0.5030466    0.2257858  81.28  0.002983717    1.891    0.471
       322  -9.8616    217.3575    210.1770   5.4253809265e+01   7.2688791601e-01    0.1526861    0.1033758 -37.05 0.0009535287    1.757    0.431
       323 -10.9950    175.3006    202.3178   6.0615020129e+01   8.1958878514e+00    0.2433321    0.1874508  32.31 0.0005136349    1.131    0.116
       324  -9.7924     67.3564    202.8130   8.3014128964e+01   2.4327859061e+01    0.1514888    0.1044656 -63.65 -0.000275831    1.607    0.378
       325 -10.8172     20.1094    200.5011   9.2668356958e+01   3.0087056021e+01    0.3931924    0.1193557 -66.20  0.001842992    3.208    0.688
       326 -11.9564     15.7186    192.1274   9.3141289377e+01   3.2203576736e+01    0.3313606    0.3114029  60.54  0.001928493    1.364    0.267
       327  -9.5520    186.4834    193.4819   5.7005902804e+01   7.7326289497e+00    0.1284525    0.1084649  15.61 0.0008101506    1.013    0.013
       328  -9.4642    145.2482    190.3676   6.4746661115e+01   1.5058981640e+01    0.1266068   0.09786563  -8.59 0.0004583701    1.621    0.383
       329 -10.5452    244.9442    188.2990   4.5868072623e+01  -5.4005201256e-01    0.1952705    0.1602331 -34.50 0.0008910092    1.599    0.375
       330  -9.9698     61.8550    184.4105   8.2473220606e+01   2.8803518327e+01    0.2180793    0.1521484  89.89  0.001291206    1.384    0.278
       331  -9.6147    184.0187    184.7678   5.5945453895e+01   9.4806327371e+00     0.175825   0.09882315  38.42 0.0008786403    1.635    0.388
       332 -12.2629     16.9810    181.8959   9.2323048893e+01   3.4236506390e+01    0.4356065    0.2647485  40.24  0.002745482    1.555    0.357
       333 -10.8668     23.2956    180.3946   9.0842544312e+01   3.3966003276e+01    0.3891172    0.1407544  65.70  0.001688149    2.887    0.654
