#   1 NUMBER                 Running object number                                     
#   2 MAG_AUTO               Kron-like elliptical aperture magnitude                    [mag]
#   3 X_IMAGE                Object position along x                                    [pixel]
#   4 Y_IMAGE                Object position along y                                    [pixel]
#   5 X_WORLD                Barycenter position along world x axis                     [deg]
#   6 Y_WORLD                Barycenter position along world y axis                     [deg]
#   7 A_WORLD                Profile RMS along major axis (world units)                 [deg]
#   8 B_WORLD                Profile RMS along minor axis (world units)                 [deg]
#   9 THETA_WORLD            Position angle (CCW/world-x)                               [deg]
#  10 FWHM_WORLD             FWHM assuming a gaussian core                              [deg]
#  11 ELONGATION             A_IMAGE/B_IMAGE                                           
#  12 ELLIPTICITY            1 - B_IMAGE/A_IMAGE                                       
         1 -14.2273    225.4401      5.4496   3.5209061262e+01   2.8391354239e+01     1.974881     1.195088  48.09    0.0062756    2.056    0.514
         2 -13.9814    182.3575     49.8643   5.1974471475e+01   3.3406135822e+01     1.769917     1.238566  27.65   0.00082349    1.838    0.456
         3 -14.0085    193.9131     40.2550   4.7477866379e+01   3.1854641733e+01     1.245354     1.010524 -48.65  0.003434572    1.206    0.171
         4 -14.5079    202.0907     31.6193   4.4051729440e+01   3.0951447557e+01     1.383529     1.218412  16.54  0.001357623    1.400    0.286
         5 -12.6564     32.6871     15.7755   8.2710649726e+01   6.9269647535e+01    0.3350072    0.3136896  47.60  0.002357246    1.810    0.448
         6 -12.7450     42.4107      7.2096   7.3732547081e+01   6.9155320542e+01    0.6008165    0.2542535 -20.32  0.002749976    2.617    0.618
         7 -12.8639     56.0363      5.0946   6.6824143351e+01   6.7275485320e+01    0.7540832    0.3092187  25.00  0.003029579    3.282    0.695
         8 -11.1316    151.9247     55.2336   5.9379178179e+01   4.0216510230e+01    0.3653455    0.2742915 -82.02 0.0004637971    1.766    0.434
         9 -16.8386     70.5648    146.3544   1.0609430231e+02   3.6476575254e+01     18.30333     9.246602  85.10   0.01833299    4.551    0.780
        10 -11.3443     54.6346    222.3080   1.1881489025e+02   2.1443477987e+01    0.2764799    0.1399103  53.62 0.0007231787    1.690    0.408
        11 -13.4778    109.3082    201.8906   1.0512127504e+02   1.7900071092e+01    0.7210847    0.5292844  14.94  0.003789848    1.833    0.455
        12 -10.6865     56.4861    218.0272   1.1809045273e+02   2.2071909647e+01    0.4008397    0.1771876  73.45    0.0017315    3.075    0.675
        13 -11.4548     42.1392    208.2954   1.2013547260e+02   2.5770574947e+01    0.3141848    0.1679027  65.02  0.001233334    1.748    0.428
        14 -10.4759     35.9606    208.5696   1.2138700117e+02   2.6399839533e+01    0.1940768    0.1237405  65.18 0.0007090787    1.332    0.249
        15  -9.3211     28.7468    204.5934   1.2251937172e+02   2.7994790117e+01    0.3315119    0.1288345  39.49  0.000662636    2.312    0.567
        16  99.0000     25.3099    202.6818   1.2306280184e+02   2.8746029989e+01    0.3915494    0.1973183  24.37  0.002070898    2.729    0.634
        17 -12.2275    207.1042    194.7743   8.2973580124e+01   2.2209310841e+00     0.766659    0.2574839  31.34  0.002516693    3.824    0.739
        18 -11.9888    194.0536    196.9707   8.6000762468e+01   4.1247630728e+00     1.206452    0.7749249 -65.06  0.005110929    3.146    0.682
        19 -11.8745    204.2534    200.0951   8.4546438076e+01   1.8445209181e+00    0.3881629    0.2670238 -29.31   0.00211697    1.467    0.318
        20  -9.4173     48.9627    217.0020   1.1948791251e+02   2.3189839818e+01    0.2895926    0.2537621 -43.96  0.002032157    1.626    0.385
        21  -9.4586     69.7605    197.9578   1.1335167447e+02   2.4568466023e+01    0.3336411    0.1682289 -55.81  0.001321897    2.097    0.523
        22 -11.6486    133.8636    196.6446   9.8860364018e+01   1.4875258695e+01    0.2994384    0.2519877 -68.96   0.00100893    1.335    0.251
        23 -12.2929    127.9568    194.1830   9.9788767371e+01   1.6396279198e+01    0.4772417    0.2929621 -74.41  0.001902081    2.355    0.575
        24 -10.0042     81.7284    194.7001   1.1031786029e+02   2.3621661751e+01    0.2668916     0.178606 -63.06   0.00146323    1.506    0.336
        25 -10.3940     31.8146    195.5675   1.2121418414e+02   2.9598284150e+01    0.2160137    0.1177235  58.61  0.001219536    1.659    0.397
        26 -10.4961    150.5612    195.1963   9.4911549720e+01   1.2220596472e+01    0.2429266    0.1574066  34.16  0.001192373    1.462    0.316
        27 -11.0526     38.9195    199.9204   1.2010263896e+02   2.7900862934e+01    0.3199771    0.1638306  44.03  0.001536664    1.781    0.438
        28 -18.0478      1.5223     93.6799   1.1833204210e+02   5.5650563332e+01     15.46551     0.381447 -71.37   0.01935724   29.457    0.966
        29 -13.6539     62.4799    186.2350   1.1364913674e+02   2.8114493307e+01    0.9027336    0.6717561 -49.49  0.005273067    1.577    0.366
        30 -12.3181     74.2637    188.8342   1.1127793243e+02   2.5964905718e+01    0.4454573    0.2446381  69.94  0.001344454    2.261    0.558
        31 -10.8428     44.8411    197.8347   1.1868946210e+02   2.7685577874e+01    0.2821961     0.262769   4.44 0.0009840942    1.527    0.345
        32 -10.6359    150.5047    187.9451   9.3642249882e+01   1.3660350602e+01    0.2101178    0.1422282 -49.00  0.001031558    1.589    0.371
        33 -13.5429     51.8022    199.0790   1.1733479605e+02   2.6601584270e+01    0.4108465    0.3552006 -38.57  0.001262973    1.601    0.376
        34  -9.5833     41.7742    194.4115   1.1903072212e+02   2.8776103632e+01    0.2229106     0.120083  28.53 0.0009294574    2.222    0.550
        35 -13.4528    113.4051    206.1065   1.0480948439e+02   1.6382415058e+01    0.4892677    0.4367471  89.40  0.002104782    1.161    0.139
        36 -11.5576     98.9090    181.1891   1.0447971959e+02   2.4027887433e+01    0.3792408    0.2956567  -9.36  0.001558286    1.892    0.472
        37 -11.3933    150.8348    179.5911   9.2022862638e+01   1.5289400968e+01    0.4647257    0.3094364 -73.58   0.00200227    2.349    0.574
        38 -12.1835    144.1853    178.8830   9.3416128454e+01   1.6673316321e+01    0.5328079    0.3789314 -66.34  0.001992455    1.741    0.426
        39 -10.2474    188.9552    177.9973   8.3339853131e+01   8.4021727385e+00    0.3439049    0.2833156  60.99  0.001352676    1.551    0.355
        40 -10.7412    187.9844    173.6897   8.2659104149e+01   9.3831070219e+00    0.4500681    0.2878203 -67.80  0.001748289    3.106    0.678
        41  -8.9967     42.9808    179.5355   1.1735021080e+02   3.1963743049e+01      0.15866    0.1157305  44.49 0.0002519822    1.394    0.282
        42 -10.8084     54.9591    166.8069   1.1309134015e+02   3.3540613095e+01    0.5861752    0.2345455 -50.80  0.002296314    2.716    0.632
        43 -11.1798     53.0511    172.5659   1.1425058278e+02   3.2416423950e+01    0.3323777    0.2264055  76.22 0.0006906627    1.454    0.312
        44 -11.1676     47.8613    172.6102   1.1548326413e+02   3.3010798148e+01    0.4343961    0.3155989  23.87  0.001812067    1.727    0.421
        45 -11.3199    139.3725    171.3721   9.3116980848e+01   1.9162984572e+01    0.4342134    0.2870584  48.48   0.00118326    1.521    0.343
        46  -9.8689    229.6997    166.3270   7.2870508927e+01   2.9528099082e+00    0.1275815    0.1105045 -62.28  0.000267805    1.638    0.390
        47 -12.3190     92.8234    152.7290   1.0126269277e+02   3.1632695380e+01    0.6898989     0.504362 -20.43  0.003259743    1.950    0.487
        48 -10.5724    187.5093    152.1832   7.8091544055e+01   1.3588116755e+01    0.2771879    0.2166504  40.54 0.0008972997    1.293    0.227
        49 -11.5002    133.8433    145.4847   8.9117531378e+01   2.5974808907e+01      1.23709    0.3362625 -54.63  0.002998308    5.378    0.814
        50  -9.2983    112.5349    150.5132   9.5668302219e+01   2.8822560931e+01    0.1484827    0.1428975 -88.71 7.854949e-05    1.025    0.025
        51 -10.5428    174.4236    148.6295   8.0137646877e+01   1.6992660652e+01    0.3559548    0.2710995 -76.02  0.001442283    1.934    0.483
        52  -8.1622     57.2282    208.3364   1.1707144787e+02   2.3970986472e+01     1.031529    0.5028577  63.87  0.005070501    2.166    0.538
        53 -11.1508    105.2418    138.6043   9.5142174319e+01   3.2944546305e+01    0.5807266    0.3564677 -30.23  0.002356772    2.226    0.551
        54 -12.3804     92.9610    138.4500   9.8484804917e+01   3.5061606236e+01    0.2765203    0.2534046 -36.46 0.0003851485    1.154    0.133
        55 -11.3033    135.8042    128.5601   8.4659791785e+01   2.9420093163e+01    0.9181705     0.194875 -48.86  0.002188885    5.068    0.803
        56 -11.0510    105.9292    130.8720   9.3256362114e+01   3.4672392987e+01    0.3605186     0.322656 -69.31  0.001089795    1.132    0.117
        57 -10.9140    113.5555    129.4130   9.0811453145e+01   3.3620700750e+01    0.3638852    0.3012381  -6.90 0.0007267755    1.466    0.318
        58 -10.3882    160.8096    127.7808   7.8265273273e+01   2.4250844439e+01    0.3516381    0.2587282 -53.03  0.001595653    1.455    0.313
        59  -9.1038     97.5059    129.4382   9.5302290210e+01   3.6488175861e+01    0.1495155    0.1413467 -79.76 0.0004090449    1.066    0.062
        60 -11.1038    100.8546    125.4400   9.3446821258e+01   3.6871691560e+01     0.313538    0.2564454 -15.67  0.001111823    1.464    0.317
        61 -11.5320    119.8155    122.8663   8.7517283403e+01   3.3951644924e+01    0.6681012    0.4046484 -17.30  0.002293415    3.096    0.677
        62 -10.1568    109.1354    118.7380   8.9480274763e+01   3.6963385454e+01    0.2386602    0.2302862 -62.74 0.0003293461    1.048    0.046
        63 -10.8022    134.8540    112.2307   8.0713411041e+01   3.3271921329e+01    0.5475063    0.1385843 -42.72  0.001450585    3.946    0.747
        64  -9.4420    134.6065    106.7612   7.9290676371e+01   3.4522972979e+01    0.3491666    0.1552848 -44.82  0.001232948    2.206    0.547
        65  -9.5390    134.5454    102.4862   7.8114466824e+01   3.5459453709e+01    0.3222416    0.1960365 -45.66  0.001332739    1.627    0.385
        66  -9.8408    167.9087    112.8080   7.2742213795e+01   2.5781381407e+01    0.3486479    0.2482115 -89.79  0.001380351    2.322    0.569
        67 -12.0574    118.0834    109.4354   8.4539759276e+01   3.7379263899e+01    0.7988008    0.6436667  79.60  0.003282208    1.622    0.383
        68 -10.2770    205.4703    110.1764   6.4293415751e+01   1.7759439158e+01    0.3129654    0.2163799  39.96  0.000935122    1.561    0.360
        69  -9.9799     63.6161     99.0915   9.8664479476e+01   4.8945727933e+01    0.2270045    0.1943764  48.80 0.0005948948    1.345    0.257
        70 -11.9343     65.3194    205.0097   1.1505837869e+02   2.3643034721e+01    0.4506065    0.2200671 -75.11  0.001318211    2.119    0.528
        71 -11.7188     25.9069    213.5411   1.2368393490e+02   2.6441749919e+01    0.3708518    0.1673796  85.89  0.001947967    2.177    0.541
        72 -18.2425     14.0104    241.0200   1.2732325816e+02   2.2354147015e+01     6.149361     4.459803  78.89   0.04856458    1.110    0.099
        73  -8.8608    161.2730     88.6704   6.7539985882e+01   3.2112404130e+01    0.1573658    0.1228476 -68.72 0.0002755459    1.589    0.370
        74 -10.9660     40.1404    223.9893   1.2171217408e+02   2.2816665292e+01    0.2171439    0.1380276  76.10 0.0006614538    1.351    0.260
        75  -9.7195    156.4344     81.7524   6.6605812089e+01   3.4574006672e+01    0.2144064    0.1509411 -23.72 0.0004494878    1.563    0.360
        76  -9.5710    184.5108     77.0163   5.9368056204e+01   2.8589373981e+01    0.2329314    0.1477367 -33.88 0.0005562677    1.554    0.357
        77 -10.0332     63.6019     69.8985   9.0593151424e+01   5.5539216719e+01    0.2162552    0.1814923  -5.45 0.0004504871    1.200    0.166
        78  -9.2245    168.2313    248.2013   9.9445410822e+01   2.8434570297e-01      0.15108    0.1216281  46.97 0.0002118506    1.282    0.220
        79 -10.1122     61.1275    220.0945   1.1735207878e+02   2.1076220643e+01    0.1669739    0.1583471  11.75 0.0008293444    1.486    0.327
        80 -10.8379    158.2305    236.3806   9.9745674069e+01   3.6430898348e+00    0.3198212     0.199533 -42.55  0.001791181    1.902    0.474
        81  -9.3937    168.9799    234.7377   9.7388480412e+01   2.1847021727e+00    0.1724643    0.1384165  29.87 0.0002868943    1.034    0.033
        82 -11.3182     59.3123    230.5743   1.1859342831e+02   1.9253367873e+01     0.200381    0.1563762  76.62 0.0003221023    1.102    0.092
        83 -10.1151    189.6566     14.9066   4.1059107617e+01   3.5907727030e+01    0.2233154     0.172394  61.81 0.0006651922    1.242    0.195
        84 -11.4647     34.4186    228.0259   1.2304565799e+02   2.2666749222e+01    0.1899242    0.1349277  48.34 0.0004617099    1.300    0.231
        85 -10.1405     50.4132    224.7336   1.1982247087e+02   2.1475380739e+01    0.1950926     0.107659  89.37 0.0009124658    1.813    0.448
