#   1 NUMBER                 Running object number                                     
#   2 MAG_AUTO               Kron-like elliptical aperture magnitude                    [mag]
#   3 X_IMAGE                Object position along x                                    [pixel]
#   4 Y_IMAGE                Object position along y                                    [pixel]
#   5 X_WORLD                Barycenter position along world x axis                     [deg]
#   6 Y_WORLD                Barycenter position along world y axis                     [deg]
#   7 A_WORLD                Profile RMS along major axis (world units)                 [deg]
#   8 B_WORLD                Profile RMS along minor axis (world units)                 [deg]
#   9 THETA_WORLD            Position angle (CCW/world-x)                               [deg]
#  10 FWHM_WORLD             FWHM assuming a gaussian core                              [deg]
#  11 ELONGATION             A_IMAGE/B_IMAGE                                           
#  12 ELLIPTICITY            1 - B_IMAGE/A_IMAGE                                       
         1  -7.0183     82.2357     12.0155   3.4692218113e+01   5.9918773895e+01    0.1325257    0.1063264 -24.60 0.0003497868    1.556    0.357
         2  -8.0215     98.0483      6.1233   2.9372644891e+01   5.6925902890e+01    0.1818236    0.1425491  68.08 0.0004113574    1.014    0.014
         3  -7.8942    245.5342    245.4822   5.4208377959e+01  -6.7045293443e+00    0.1082977   0.07519522 -21.49 0.0008093197    1.023    0.022
         4  -8.5925     90.9222    250.6455   8.6968961776e+01   8.3409623468e+00    0.2148507    0.1132335  22.32  0.001008317    1.670    0.401
         5  -7.1768    112.3199    245.2884   8.1060993801e+01   6.9106056612e+00    0.1389473   0.09389664 -11.86  0.000366025    1.598    0.374
         6  -7.8418    222.8404    245.0954   5.7853600661e+01  -4.8070889966e+00    0.1556741    0.1281264 -21.24 0.0005558309    1.281    0.219
         7  -9.0107    115.8393    241.5179   7.9709930052e+01   7.2536747944e+00    0.2312346    0.2028372 -15.74 0.0002977555    1.115    0.103
         8  -6.8557    172.3336    241.7346   6.6915621724e+01   6.5082850605e-01    0.1116407   0.09470121  37.43 0.0002435922    1.583    0.368
         9  -8.5687     41.4411    238.6870   9.8327263904e+01   1.6476490822e+01    0.2298679    0.2048347   3.97  0.001308731    1.189    0.159
        10  -7.6139    146.4900    237.0512   7.1844451003e+01   4.4485700130e+00    0.1842564    0.1249635 -44.91 0.0004774744    1.515    0.340
        11  -7.9153    101.2998    236.6395   8.2680454758e+01   1.0051155293e+01    0.2216854    0.1711614 -72.84 0.0006251274    1.651    0.394
        12  -7.2298    141.8048    227.3561   7.1470407120e+01   6.9242714249e+00    0.1814499    0.1161361  12.07 0.0002176873    1.526    0.345
        13  -7.2388    223.7958    226.6241   5.4905705115e+01  -2.0414583981e+00     0.134108    0.1004382  23.77 0.0004678539    1.576    0.366
        14  -7.3367    139.9932    222.9599   7.1220006323e+01   8.0451351418e+00    0.1659941    0.1383789 -31.58  0.000502368    1.166    0.143
        15  -7.8473     43.0778    214.9109   9.5747802559e+01   2.1997030574e+01     0.205669     0.199089  -6.11 0.0005638659    1.092    0.084
        16  -7.0391     68.4919    212.5116   8.8364120680e+01   1.9686981291e+01    0.1460674     0.134798  32.67 0.0008102134    1.039    0.038
        17  -7.9585     49.1306    212.1432   9.3768799686e+01   2.2033578067e+01    0.2164079    0.1853345 -21.64 0.0005842943    1.277    0.217
        18  -7.7124     24.1708    211.1222   1.0066987988e+02   2.4823770226e+01    0.1942983    0.1818034 -32.25 0.0002638358    1.175    0.149
        19  -7.7250     78.5032    204.0084   8.4426281714e+01   2.0527222595e+01    0.2171021    0.1917681  16.53 0.0004164356    1.075    0.070
        20  -9.7270    129.7736    190.5320   6.8362868152e+01   1.6484088546e+01    0.2799806    0.2266295 -34.77 0.0002712453    1.191    0.160
        21  -8.0621    135.5437    188.2333   6.6515004818e+01   1.6139608699e+01    0.2558316    0.1944087  24.96 0.0006064776    1.304    0.233
        22  -6.7703      7.6628    182.2658   1.0312303660e+02   3.3707636102e+01    0.1472591   0.09325401  52.13 0.0002121389    1.591    0.371
        23  -8.8837     73.0980    177.1237   8.2029596914e+01   2.8136421621e+01    0.2325281    0.2209474 -13.83            0    1.044    0.043
        24  -7.8773    217.1441    167.7827   4.6330950341e+01   8.6008080482e+00    0.1694728    0.1438242 -45.21 0.0003945338    1.160    0.138
        25  -8.0039     38.4642    160.1043   9.0726458341e+01   3.7001491631e+01    0.2339328    0.1997853  -3.17  0.001204601    1.228    0.186
        26  -7.4865    230.1041    157.0879   4.2543818879e+01   8.7902107603e+00    0.1740666    0.1321851 -29.92 0.0004366708    1.208    0.173
        27  -7.7235     83.3027    153.0222   7.4564341441e+01   3.2936692149e+01    0.2082971    0.1976215 -47.15 0.0002937453    1.067    0.063
        28  -7.1288     69.7796    159.6263   8.0148044348e+01   3.3224004485e+01    0.2298576    0.1353407  37.42 0.0008034906    1.671    0.402
        29  -8.8977    143.3529    145.7020   5.6345421872e+01   2.4355845565e+01     0.392192    0.2601961 -30.78  0.001652895    1.694    0.410
        30  -7.0559     55.3226    137.3386   8.1014766352e+01   4.1152205694e+01    0.1678418    0.1122462 -27.08 0.0007050756    1.718    0.418
        31  -8.8011     28.7926    134.5521   9.0397090008e+01   4.4961258868e+01    0.3207526    0.2433855  85.11  0.000214819    1.530    0.346
        32  -7.7736     64.0733    132.4007   7.6890407246e+01   4.1218191130e+01    0.2990341    0.1527297  17.06  0.001077806    2.373    0.579
        33  -7.3026    122.1217    130.1364   5.8250257016e+01   3.1703549566e+01    0.2111005    0.1920571 -18.36   0.00111967    1.162    0.139
        34  -7.6427     61.8681    123.1653   7.5719443642e+01   4.3913498018e+01    0.2108379    0.1723211 -21.76 0.0003322272    1.289    0.224
        35 -10.3294     50.6284    121.0432   7.9490781403e+01   4.6041267523e+01     0.282807    0.2451412   6.36 0.0002439959    1.145    0.127
        36  -7.7910    101.9888    110.9750   5.9346205987e+01   3.9844866946e+01     0.219536    0.2091522  -7.08  0.001191054    1.089    0.082
        37  -6.8439     18.7115    102.7029   8.8986179254e+01   5.4233275064e+01    0.1508931     0.095303 -32.35 0.0003033814    1.553    0.356
        38  -8.4083    196.1982     89.9113   3.4859746091e+01   2.5281268727e+01    0.1819958    0.1612271 -87.12 0.0002616075    1.133    0.117
        39  -7.2585    129.5473     89.9399   4.6724690285e+01   3.8494276273e+01    0.1950966    0.1377089 -44.64  0.000269793    1.451    0.311
        40  -7.9597    209.0200     87.0351   3.2658201378e+01   2.3485181818e+01    0.1722637    0.1433613 -58.11  0.001192564    1.059    0.056
        41  -8.4226    122.9982     86.2189   4.7315278494e+01   4.0563540088e+01    0.2142382    0.1960264 -62.83 0.0003142967    1.112    0.101
        42  -7.2015     91.7947     84.6541   5.5467158238e+01   4.7366803831e+01    0.1984129    0.1284166  51.37 0.0003062811    1.542    0.351
        43  -7.1349    234.6303     81.7128   2.8903767125e+01   2.0107687261e+01   0.09475487   0.08593252  -9.34 0.0007020995    1.708    0.415
        44  -7.3560     95.7032     79.6617   5.2852251327e+01   4.7525173253e+01    0.1439452    0.1133292   5.70 0.0003823174    1.656    0.396
        45  -8.8763     94.4217     73.1638   5.1350056249e+01   4.8980296606e+01    0.3034629    0.2714772 -49.01 0.0006711018    1.213    0.176
        46  -7.4831    163.1240     68.3892   3.5076110168e+01   3.5062089573e+01    0.1695893    0.1121176  78.35 0.0001263134    1.587    0.370
        47  -7.3170     92.7022     56.6504   4.6851390804e+01   5.2107422143e+01    0.1874917    0.1183535  58.26 0.0003756791    1.533    0.348
        48  -8.4967    143.9947     51.4175   3.4104436083e+01   4.1593459002e+01    0.2188018    0.1759758 -52.11 0.0002557462    1.273    0.215
        49  -7.6374     95.6208     32.7545   3.8480489106e+01   5.4760487273e+01    0.1667637    0.1182964 -48.79   0.00094699    1.640    0.390
        50  -8.6304    181.2881     31.3651   2.4659706556e+01   3.6340710918e+01    0.1898939    0.1731524 -72.46  0.001433491    1.269    0.212
        51  -7.4125    132.5285     27.4342   2.9780196374e+01   4.7117894589e+01    0.1244311    0.1023637  81.21 0.0005735558    1.008    0.008
        52  -7.4235    205.2095     18.5932   2.0121845192e+01   3.3214154716e+01    0.1313455   0.08525933  72.07 0.0003785397    1.536    0.349
        53  -7.1030      8.5907    248.4585   1.0708304221e+02   1.7369242171e+01    0.1189965    0.1106507  47.71 9.904929e-05    1.105    0.095
