#   1 NUMBER                 Running object number                                     
#   2 MAG_AUTO               Kron-like elliptical aperture magnitude                    [mag]
#   3 X_IMAGE                Object position along x                                    [pixel]
#   4 Y_IMAGE                Object position along y                                    [pixel]
#   5 X_WORLD                Barycenter position along world x axis                     [deg]
#   6 Y_WORLD                Barycenter position along world y axis                     [deg]
#   7 A_WORLD                Profile RMS along major axis (world units)                 [deg]
#   8 B_WORLD                Profile RMS along minor axis (world units)                 [deg]
#   9 THETA_WORLD            Position angle (CCW/world-x)                               [deg]
#  10 FWHM_WORLD             FWHM assuming a gaussian core                              [deg]
#  11 ELONGATION             A_IMAGE/B_IMAGE                                           
#  12 ELLIPTICITY            1 - B_IMAGE/A_IMAGE                                       
         1 -13.9869     80.0452    192.6397   5.5384290111e+01   2.3659649608e+01      1.55109    0.7028584  45.91  0.006455876    2.201    0.546
         2 -11.2329     75.4029     51.2070   2.3974607507e+01   5.8355984011e+01    0.2868943    0.2375849 -35.17  0.001514676    1.264    0.209
         3  -8.4663      4.0155    230.7666   7.7290640014e+01   2.3228971671e+01    0.1540073   0.08309961  27.72 0.0008719987    1.605    0.377
         4  -8.8604     73.3642    228.6994   6.0892562755e+01   1.6797040943e+01    0.1373367   0.07844898  50.43 0.0007034801    1.727    0.421
         5  -9.7352     50.7171    226.7151   6.6134167633e+01   1.9697283984e+01    0.2875565   0.08938278  42.73  0.001186023    2.546    0.607
         6  -8.8842     39.4994    224.4915   6.8680365676e+01   2.1316742456e+01    0.1291754    0.1018604  47.12 -7.394989e-05    1.059    0.055
         7  -9.7782     84.4092    220.4957   5.7453732075e+01   1.7135507321e+01    0.2636506    0.1753883  29.16  0.001473315    1.294    0.227
         8 -11.1364    121.8055    210.3968   4.7365729859e+01   1.4365455516e+01    0.3163036    0.2126087   4.21  0.001668866    1.679    0.405
         9  -9.7726     48.6233    209.6189   6.5344542687e+01   2.3577241265e+01    0.3495643    0.1253924  51.23  0.001354827    2.851    0.649
        10 -11.8151    110.4948    205.3252   4.9336340471e+01   1.6870849685e+01    0.3744007    0.2170784  37.82   0.00187866    1.582    0.368
        11 -10.5795    144.5567    201.1057   4.0878834174e+01   1.3049419057e+01    0.2429411    0.2006407  74.32  0.001398951    1.836    0.455
        12  -9.2154     79.7181    243.1952   6.0710080691e+01   1.3323069821e+01    0.3202878    0.1047203  38.74  0.001408796    2.389    0.581
        13 -10.2442    190.1951    191.6576   3.0128001087e+01   8.5686254778e+00    0.2183352    0.1654721 -25.44  0.001393548    1.156    0.135
        14 -10.5224    197.0940    175.1049   2.5985687108e+01   1.0344840624e+01    0.2816473    0.1857675 -29.49  0.001648866    1.335    0.251
        15 -12.8555    120.1707    176.7988   4.2639147855e+01   2.1457524859e+01    0.7242846    0.4524251   3.22  0.003107837    2.331    0.571
        16 -12.7212    114.0015    185.5484   4.5599478137e+01   2.0498969437e+01    0.5026378    0.4623839  16.86  0.003004118    1.016    0.015
        17 -11.4087    156.1767    196.9520   3.7720759495e+01   1.2215083875e+01    0.4265686    0.1787681 -34.52  0.001765965    2.770    0.639
        18 -11.8952    154.9489    167.4970   3.2837377980e+01   1.7933321428e+01    0.4228276    0.3327398  62.44  0.002269976    1.746    0.427
        19 -10.7629    186.8705    182.6333   2.9181584746e+01   1.0492802279e+01    0.3069413    0.1457821 -34.25  0.001479386    2.000    0.500
        20 -10.3196    181.4340    168.3055   2.7601763618e+01   1.3726380921e+01    0.2585948    0.1120438 -38.25  0.001140903    2.147    0.534
        21 -10.8858    145.0044    160.0121   3.3621979552e+01   2.1036462810e+01    0.3067311    0.1908876 -35.04  0.001451702    1.660    0.397
        22  -9.5123    196.3947    186.7881   2.8174048944e+01   8.5478907772e+00    0.1759962   0.09814584 -30.32 0.0009476845    1.641    0.391
        23 -10.7027    179.7815    181.2748   3.0281882163e+01   1.1702582672e+01    0.2628321    0.2054407 -33.11  0.001616532    1.192    0.161
        24  -9.8944    218.5907    181.1932   2.3463754803e+01   6.6135991120e+00     0.171727   0.09048835 -28.92 0.0009494203    1.661    0.398
        25  -8.8466    183.3216    190.3335   3.1182280208e+01   9.6862650667e+00    0.1320911   0.08539686  -9.94 0.0007049921    1.703    0.413
        26 -10.3924    155.1043    158.6750   3.1107396299e+01   1.9642679345e+01    0.2520294     0.191486 -52.77  0.001347997    1.407    0.289
        27 -11.5625     92.6907    158.3854   4.6828116104e+01   2.9957116047e+01    0.4785476    0.2482601  56.47  0.001769426    2.650    0.623
        28 -12.0206    113.8189    154.5630   4.0278100125e+01   2.7441346387e+01    0.4895898    0.2919142 -46.12  0.002182659    1.694    0.410
        29  -9.2814    200.5962    154.7807   2.1578046598e+01   1.3211710639e+01    0.1826558    0.1068184 -45.90 0.0009558106    1.666    0.400
        30 -12.3966    124.5734    151.4954   3.6874623137e+01   2.6311240938e+01    0.6387717    0.3534783 -57.40  0.002698215    1.991    0.498
        31 -11.9104    106.2968    151.8570   4.1801242840e+01   2.9329338021e+01    0.4362693    0.3562099 -64.75  0.002240288    1.302    0.232
        32  -9.6372    161.0018    153.1875   2.8751987839e+01   1.9745252466e+01     0.216833    0.1646965  70.73  0.001082758    1.995    0.499
        33 -10.1713    139.3234    149.5199   3.2849422458e+01   2.4188552166e+01    0.2892712    0.2288151 -79.64   0.00144669    1.700    0.412
        34 -10.9528     96.0311    154.6474   4.5209760746e+01   3.0337807251e+01    0.4139814    0.2368719 -20.22  0.001412939    3.389    0.705
        35  -9.8499    185.3007    149.1076   2.3149071129e+01   1.6536596971e+01    0.2226493    0.1520622 -25.24  0.001195385    1.455    0.313
        36 -11.7271     89.7286    139.4273   4.4190505504e+01   3.5116791806e+01     0.404812    0.2920086  47.17  0.001904406    1.405    0.288
        37 -11.7871    153.4917    177.0182   3.4901097798e+01   1.6313463669e+01    0.4596263    0.2806119 -44.09  0.002327463    1.611    0.379
        38  -9.9778    116.7054    129.8255   3.4334361445e+01   3.2651363974e+01    0.2523134    0.1932362 -30.81  0.001203729    1.447    0.309
        39  -9.5472    157.8860    126.4438   2.3668939900e+01   2.5570247629e+01    0.3002102    0.1873992 -53.49  0.001389983    1.681    0.405
        40 -10.7379    137.6249    125.5147   2.7998955131e+01   2.9624868036e+01    0.3454818    0.2343748 -63.94  0.001556862    1.782    0.439
        41 -10.7529     86.1085    120.8967   4.1398997606e+01   4.0391634467e+01    0.3718687     0.203783  46.58  0.001481929    1.900    0.474
        42 -11.2143    104.1043    119.1616   3.5412567994e+01   3.7527594018e+01    0.5421537    0.2527128  29.78  0.001860809    2.776    0.640
        43  -9.9943    103.2667    106.9906   3.2615834416e+01   4.0558594896e+01    0.2079909    0.1333831 -50.67 0.0006923771    1.539    0.350
        44  -9.3329     72.3195    107.6768   4.3019028459e+01   4.6118047662e+01    0.1615493    0.1190633  72.02 0.0005766065    1.673    0.402
        45 -10.0901     97.4084    105.2196   3.3942625454e+01   4.2129237803e+01    0.2267892    0.1477207 -62.43 0.0009572921    1.698    0.411
        46 -10.2703    119.3025     97.7215   2.5583605819e+01   3.9329995658e+01    0.4151285    0.1841594  61.33  0.001208948    4.066    0.754
        47 -11.3170     44.8845     94.5976   5.0725829548e+01   5.3677172488e+01    0.5777777    0.2761587 -38.97  0.002106108    2.576    0.612
        48  -9.5207     70.6673     90.6575   3.9187264738e+01   5.0667559319e+01     0.161102    0.1202829 -18.13 0.0007050887    1.755    0.430
        49  -9.5728    114.3249     81.6689   2.2282081070e+01   4.3771342249e+01    0.1584589    0.1185607 -82.93 0.0004738161    1.705    0.413
        50 -10.5894     95.7441     79.8495   2.7149873548e+01   4.8215524975e+01    0.3040924    0.2040874  73.07  0.001253149    2.084    0.520
        51 -10.1331     76.3348     74.4990   3.2100652127e+01   5.3384987672e+01    0.2819843    0.1403814 -48.99  0.001099855    2.015    0.504
        52  -9.5292    100.6710     66.3444   2.1212870162e+01   4.9884165596e+01    0.1582214    0.1172621 -81.92 0.0007050656    1.750    0.429
        53 -10.1491     87.2056     66.3933   2.5473864243e+01   5.2858058879e+01    0.2220208    0.1401065  57.59 0.0009576655    1.718    0.418
        54 -10.2907     68.5819     65.1864   3.1914378019e+01   5.6937620821e+01    0.3216117    0.1729033  66.96 0.0009605424    4.317    0.768
