#   1 NUMBER                 Running object number                                     
#   2 MAG_AUTO               Kron-like elliptical aperture magnitude                    [mag]
#   3 X_IMAGE                Object position along x                                    [pixel]
#   4 Y_IMAGE                Object position along y                                    [pixel]
#   5 X_WORLD                Barycenter position along world x axis                     [deg]
#   6 Y_WORLD                Barycenter position along world y axis                     [deg]
#   7 A_WORLD                Profile RMS along major axis (world units)                 [deg]
#   8 B_WORLD                Profile RMS along minor axis (world units)                 [deg]
#   9 THETA_WORLD            Position angle (CCW/world-x)                               [deg]
#  10 FWHM_WORLD             FWHM assuming a gaussian core                              [deg]
#  11 ELONGATION             A_IMAGE/B_IMAGE                                           
#  12 ELLIPTICITY            1 - B_IMAGE/A_IMAGE                                       
         1 -14.4475    149.0863     62.1841   8.6406452764e+01   4.0008924716e+01     1.332951     1.052909 -22.46  0.001197448    1.376    0.273
         2 -14.8489    160.1187     47.4390   7.9354129427e+01   3.9507581235e+01      1.39706     1.109494 -27.51  0.003880589    1.335    0.251
         3 -14.9448    172.7055     16.6742   6.7546376894e+01   4.0086485822e+01      1.55505      1.36214 -58.65  0.005404526    1.169    0.145
         4 -14.3343    189.6275     14.5027   6.4723552833e+01   3.5914463013e+01     1.204212    0.6757286 -81.39  0.004696324    2.071    0.517
         5 -13.6556    199.3330      7.4911   6.1712303834e+01   3.4150232410e+01    0.6947201    0.4630539 -75.90  0.003639526    1.482    0.325
         6 -10.9767    151.4966    235.9774   1.2389907775e+02   6.0950189901e+00    0.2671372    0.1761943  41.06  0.001144409    1.221    0.181
         7 -19.8539     87.6572    219.8735   1.3436298606e+02   1.9036426495e+01     8.444152     6.348798  58.69   0.04588046    1.067    0.063
         8 -13.0580    189.4468    177.7089   1.0691720792e+02   8.8529386752e+00    0.7690414    0.4570889 -63.39   0.00308907    3.055    0.673
         9 -13.1193    204.5606    175.0018   1.0339584347e+02   6.3731800468e+00    0.5758687    0.5259618  44.86   0.00218135    1.183    0.154
        10 -12.9859    193.2211    165.5001   1.0369712762e+02   1.0244260776e+01    0.4397026    0.3402188 -37.24 0.0009940115    1.349    0.258
        11 -13.5485    189.9917    161.0119   1.0341238246e+02   1.1707688060e+01     1.112346    0.4817531 -39.81  0.002649126    2.412    0.585
        12 -12.5058    230.4933    167.6876   9.7088823828e+01   2.6311252949e+00    0.4203633    0.2217533 -47.08  0.001869665    2.364    0.577
        13 -10.8094     32.6797    250.5635   1.4652825722e+02   2.0648795066e+01    0.1007604   0.07162192  71.17 0.0002943841    1.080    0.074
        14 -12.4730    196.6916    175.5396   1.0504290356e+02   7.8101061544e+00    0.5047424    0.4030728 -78.36  0.002522114    1.894    0.472
        15 -11.3550    139.4850    247.7960   1.2757672749e+02   6.2476398713e+00    0.3717702    0.1987384 -60.62  0.001612374    2.536    0.606
        16 -10.3258      5.6156    162.2010   1.4632885416e+02   4.0675684503e+01    0.1800302    0.1227476  61.46 0.0006213225    1.323    0.244
        17 -11.3223    139.9924    241.2391   1.2671363547e+02   7.1631018637e+00    0.2156854    0.1880174 -52.37  0.001033389    1.456    0.313
        18 -13.2674    134.8966    238.7480   1.2737019003e+02   8.3745127557e+00    0.3200845    0.2771255  62.26  0.001166466    1.152    0.132
        19 -12.0179    115.0018    249.9122   1.3225770698e+02   9.7277317165e+00     0.166948    0.1517718  67.19 0.0007113358    1.232    0.189
        20 -11.0981     17.8624    153.9639   1.4291921275e+02   4.1478628937e+01    0.2183876    0.1430388 -66.52  0.000446302    1.394    0.283
        21 -11.1758     18.4225    149.2312   1.4235776497e+02   4.2495662070e+01    0.2645951    0.2335294 -84.10  0.001922237    1.184    0.156
        22  99.0000     32.2632    222.0633   1.4499585667e+02   2.5806764454e+01    0.3217942    0.1949721 -48.58  0.001895759    2.825    0.646
        23 -12.6261    161.1577    152.8094   1.0783616083e+02   1.9313998635e+01    0.3514444    0.2715718  37.29 0.0009948675    1.279    0.218
        24 -11.8914    174.0472    148.3898   1.0403228570e+02   1.7447534984e+01    0.4192713    0.3378382 -65.69  0.001477322    1.481    0.325
        25 -19.2175     73.3663     98.8308   1.1878430292e+02   4.8104750054e+01      18.8166    0.8394818 -55.01   0.02585815   18.635    0.946
        26 -11.2711     24.5650    215.7898   1.4600531136e+02   2.7841475767e+01    0.1460349    0.1119955  60.91 0.0002909719    1.187    0.158
        27 -10.3578      3.1995    134.7830   1.4476645382e+02   4.6925073664e+01    0.1516113    0.1124752 -60.98 0.0006855942    1.346    0.257
        28 -13.1291     11.5297    205.8881   1.4781916345e+02   3.1081728572e+01    0.3731164    0.2688165  26.99  0.002181665    1.953    0.488
        29 -12.8125    160.4150    128.0494   1.0235777455e+02   2.4547154612e+01    0.5057151    0.3957527 -57.97  0.001607451    1.387    0.279
        30 -11.9106    139.8810    200.9659   1.2128629499e+02   1.4030146443e+01    0.5851237    0.2991025  45.42  0.002752908    1.701    0.412
        31 -10.9902    167.4057    112.5425   9.6867015141e+01   2.6087123442e+01    0.3451328    0.2504598 -88.72  0.001287745    2.002    0.501
        32 -11.6974    134.6566    198.8366   1.2206134202e+02   1.5362296639e+01    0.4642269    0.3017198  23.00   0.00179412    2.082    0.520
        33 -10.7549    205.3299    110.2322   8.8551048020e+01   1.7593394278e+01    0.3103634    0.2081505  45.88 0.0009856377    1.531    0.347
        34 -12.2841     26.0537    106.3246   1.3512198164e+02   5.1767103085e+01    0.3521293    0.2625258  -3.71  0.001290618    1.828    0.453
        35 -10.8809     29.5982    200.7031   1.4409180402e+02   3.0288899106e+01    0.1569525    0.1329428 -84.87 0.0007621247    1.292    0.226
        36 -12.1138     38.9778     94.8720   1.2901216636e+02   5.3256943480e+01    0.4724272    0.3455257  -1.25  0.002273183    1.812    0.448
        37 -13.0048     47.7672     92.8376   1.2568659509e+02   5.2805248089e+01    0.4710062    0.3485421  13.72  0.002188021    1.679    0.404
        38 -10.6151    124.5014     95.5029   1.0277891802e+02   3.9429794943e+01    0.1520283    0.1504558 -51.93 -4.190299e-05    1.004    0.004
        39 -12.0147      5.9627     89.0104   1.3883855840e+02   5.7124801151e+01    0.4948537    0.2384489 -11.23  0.002409799    3.408    0.707
        40 -10.9156    143.1746     81.6888   9.3886010043e+01   3.7951012808e+01    0.2641066    0.2119821 -50.51 0.0005816896    1.288    0.224
        41 -11.3138    127.6632    245.8846   1.2952906447e+02   8.4037420904e+00    0.2684306    0.1527885  47.70  0.001578105    1.368    0.269
        42 -10.9266     20.6386    195.4944   1.4548321959e+02   3.2278354557e+01    0.1375736    0.1123379 -86.22 0.0006446651    1.244    0.196
        43 -13.3976    164.1845     38.4846   7.5736214860e+01   3.9703837211e+01    0.4808725    0.4561031  78.48  0.000851669    1.017    0.017
        44 -10.9107     24.7387    202.8601   1.4517259285e+02   3.0366866458e+01    0.1502593    0.1156891  88.65 0.0003018561    1.162    0.139
        45 -11.2937     13.5040     59.7983   1.3070517809e+02   6.3104405140e+01    0.1898381    0.1770651 -80.10 0.0003974145    1.253    0.202
        46 -11.4905    162.9858    244.5676   1.2287243659e+02   2.9484887412e+00     0.294699    0.1995634  29.34 0.0009553698    1.398    0.285
        47 -11.1540     14.0517    241.1951   1.4909279095e+02   2.4271038383e+01    0.2280606   0.09265045  83.56  0.001052462    2.207    0.547
        48 -10.3476    157.0134     18.3414   7.0438802208e+01   4.4000875972e+01    0.1982439    0.1682106  67.84 0.0004213389    1.078    0.073
