#   1 NUMBER                 Running object number                                     
#   2 MAG_AUTO               Kron-like elliptical aperture magnitude                    [mag]
#   3 X_IMAGE                Object position along x                                    [pixel]
#   4 Y_IMAGE                Object position along y                                    [pixel]
#   5 X_WORLD                Barycenter position along world x axis                     [deg]
#   6 Y_WORLD                Barycenter position along world y axis                     [deg]
#   7 A_WORLD                Profile RMS along major axis (world units)                 [deg]
#   8 B_WORLD                Profile RMS along minor axis (world units)                 [deg]
#   9 THETA_WORLD            Position angle (CCW/world-x)                               [deg]
#  10 FWHM_WORLD             FWHM assuming a gaussian core                              [deg]
#  11 ELONGATION             A_IMAGE/B_IMAGE                                           
#  12 ELLIPTICITY            1 - B_IMAGE/A_IMAGE                                       
         1  99.0000    205.5928     20.6609   5.5504398595e+01   3.0897103052e+01     2.614629    0.4929036 -36.84  0.007441021    4.177    0.761
         2 -15.0867    215.9919     70.6713   6.8671289747e+01   2.1934974608e+01     7.435797     3.122602 -51.29   0.02313696    3.872    0.742
         3 -14.9954    242.2346     19.5241   5.1206677018e+01   2.1761901123e+01     1.000372    0.6409314 -29.60  0.002420034    1.435    0.303
         4 -14.2392    237.5984      3.7678   4.7389567053e+01   2.4437801885e+01    0.7178577    0.5224264  58.38  0.001397225    1.428    0.300
         5 -17.2198    246.1431     34.9797   5.4936198848e+01   1.9162229753e+01     6.933578     4.220691  48.86   0.03396414    1.759    0.431
         6 -14.9935    248.8009     13.8867   4.9125941510e+01   2.0769459625e+01     1.276448    0.4005171 -44.16  0.004242317    2.996    0.666
         7 -10.2437     78.9936     18.9150   8.1860903956e+01   6.1794787105e+01    0.3544415    0.1641862 -29.79  0.001180146    2.059    0.514
         8  -9.7969    142.3480     13.8287   6.2963148730e+01   4.8350828288e+01    0.3841704    0.2196912 -10.68  0.000957825    1.954    0.488
         9 -11.3511    143.2398      8.2748   6.0617917592e+01   4.8711951459e+01     1.071024    0.4009169 -11.86  0.002406156    3.525    0.716
        10 -12.6119    118.9401     10.2911   6.6499231465e+01   5.4521808659e+01    0.8181046    0.7402647  -6.67  0.002725851    1.074    0.069
        11 -10.5079    125.7103     14.1621   6.6583169546e+01   5.2455760145e+01    0.3535548    0.3141061 -67.72  0.001529873    1.352    0.260
        12 -14.3399    215.5749     22.7319   5.4921362416e+01   2.8077778026e+01     2.473943     1.218434  31.68  0.009174114    2.892    0.654
        13  -9.4576     79.3962     11.3607   7.8178605919e+01   6.2814458524e+01    0.2514674    0.1186075 -25.96 0.0006473226    2.047    0.511
        14 -12.0280    205.3564      5.2865   5.0841840805e+01   3.2506764354e+01    0.3356932    0.2336881   0.86  0.001311531    1.658    0.397
        15  -9.1089    164.9323      6.2526   5.6258255764e+01   4.3210381476e+01    0.2508067    0.1926236  -4.26  0.000395603    1.383    0.277
        16 -10.5737    210.1734      3.3601   4.9764952066e+01   3.1422553080e+01    0.2501617    0.1985575  -7.26  0.001095559    1.358    0.264
        17 -15.4197    230.6459     28.7313   5.4918143756e+01   2.3606811181e+01     2.079247     1.236419  36.01  0.009375194    2.006    0.501
        18  -9.6330    219.6027    169.9782   9.1213507381e+01   7.2792208124e+00    0.3391603     0.173685  56.03  0.001541959    2.544    0.607
        19 -13.1053    195.5639    246.6569   1.0678831119e+02   2.6022180586e+00    0.7128567    0.4468531  33.32  0.005187172    1.228    0.186
        20 -12.5613    213.2890    188.1113   9.5518124816e+01   6.1730176872e+00    0.8123056    0.4557377  47.68  0.002829196    1.664    0.399
        21 -11.5557    191.1442    143.8703   9.1189415021e+01   1.6410329905e+01    0.5137884    0.2695857  55.49  0.001248533    2.134    0.531
        22 -10.0404    100.9689    162.8095   1.1298718522e+02   2.9555108849e+01    0.1927245     0.165414 -80.43 0.0003742328    1.168    0.144
        23 -14.1514     68.3597    144.5157   1.1765781594e+02   3.7765385100e+01     1.593024     1.241468  60.80  0.007728707    1.180    0.152
        24 -12.3216     61.8820    150.7118   1.1984999120e+02   3.7313552117e+01    0.6318784    0.3725153  82.69  0.001699956    1.788    0.441
        25 -13.0772    189.9343    138.6751   9.0325364323e+01   1.7464723956e+01     1.434518    0.8795881  45.95  0.006296994    1.514    0.339
        26  -9.4027    147.2247    157.9390   1.0260319719e+02   2.2630983404e+01      0.19647    0.1683407  77.46 0.0006496383    1.276    0.216
        27 -11.8646     47.8694    159.4758   1.2375214331e+02   3.7190096677e+01    0.3483894    0.2944696 -84.31  0.001026836    1.191    0.161
        28  -9.7789    213.6713    154.8721   8.9319286999e+01   1.0361795961e+01    0.2239678    0.1687045  42.03 0.0003677422    1.232    0.188
        29  -9.1981    136.0464    154.0805   1.0424688152e+02   2.5344180925e+01    0.2077336    0.1515728  74.58 0.0008645976    1.642    0.391
        30  -9.8454    233.4636    152.5551   8.5472703199e+01   6.8985467873e+00    0.2461954    0.2219734  25.69 0.0007345111    1.167    0.143
        31  -8.5173    234.6340    174.2764   8.9503343685e+01   4.0791247982e+00    0.1103429   0.09733901  66.41 0.0007007792    1.674    0.403
        32 -10.7927    133.6297    146.2838   1.0338364573e+02   2.7213079379e+01    0.6161155    0.2036387 -53.54  0.002222254    3.548    0.718
        33 -11.3158    132.4931    136.8627   1.0187259863e+02   2.9199634864e+01    0.5361053    0.2548721 -52.53   0.00204819    2.265    0.559
        34 -10.5809    135.7574    132.0105   1.0018819534e+02   2.9514884739e+01    0.3014955    0.1832073 -47.61  0.001292647    1.727    0.421
        35 -11.6226    135.4305    124.7446   9.8757285889e+01   3.0976387791e+01    0.8921404    0.4169159 -60.57  0.003269901    3.174    0.685
        36 -12.8018     19.3699    177.8066   1.3069649420e+02   3.6561005484e+01    0.6350625    0.4620208  26.58  0.004836651    1.934    0.483
        37 -10.8237    226.4428    143.6402   8.4797393139e+01   9.3873259089e+00    0.4654947    0.2354166  54.11  0.001669979    2.239    0.553
        38 -10.6042    237.7094    144.8817   8.3186875370e+01   7.0562943202e+00    0.6350876    0.4089433  24.99   0.00341108    1.513    0.339
        39  -9.7711    227.9251    172.6757   9.0312936328e+01   5.4504994369e+00    0.2104296    0.1585022   1.19  0.001125799    1.303    0.232
        40 -10.7916    161.4940    138.0599   9.5876111363e+01   2.3363903435e+01    0.4421708    0.2413927 -57.06  0.001877541    2.496    0.599
        41 -13.1523     55.5431    155.0824   1.2170022994e+02   3.7191334762e+01    0.8507375     0.629096  83.73  0.003417692    1.155    0.135
        42 -10.6097     99.5733    147.0810   1.1100155275e+02   3.2818726861e+01    0.2329603    0.2154573 -83.67 0.0006688897    1.113    0.102
        43  -9.0762    249.1851    137.1962   7.9722676301e+01   5.8304860639e+00    0.2272102    0.1703539  55.63 0.0007809034    1.632    0.387
        44  -8.6959    233.1018    137.1797   8.2297639026e+01   8.9298765678e+00    0.1583183    0.1547333  23.99 0.0004007919    1.265    0.209
        45 -12.6369     17.8559    171.9428   1.3063827848e+02   3.7779342331e+01     0.618383    0.3785861  23.73   0.00418075    2.391    0.582
        46 -11.8559    239.3202    244.0289   9.9835606809e+01  -3.4924068103e+00    0.1764893    0.1323026  29.83 0.0002899863    1.160    0.138
        47  -9.6299      3.5985    236.7029   1.3568823898e+02   2.8269511358e+01    0.1326801   0.09165137  42.84  0.001206898    1.603    0.376
        48  -9.8748    151.7245    221.2859   1.1086476959e+02   1.2180270994e+01     0.187176    0.1476987  41.06 0.0002681114    1.098    0.089
        49 -13.4544    192.8676    194.6322   1.0009288937e+02   8.8974550988e+00      2.13858      1.28497 -68.02  0.008540742    5.209    0.808
        50 -13.8326    241.0854     46.3108   5.8530088368e+01   1.9047291818e+01    0.4167231    0.3469382 -31.11  0.001154695    1.118    0.106
        51 -13.0696    219.6443    197.9032   9.6082665455e+01   3.9571399858e+00     1.899135      1.13807  23.74   0.01114683    1.612    0.379
        52 -10.5575     96.9636    130.8831   1.0895063022e+02   3.6511629332e+01    0.2654178    0.1818487 -66.65 0.0006318798    1.457    0.314
        53  -9.5800    160.8046    128.6702   9.4027900683e+01   2.5162656549e+01    0.2652348    0.2440723 -62.90  0.001535351    1.193    0.161
        54  -8.6305    227.5391    120.1570   7.9395782291e+01   1.2340730102e+01    0.2056757    0.1304888 -26.46   0.00101573    1.548    0.354
        55  -9.0519    215.5200    116.9485   8.0694557897e+01   1.5348984102e+01    0.2532382    0.2012921  67.82 0.0007932591    1.578    0.366
        56  -9.6791    129.1019    115.6095   9.8237463260e+01   3.3992511780e+01    0.2557488    0.1908343 -68.95 0.0006305744    1.549    0.354
        57 -11.1821    207.3025    111.4468   8.0829297415e+01   1.7961812747e+01    0.6278425    0.5160674  65.94  0.003344336    1.439    0.305
        58  -9.7983    167.9862    113.6970   8.9067650660e+01   2.6302027689e+01    0.3282109    0.2558201  72.94 0.0009062772    1.582    0.368
        59  -9.9269    134.6979    110.2472   9.5683798520e+01   3.3951612854e+01    0.8210699    0.1270244 -46.50   0.00190213    6.713    0.851
        60 -11.6280    121.1769    104.4487   9.7588103008e+01   3.7759826481e+01    0.8128703    0.4407825 -36.85  0.003456233    2.159    0.537
        61  -9.7721    158.5219    114.7758   9.1352531866e+01   2.8149591563e+01    0.2528924    0.2194629  76.66 0.0006879391    1.310    0.237
        62  -9.0040     97.1559    111.6747   1.0527255359e+02   4.0510091677e+01    0.2359236    0.1687669 -69.44 0.0007170174    1.440    0.305
        63  -8.2044    196.2932    111.3102   8.2827353866e+01   2.0431566024e+01    0.1485345    0.1086961  14.63 0.0003395709    1.588    0.370
        64 -10.1842    110.9309    111.2274   1.0169174992e+02   3.8256782785e+01    0.3121497    0.2209549  -9.25  0.001401402    2.509    0.601
        65 -11.2288    113.7974    105.5668   9.9700620676e+01   3.8911277108e+01    0.5484712    0.2363541 -54.47  0.002147649    2.453    0.592
        66 -10.2124    126.2851    107.6437   9.7087583369e+01   3.6129785257e+01    0.5411126    0.2190908 -48.01  0.002066214    2.483    0.597
        67 -11.2163    189.2610    104.3030   8.2423188390e+01   2.3144281441e+01    0.7768549    0.4907636  46.66  0.003593168    1.533    0.348
        68  -9.8297    223.0793    102.5758   7.5907636753e+01   1.5763214080e+01    0.4422822    0.1871194 -30.75  0.001446861    2.281    0.562
        69 -10.1339    206.0235    102.4901   7.8831863941e+01   1.9608945176e+01     0.278423    0.2328545 -61.69  0.001452263    1.489    0.328
        70 -11.3723    197.9884     98.4716   7.9268560984e+01   2.2073148886e+01    0.7044649    0.4823753 -55.57  0.001394135    1.874    0.466
        71  -8.4013    170.7683    105.3126   8.6410426938e+01   2.7161407980e+01    0.1391466    0.1139614 -66.80 0.0002015258    1.493    0.330
        72  -8.0517    140.6890    105.7235   9.3187012922e+01   3.3611056592e+01     0.141568    0.1142918  10.03 0.0002167547    1.558    0.358
        73  -9.0644    146.0724    102.6580   9.1172345582e+01   3.3065773924e+01    0.2092012    0.1797023  39.24 0.0009512589    1.166    0.143
        74  -9.4073     35.9795    101.3070   1.1985533335e+02   5.0624663260e+01    0.1600728    0.1403536  87.52 0.0006408162    1.107    0.097
        75  -7.8991    167.6536    100.2757   8.5775241320e+01   2.8748117411e+01    0.1471763    0.1187587 -87.97 0.0003783701    1.629    0.386
        76  -9.9128    229.3148     98.1882   7.3797957291e+01   1.4997300869e+01    0.5922291    0.3385254  73.15  0.001337269    2.985    0.665
        77  -9.2962    133.3376     98.4226   9.3109138996e+01   3.6553239918e+01    0.2856901    0.2263743 -88.41 0.0004191364    1.603    0.376
        78  -9.6393    155.4075     97.6085   8.7747744480e+01   3.1976626603e+01    0.4399046    0.2439461  34.50  0.001766292    2.157    0.536
        79  -8.3885    135.6051     95.2821   9.1746884217e+01   3.6697619782e+01    0.1509901    0.1151731  85.45 0.0001496515    1.759    0.431
        80 -10.6913    185.1878     91.7709   7.9934785135e+01   2.6139294665e+01    0.4668466    0.3644539 -61.23  0.002269906    1.579    0.367
        81 -10.1033    139.4303     92.7953   9.0167365371e+01   3.6369563431e+01    0.3169108    0.2659306 -68.68 0.0008742517    1.353    0.261
        82  -9.4534    218.1114     91.0432   7.3798206636e+01   1.8536173103e+01    0.5531899    0.2801104  72.21  0.001863579    3.701    0.730
        83 -10.6359    170.0093     89.4304   8.2373305840e+01   3.0101417564e+01    0.5820496    0.3798677  42.45  0.002643004    1.536    0.349
        84  -9.3806    162.6404     91.4310   8.4495979137e+01   3.1459289794e+01    0.2588654    0.2178297 -48.34 0.0006472486    1.247    0.198
        85 -11.1215    152.9538     88.3269   8.5792320257e+01   3.4228741654e+01    0.3151526    0.2447505 -36.62 0.0004285101    1.292    0.226
        86 -10.3735    176.4350     85.3246   7.9907208477e+01   2.9282397527e+01    0.2589708    0.2473639  22.26 0.0002987614    1.019    0.019
        87  -8.3119    130.6779     85.3275   9.0266643069e+01   3.9669534874e+01    0.1500177    0.1168687 -82.39 0.0003441623    1.689    0.408
        88  -9.1398    207.0527     83.2617   7.3600910591e+01   2.2269424589e+01     0.253518    0.1906128 -52.40 0.0005347812    1.541    0.351
        89 -10.7466    176.7416     77.0275   7.7480732107e+01   3.0582843022e+01      0.67003    0.4029805 -49.02  0.001188245    1.897    0.473
        90 -10.6061    180.5061     75.9852   7.6433618158e+01   2.9833739151e+01    0.5739609    0.3995975 -59.30  0.002034303    1.831    0.454
        91 -11.3324    184.7441     80.4185   7.6881237023e+01   2.8088822216e+01    0.4672106    0.3592394  -1.57  0.001178512    1.495    0.331
        92 -11.0457    189.0789     78.4270   7.5491714413e+01   2.7351062392e+01    0.4052995    0.2604466  35.73  0.001682447    1.687    0.407
        93  -8.7021    128.6131     79.7674   8.9205880876e+01   4.1181724218e+01    0.2087361     0.134578 -51.01 0.0007539583    1.623    0.384
        94  -8.4813    160.0598     77.5045   8.1110564885e+01   3.4513671376e+01    0.2143576     0.149548  53.38 0.0003930116    1.449    0.310
        95 -11.6247      4.4353    188.3389   1.3386238521e+02   3.5979030829e+01    0.4836429    0.1980511  65.28  0.003131456    1.907    0.475
        96  -8.6338     79.5305     75.9583   1.0187786814e+02   5.0935592280e+01    0.2068953    0.1222899 -53.30 0.0007119331    1.538    0.350
        97  -9.6695    122.0592     74.3455   8.9302156498e+01   4.3600142183e+01    0.2563217    0.2034587 -46.74 0.0004428997    1.238    0.192
        98  -8.7991    116.4360     72.7872   9.0331463066e+01   4.5051711517e+01      0.19155    0.1357073 -31.11 0.0002844069    1.482    0.325
        99  -8.9852    144.3270     68.3260   8.1899227945e+01   3.9816768679e+01     0.157718    0.1175696  12.98 0.0007049869    1.698    0.411
       100 -10.6170    128.9021     50.6323   7.9823447728e+01   4.6431092012e+01    0.2786655    0.2488077  12.87  0.000317683    1.150    0.130
       101  -9.6235    204.3587     40.3575   6.1662251244e+01   2.8912590487e+01    0.2522448    0.1998862 -14.65  0.000506387    1.288    0.224
       102 -11.3109    157.7632     39.1918   6.9262887663e+01   4.1190986156e+01    0.4765004    0.2918416 -56.06  0.001949722    2.125    0.529
       103 -10.0047    126.6034     40.2026   7.6646041704e+01   4.8657302177e+01     0.215764    0.1388478 -18.80 0.0007735585    1.702    0.412
       104  -9.9365    162.7325     34.2640   6.6582873596e+01   4.0585801954e+01    0.4946641    0.2562542 -12.56  0.001199341    2.454    0.593
       105  -8.4342     54.3737     36.7627   9.8376420818e+01   6.2484475343e+01    0.1855005    0.1009411 -40.99 0.0006233794    1.592    0.372
       106  -8.8120    171.2202     33.8832   6.4902176341e+01   3.8419862938e+01    0.5166718   0.08128826 -30.54   0.00130704    4.797    0.792
       107  -8.6833     57.7663     35.0324   9.6431163716e+01   6.2369129678e+01    0.1712962   0.09428687 -46.10 0.0003973664    1.575    0.365
       108 -10.5227    144.7552     29.2883   6.8376449002e+01   4.5851372117e+01    0.3995481    0.2091204 -15.72  0.001539806    2.243    0.554
       109  -8.9699     57.4795     30.8835   9.4944289301e+01   6.3184105095e+01    0.1932473    0.1108413 -44.27 0.0005780219    1.511    0.338
       110  -8.7125    112.5438     29.4918   7.6168980327e+01   5.3467998679e+01    0.1437082     0.133258  -4.60 0.0001378788    1.011    0.011
       111  -9.1388    177.7211     25.7884   6.1075623417e+01   3.7705716258e+01    0.2127322     0.184834  30.86  0.000526363    1.168    0.144
       112  -9.0860    201.4782     24.6604   5.7260177368e+01   3.1536977484e+01    0.2775575    0.2186967  42.01 0.0009482037    1.305    0.234
       113  -9.1958    171.0302     23.9264   6.1528252012e+01   3.9701519194e+01    0.3369334     0.195175 -29.17  0.001280587    1.701    0.412
       114 -10.1157    158.8106     24.3661   6.3810302290e+01   4.2867921240e+01    0.5141102    0.2518983  52.56  0.002074451    1.912    0.477
       115  -9.0279     92.0135     20.8209   7.8459920460e+01   5.9048407439e+01    0.2027597    0.1405211 -45.04 0.0007438014    1.602    0.376
       116 -11.3332      2.8506    172.6386   1.3345109594e+02   3.8915540239e+01    0.6083772     0.155915 -76.79  0.003102493    3.106    0.678
       117 -10.1308    144.3541     19.2197   6.4654611766e+01   4.7220937454e+01    0.3668171    0.2465528 -28.34  0.001695577    1.482    0.325
       118 -13.0136    168.1119    156.8554   9.8216409294e+01   1.8893018123e+01    0.9309151    0.6985641 -12.08  0.003551333    1.744    0.427
       119 -12.9400    185.0215    121.9708   8.7555932658e+01   2.1187362983e+01     1.430931     0.862703 -41.37   0.00666169    1.756    0.431
       120 -10.8764    203.8107    161.7065   9.2411969538e+01   1.1311904378e+01    0.3576261    0.3294161 -31.05  0.002317716    1.270    0.213
       121 -12.7414    179.2680    146.7328   9.4064019865e+01   1.8347653532e+01      0.86909    0.6721938 -71.93  0.003868223    1.849    0.459
       122 -12.0092    198.6221    122.2897   8.5015059979e+01   1.8195992589e+01     1.185051    0.7243795 -60.78  0.003774788    2.836    0.647
       123  -9.8942    204.6655    121.6439   8.3744552024e+01   1.6991997852e+01    0.3440829    0.2897373 -55.48 0.0008386222    1.463    0.316
       124  -8.9310     92.3330     11.2970   7.4023820171e+01   6.0295591182e+01    0.1432723   0.09583946  17.71 0.0007029496    1.645    0.392
       125 -13.8066    190.4778    154.2872   9.3419970745e+01   1.4957173307e+01     1.462732     1.113872 -39.27  0.008386301    1.469    0.319
       126 -11.6117    191.2925    181.1375   9.8168525309e+01   1.0955011127e+01    0.4053437    0.3261717 -43.85  0.001452887    1.524    0.344
       127 -10.0124    222.2096    177.9040   9.2226696069e+01   5.8379773428e+00    0.4421649    0.2397272  60.02  0.001966802    3.072    0.674
       128 -13.6766    193.2796    170.4472   9.5942473181e+01   1.2071566044e+01     2.605946     1.568964  62.45   0.01244593    2.379    0.580
