#   1 NUMBER                 Running object number                                     
#   2 MAG_AUTO               Kron-like elliptical aperture magnitude                    [mag]
#   3 X_IMAGE                Object position along x                                    [pixel]
#   4 Y_IMAGE                Object position along y                                    [pixel]
#   5 X_WORLD                Barycenter position along world x axis                     [deg]
#   6 Y_WORLD                Barycenter position along world y axis                     [deg]
#   7 A_WORLD                Profile RMS along major axis (world units)                 [deg]
#   8 B_WORLD                Profile RMS along minor axis (world units)                 [deg]
#   9 THETA_WORLD            Position angle (CCW/world-x)                               [deg]
#  10 FWHM_WORLD             FWHM assuming a gaussian core                              [deg]
#  11 ELONGATION             A_IMAGE/B_IMAGE                                           
#  12 ELLIPTICITY            1 - B_IMAGE/A_IMAGE                                       
         1 -14.4213    167.7184     38.2260   7.6708356871e+01   3.8592563605e+01      1.29777     1.022169   1.59  0.004284011    1.514    0.340
         2 -13.4648    181.4845      9.0005   6.5695370874e+01   3.8388998597e+01    0.9181228    0.5410369  85.10  0.004193659    1.766    0.434
         3 -13.2966    184.2405      2.4406   6.3458498830e+01   3.8302543895e+01    0.9939677    0.4562393  76.05  0.004303733    2.078    0.519
         4 -10.1831     30.6006    205.0390   1.4478223732e+02   2.9212866103e+01    0.1481855    0.1241919  57.86  0.000575793    1.298    0.229
         5 -19.6319     66.4211    177.4847   1.3501640446e+02   3.0590298992e+01     17.02416     5.744504 -67.78   0.06969924    2.935    0.659
         6 -11.2381    169.0700    202.7944   1.1713684603e+02   8.7091362809e+00    0.1959193    0.1636983  56.51 0.0004045566    1.238    0.193
         7 -10.1814    100.1261    200.4677   1.3071166819e+02   2.0943600067e+01    0.1785509    0.1085579  47.69 0.0004097481    1.442    0.307
         8 -11.1626    156.0887    198.1876   1.1896348017e+02   1.1834255234e+01    0.2429743    0.1743997 -86.34 0.0009222122    2.112    0.527
         9 -10.4388    136.7183    197.5521   1.2279932649e+02   1.5405761479e+01    0.3261797    0.1900219  70.26  0.001405262    2.682    0.627
        10 -12.5434    175.1686    194.0098   1.1445070579e+02   9.0600031092e+00     0.452246    0.2817935 -66.15  0.002000204    2.712    0.631
        11 -13.4330    167.7937    191.4351   1.1547329527e+02   1.0865167506e+01    0.5714153    0.4312503  67.85  0.002864765    1.642    0.391
        12 -12.2100    180.2734    192.4396   1.1316777594e+02   8.3777129852e+00    0.3240287    0.2738301  77.19  0.001068341    1.535    0.348
        13 -12.6543    176.6105    188.0685   1.1311041984e+02   9.7968045006e+00    0.4175981     0.320509 -71.35  0.001848504    1.837    0.456
        14 -10.4172    139.9247    249.6912   1.2902886873e+02   6.3055548445e+00     0.187633    0.1618219  77.00   0.00088463    1.309    0.236
        15  -9.6998      7.9684    196.2464   1.4837598415e+02   3.3180986647e+01     0.140719    0.1060434  81.22 0.0005697546    1.078    0.073
        16  -9.8339    118.5196    238.5621   1.3161525853e+02   1.1309320399e+01      0.12085   0.09123808  56.63 0.0001036354    1.088    0.081
        17 -11.7474    154.2876    185.6521   1.1723032622e+02   1.4417783598e+01    0.2427836    0.2064267  67.94  0.001026768    1.261    0.207
        18 -12.2670    113.0455    169.8362   1.2349942920e+02   2.5063254826e+01    0.4760413    0.3304421 -40.13  0.001070872    1.774    0.436
        19 -10.8823    113.1846    177.4058   1.2468897111e+02   2.3454573345e+01    0.3138705    0.1851958  62.69 0.0007167674    1.942    0.485
        20  -9.9290     28.6738    238.1942   1.4715514976e+02   2.3305837630e+01    0.1222514   0.07847519 -78.63 0.0003915876    1.528    0.346
        21 -13.1676    207.0474    179.8184   1.0564091838e+02   5.4195673361e+00    0.7698602    0.4259821  29.99   0.00347613    1.922    0.480
        22 -12.8030    196.2108    171.7418   1.0611498722e+02   8.8107890851e+00    0.7678865    0.4110603 -48.26  0.002761016    2.218    0.549
        23  -9.7271    227.9892    231.9955   1.1111516562e+02  -5.2803671821e+00    0.1379408    0.1112657  10.70 0.0004153151    1.092    0.085
        24 -11.4359    177.6796    170.3240   1.0953648354e+02   1.2707349373e+01    0.2687444    0.1394158 -47.40  0.001156497    2.136    0.532
        25 -11.4158    140.6984    174.3143   1.1812576614e+02   1.9134178729e+01    0.2522749    0.1877529  57.50 0.0006684133    1.339    0.253
        26 -12.7301    137.8089    170.8557   1.1813790687e+02   2.0367587128e+01    0.5125787    0.3360379  46.30  0.002263847    1.426    0.299
        27 -11.7448    125.8171    171.9345   1.2098537837e+02   2.2361644413e+01    0.3137307    0.2450074 -64.87  0.001014408    1.351    0.260
        28 -10.4061     22.6753    166.5894   1.4338134436e+02   3.7945341575e+01    0.1804326     0.155995 -18.25 0.0008621219    1.813    0.449
        29 -12.6927    144.5573    168.3904   1.1620041674e+02   1.9578469313e+01    0.4694191     0.350977  76.42  0.002349844    1.672    0.402
        30  -9.8893    201.6252    165.3198   1.0375295061e+02   8.8296196753e+00     0.138829    0.1136005  87.19  0.000703007    1.809    0.447
        31 -10.8249    223.7768    163.9283   9.9336296735e+01   4.7585965156e+00    0.2269843    0.1821523 -48.51 0.0004861823    1.499    0.333
        32 -11.4071    118.7653    181.9387   1.2417755936e+02   2.1566767605e+01      0.59444    0.2974598  66.23  0.002167431    3.443    0.710
        33 -10.8620    130.0224    161.2976   1.1812768862e+02   2.3796664493e+01      0.20101    0.1738198  53.47 0.0004196709    1.097    0.089
        34 -10.3743    110.0986    223.0213   1.3144641342e+02   1.5215825373e+01    0.1799828    0.1442714  59.32 0.0003905584    1.028    0.027
        35 -10.5308    237.5263    159.4698   9.5989904233e+01   2.8667096786e+00    0.1345287    0.1190795  -1.62 0.0002884328    1.019    0.019
        36 -12.1568    163.7357    156.1210   1.0957914995e+02   1.8186781582e+01    0.3464096    0.2838537 -44.83 0.0009751926    1.276    0.216
        37 -13.6019    135.9832    127.0527   1.0949170174e+02   2.9934587347e+01     1.771782    0.2963552 -49.56  0.003673172    7.424    0.865
        38 -11.1279    151.0758    149.9979   1.1108386827e+02   2.2001463995e+01    0.2210952    0.2100472  67.00 0.0003905304    1.054    0.051
        39 -11.2790    174.5454    149.0122   1.0574089930e+02   1.7311073360e+01    0.2773584    0.2559888  61.33  0.001049925    1.143    0.125
        40 -13.1468    144.8496    145.8899   1.1162640678e+02   2.4118555545e+01    0.5456294    0.4214372  69.44  0.002689617    1.495    0.331
        41 -10.2425     25.8182    222.9577   1.4677287256e+02   2.6330601069e+01    0.1364975    0.1091451 -61.09 0.0008237094    1.742    0.426
        42 -12.2385     23.6651    140.5731   1.4063219718e+02   4.3604857419e+01    0.3004282    0.2125496  60.79  0.001132075    1.406    0.289
        43 -12.7482      7.0566    139.2324   1.4447578178e+02   4.5257348179e+01    0.3832268    0.2619326  46.18  0.001439032    1.587    0.370
        44 -11.1938     20.5436    219.3878   1.4746853610e+02   2.7538617879e+01    0.1581156    0.1045278  54.19 0.0005208257    1.291    0.226
        45 -12.4986      2.6313    126.2900   1.4434327391e+02   4.8438335869e+01    0.3660337    0.1853765 -67.45  0.001975542    1.532    0.347
        46 -11.4392    160.7722    127.8355   1.0387024852e+02   2.4454226762e+01    0.4290769    0.2080539 -44.02  0.001653855    2.079    0.519
        47 -12.6101     19.1913    127.5851   1.4028126338e+02   4.6928659216e+01    0.4032188    0.1969604 -63.33  0.001882317    1.654    0.395
        48 -12.3829    128.5128    143.2434   1.1490479502e+02   2.7938415772e+01    0.4128079    0.2708116  55.62  0.001537932    1.606    0.377
        49 -10.8995    167.8304    112.9965   9.8586166048e+01   2.5819991328e+01    0.4560911    0.3041847 -85.20  0.001704862    2.722    0.633
        50 -13.6761    133.7664    145.3696   1.1410048787e+02   2.6451551155e+01     1.228111      0.37117 -54.46  0.003566005    4.177    0.761
        51 -10.8069     16.6199    217.7333   1.4804678869e+02   2.8242479471e+01    0.2319405    0.1308284  35.20  0.001539893    2.033    0.508
        52 -12.0580      3.8371    112.3992   1.4258496844e+02   5.1463183272e+01    0.2906776    0.2227034   9.81  0.002036204    1.804    0.446
        53 -10.4087    116.0997    211.7316   1.2892745955e+02   1.6280734894e+01    0.3480871    0.1747628  64.33  0.001524981    2.696    0.629
        54 -10.4299    205.6465    110.1260   9.0246668360e+01   1.7603061633e+01    0.2822146    0.2173357  42.86 0.0006736157    1.338    0.253
        55 -10.1565    110.6493    212.4894   1.3009451232e+02   1.7014647868e+01    0.1817713    0.1231089  53.75   0.00106705    1.262    0.208
        56 -11.8564    109.4379    208.2076   1.2980368449e+02   1.7998366741e+01    0.2949292    0.2823081  64.75  0.001090468    1.208    0.172
        57 -11.4683    163.6406    209.8199   1.1931598101e+02   8.5221566059e+00    0.2313253    0.1731061  43.65  0.001370687    1.152    0.132
        58 -10.4287    125.0896    249.9159   1.3165601309e+02   8.5476369435e+00    0.1226626    0.1206192  65.36 0.0003642052    1.326    0.246
        59 -11.1283    158.8437    204.6190   1.1944183497e+02   1.0233943956e+01    0.2926604    0.1905116  64.46  0.001469402    1.962    0.490
        60 -11.9672    163.4822    203.8006   1.1839733536e+02   9.5440273323e+00     0.281678    0.2693855  22.71 0.0005285643    1.115    0.104
        61 -14.0300    155.4572     53.5899   8.3953633167e+01   3.9513815020e+01     1.095672    0.9243314  45.87  0.001013242    1.170    0.146
        62  99.0000     13.7851    244.0957   1.4979586748e+02   2.3858350702e+01    0.4236389   0.07850664 -65.14  0.001839303    5.431    0.816
        63 -12.3357    171.2977     30.8455   7.3790249548e+01   3.8612708064e+01    0.3786102    0.3514203  -6.48 0.0009564603    1.172    0.147
        64 -12.0699    161.3602    198.4176   1.1794414391e+02   1.0839768199e+01    0.3476759    0.2428913  75.27  0.001468328    2.116    0.527
        65 -10.0746     13.2495     59.8226   1.3091749056e+02   6.2471902921e+01    0.1675726    0.1378845 -66.92 0.0005691099    1.185    0.156
        66 -10.4925    138.1178     31.4569   8.0105669094e+01   4.6948616711e+01    0.3328533     0.200887  73.04  0.001114532    1.985    0.496
        67  -9.6501    125.1866    242.9816   1.3089722185e+02   9.5875665708e+00    0.1176765   0.08980803 -65.25 0.0003047687    1.591    0.371
