#   1 NUMBER                 Running object number                                     
#   2 MAG_AUTO               Kron-like elliptical aperture magnitude                    [mag]
#   3 X_IMAGE                Object position along x                                    [pixel]
#   4 Y_IMAGE                Object position along y                                    [pixel]
#   5 X_WORLD                Barycenter position along world x axis                     [deg]
#   6 Y_WORLD                Barycenter position along world y axis                     [deg]
#   7 A_WORLD                Profile RMS along major axis (world units)                 [deg]
#   8 B_WORLD                Profile RMS along minor axis (world units)                 [deg]
#   9 THETA_WORLD            Position angle (CCW/world-x)                               [deg]
#  10 FWHM_WORLD             FWHM assuming a gaussian core                              [deg]
#  11 ELONGATION             A_IMAGE/B_IMAGE                                           
#  12 ELLIPTICITY            1 - B_IMAGE/A_IMAGE                                       
         1 -15.5036    245.4458    106.9291   2.5201865648e+01   1.1574788204e+01     6.256702     1.537537 -34.16   0.02322667    3.333    0.700
         2 -13.4052    175.0394    100.9977   3.5158117566e+01   2.6262550781e+01     1.310641    0.6790599 -31.08  0.005429663    2.043    0.510
         3 -10.5529     73.2793     56.6440   5.0350771433e+01   5.7181698460e+01    0.9589614    0.2781518 -43.02  0.003002704    3.538    0.717
         4  -9.8397    113.5306     42.0936   3.1328910786e+01   5.0890423147e+01    0.4576754    0.2697852  -6.39  0.001716197    2.846    0.649
         5 -10.9810     40.9275     13.8527   4.6680723462e+01   7.0600025233e+01     0.240776    0.1958378   8.94 0.0002520747    1.108    0.097
         6  -9.5998     97.5167     12.4411   2.3453123432e+01   5.8748640166e+01    0.2422545    0.1375581  -4.44  0.001032838    2.390    0.582
         7  -8.8432     67.5242      1.3957   2.7109795032e+01   6.7002487633e+01    0.1353253    0.1140199  37.35 0.0001028243    1.023    0.023
         8  -9.1971     97.3399    242.2923   7.7481806810e+01   1.3731007917e+01    0.1124932   0.08220369   7.54 0.0003130499    1.649    0.394
         9 -10.8805     52.1548    249.8504   8.7290464202e+01   1.7827881539e+01    0.2858835    0.1639862  28.96 0.0009330464    1.512    0.339
        10 -10.4044     56.9561    246.8089   8.6147735577e+01   1.7805164327e+01     0.242777    0.1899363  28.51  0.000878589    1.266    0.210
        11 -10.0385     13.5285    250.4791   9.4820861106e+01   2.1550333680e+01    0.2163085   0.07666719  31.03  0.001208849    2.169    0.539
        12  -9.1467    250.4631    241.4843   4.8642530026e+01  -5.3875047839e+00    0.1051829    0.0714385   5.17   0.00022801    1.020    0.020
        13 -10.5797     90.2949    235.4975   7.8351310610e+01   1.5735320262e+01    0.2043029    0.1734379  33.84  0.001458964    1.115    0.103
        14 -11.1644    231.0518    233.9345   5.0648066006e+01  -2.4665667626e+00    0.2640879     0.192004  -3.02   0.00114959    1.144    0.126
        15 -10.3721    164.2450    233.3550   6.2741280397e+01   6.1258421115e+00    0.3528871    0.1638072  46.34  0.001683513    2.672    0.626
        16  -8.9563    100.3057    233.3105   7.6006300833e+01   1.4810995321e+01    0.1135348   0.08610166   3.38 0.0004242391    1.614    0.380
        17 -10.9408    237.5873    230.2221   4.9021600437e+01  -2.8232776458e+00    0.2416807    0.1551616  15.17  0.001371917    1.182    0.154
        18 -11.0977    162.4779    225.5602   6.2038452383e+01   7.4668741147e+00    0.3719335    0.2539591  14.09  0.001927482    1.337    0.252
        19 -11.2088     88.2278    227.1337   7.8029507941e+01   1.7428625821e+01    0.3033832    0.1732654  34.44  0.001263823    1.378    0.274
        20 -11.9103     98.5018    225.5443   7.5619081702e+01   1.6361893704e+01    0.4107045    0.3328196  54.08  0.001494293    1.235    0.190
        21 -10.2898     99.7862    217.7714   7.4514736647e+01   1.7551980466e+01    0.2620973    0.2343562 -72.14  0.001104943    1.371    0.271
        22 -10.7816     95.5770    217.6487   7.5450104094e+01   1.8143483561e+01    0.3408511    0.2256875  63.83  0.001372805    1.784    0.439
        23  -8.9855    145.0123    227.9696   6.5930926224e+01   9.5609506752e+00    0.1511747    0.1186185  25.19 0.0007456108    1.010    0.010
        24  -9.6372    116.5411    227.0303   7.1849165292e+01   1.3671148363e+01    0.1525358    0.1251179 -56.54 0.0006165395    1.555    0.357
        25  -9.6435    169.0379    224.4653   6.0572551424e+01   6.7048367056e+00    0.2970381    0.1757314  48.97  0.001586164    2.231    0.552
        26 -11.2535    126.3259    221.0308   6.9020356555e+01   1.3291955423e+01    0.3546576    0.2664244  74.87 0.0009071985    1.987    0.497
        27 -10.0430    122.2195    223.3451   7.0192274947e+01   1.3489808224e+01    0.1959194    0.1822628  43.06  0.001146782    1.216    0.178
        28 -10.2080    114.9032    221.0186   7.1515631569e+01   1.4901562743e+01    0.2113601    0.1657668 -14.88  0.001250688    1.593    0.372
        29  -8.7837    157.4800    221.4989   6.2492539160e+01   8.7673774258e+00    0.1257636   0.09855542  22.05 0.0008103524    1.003    0.003
        30  -9.8744     74.6262    219.0656   8.0317683297e+01   2.0600916364e+01    0.2519629    0.1284264  44.35  0.001081946    1.591    0.372
        31  -9.2199    143.5870    216.6987   6.4739119193e+01   1.1510366322e+01    0.2024874    0.1197224 -41.30  0.001114742    2.008    0.502
        32 -10.3694    170.3325    215.2114   5.8972875889e+01   7.8492566250e+00    0.2508921    0.2026211  -1.38   0.00079748    1.188    0.158
        33  -9.4569    151.9263    216.2064   6.2905590706e+01   1.0372675863e+01    0.2157748    0.1266778  11.60  0.001080367    2.045    0.511
        34  -9.8134    108.9960    222.2648   7.2958724441e+01   1.5507179173e+01    0.1835621    0.1363195  33.00 0.0007425181    1.079    0.073
        35  -9.2016    131.0434    214.4834   6.7156048897e+01   1.3699443068e+01    0.1772446    0.1661055  -2.42 0.0006981354    1.209    0.173
        36  -9.3505    111.4961    214.9656   7.1560737701e+01   1.6424674796e+01    0.1649159    0.1282606 -55.17 0.0006838656    1.577    0.366
        37  -9.9406    185.8480    213.2827   5.5615016011e+01   5.9026998051e+00    0.2451864    0.1574993 -44.54  0.001438035    2.015    0.504
        38  -9.6765     23.0407    215.0000   9.1552135538e+01   2.7029862842e+01    0.1833578   0.05501128  27.15 0.0006287828    2.933    0.659
        39 -10.4141     77.2476    211.4413   7.9018171052e+01   2.1700886248e+01     0.288521    0.2421096  28.03  0.001903321    1.173    0.147
        40  -9.9300    115.7168    210.1917   7.0023963466e+01   1.6665028450e+01     0.188163    0.1574758  66.76 0.0008194961    1.424    0.298
        41  -9.9936    212.3170    207.8483   4.9822536895e+01   2.9520290009e+00    0.2010407    0.1447317  30.35  0.001320012    1.356    0.262
        42 -10.4263    185.8887    203.8058   5.4108981960e+01   7.2377060621e+00    0.2999209    0.1622277 -43.23  0.001582953    2.217    0.549
        43 -10.2148    211.8940    201.9808   4.8932726508e+01   3.7700374988e+00    0.3119114    0.1439888 -38.91  0.001607539    2.394    0.582
        44  -9.6463    162.5649    193.8042   5.7243107460e+01   1.2330891541e+01    0.2876332    0.2452556  64.71  0.001681229    1.674    0.402
        45 -10.2546    164.4188    201.2402   5.8047296735e+01   1.0849713233e+01    0.3749905    0.2332927 -52.65  0.001988262    2.209    0.547
        46 -10.9245    166.5611    197.2251   5.6956252261e+01   1.1155409655e+01     0.311327    0.2378338 -45.87  0.001866179    1.617    0.381
        47 -11.2587    248.8192    194.5272   4.1504411512e+01  -1.7288337073e-01    0.4160513    0.2826039 -28.84   0.00285651    1.484    0.326
        48 -11.0211    176.9194    197.5300   5.4871193398e+01   9.5128461173e+00    0.5055039    0.3024152  14.06  0.002602296    1.816    0.449
        49 -10.7839    172.6290    195.7089   5.5447748970e+01   1.0453996816e+01    0.2871597    0.2392973  -2.84  0.001089859    1.142    0.125
        50  -9.5562    144.1170    198.2587   6.1965214307e+01   1.4478258690e+01    0.2247164    0.1728617 -22.56  0.001317565    1.467    0.318
        51 -10.6732    126.0212    196.9623   6.5879790909e+01   1.7509739266e+01    0.3489088    0.2048088  23.35  0.001048125    1.704    0.413
        52  -9.1860    113.0058    194.2502   6.8558827015e+01   1.9999833102e+01    0.2000021    0.1633487  49.17 0.0003977618    1.203    0.169
        53  -9.5267    105.1919    197.5753   7.0868113424e+01   2.0526066346e+01    0.2295075    0.1626837 -34.55 0.0008563393    1.775    0.437
        54  -9.4222     66.8238    194.6796   7.9884107164e+01   2.6345080351e+01    0.2524735     0.140318  66.64  0.001224204    2.140    0.533
        55  -9.5268    112.7868    198.0451   6.9126340270e+01   1.9314459900e+01    0.3172368    0.1885923  63.54  0.001449166    2.511    0.602
        56  -9.2461    104.6337    188.7260   6.9828120636e+01   2.2335390783e+01    0.2491105    0.1861504   4.86 0.0007891022    1.631    0.387
        57 -11.0178     98.2719    188.2367   7.1333441291e+01   2.3377995313e+01     0.532155    0.2576791  49.84  0.001256149    2.152    0.535
        58 -11.4311     94.6586    183.0559   7.1549852211e+01   2.4967006544e+01    0.4846349    0.3837386 -83.87  0.002088686    1.503    0.334
        59  -9.2802    179.4249    190.6987   5.3217098143e+01   1.0175631702e+01    0.2175941    0.1243884 -43.76 0.0009859758    2.038    0.509
        60  -9.8836    172.6741    189.9336   5.4470720700e+01   1.1357699295e+01    0.2820446    0.1554556 -46.51  0.001399845    2.191    0.544
        61 -10.1585    204.3469    187.1751   4.7768878269e+01   6.8766479764e+00    0.4950542    0.2500556 -46.87  0.002350247    2.770    0.639
        62  -9.7988    138.7294    187.3621   6.1483398593e+01   1.7253656780e+01    0.3867805    0.1540238 -45.10  0.001596024    2.829    0.647
        63  -9.6786     20.9501    189.4961   9.0740522726e+01   3.2377162422e+01    0.1753215    0.1062001  28.91  0.001024626    1.569    0.363
        64 -10.5925     11.6024    187.3449   9.2878774448e+01   3.3633985133e+01    0.2109804    0.1843569  29.07  0.000536552    1.278    0.217
        65  -8.9384    165.3181    186.6386   5.5456622304e+01   1.3069645110e+01    0.1257911    0.1046934  66.24 0.0007042408    1.766    0.434
        66 -10.0725    109.5837    184.9978   6.8085546109e+01   2.2323620986e+01    0.3721837    0.2645686  42.91    0.0020304    1.262    0.208
        67  -9.1384    120.0000    183.9701   6.5383930337e+01   2.0895463049e+01    0.2040422   0.07983972 -53.57 0.0007346295    2.941    0.660
        68  -8.8921     74.3429    183.6596   7.6818534134e+01   2.7687308764e+01     0.145535   0.08692517  58.50  0.000680762    1.777    0.437
        69 -10.5943     20.5135    181.4682   9.0393983449e+01   3.4136778916e+01    0.3813474    0.1936554  77.30  0.001783246    1.972    0.493
        70  -8.4796    197.2899    182.3092   4.8227278494e+01   8.6583655711e+00    0.1304528   0.08691783   2.32 0.0005519377    1.580    0.367
        71  -8.7738     44.3045    182.6472   8.4448633039e+01   3.1540329072e+01     0.138924   0.07848151  59.25 0.0003361707    1.708    0.415
        72 -10.0791    147.6769    179.7369   5.8166984608e+01   1.7165263942e+01    0.3029926    0.1804126 -64.26  0.001296868    2.842    0.648
        73 -10.1685    148.6505    174.9957   5.7118798440e+01   1.7861619339e+01    0.2768683    0.1788641  20.83  0.001132745    1.611    0.379
        74 -10.0129    138.2593    178.7079   6.0172613284e+01   1.8924698779e+01    0.3492091    0.2501431 -77.53  0.001700525    2.291    0.564
        75 -10.8861     14.0202    178.4944   9.1852450142e+01   3.5336968319e+01    0.2356486    0.2227599  81.38  0.001057563    1.192    0.161
        76 -10.8408    174.0353    181.6277   5.2743889965e+01   1.2476179732e+01    0.4227176    0.2037309 -41.85  0.001965411    2.265    0.558
        77 -11.3994      3.2599    178.0008   9.4493054992e+01   3.6279179685e+01    0.3363541    0.2769573  25.99  0.002086158    1.338    0.253
        78  -9.5736    205.0881    175.6288   4.5543957015e+01   8.4263407482e+00    0.2103668    0.1729485 -30.70  0.001330147    1.336    0.251
        79 -10.3456     77.3162    175.6411   7.5080955155e+01   2.9014281430e+01    0.2726368    0.1701519  59.07 0.0008958971    1.723    0.420
        80  -9.8670    183.1842    174.2817   4.9530414070e+01   1.2159023172e+01    0.3255015    0.1801389 -31.90  0.001601259    1.892    0.471
        81  -9.9131    105.4961    174.8295   6.7609160719e+01   2.5026209327e+01    0.3217974    0.1749894  70.15  0.001083402    4.189    0.761
        82 -10.0261     24.3754    174.6666   8.8988581507e+01   3.5286919717e+01    0.2002204    0.1101194  56.96 0.0007295922    1.638    0.390
        83  -9.7247     87.8379    172.8615   7.1927189190e+01   2.8126082371e+01     0.196439    0.1498745  56.33 0.0009064056    1.306    0.234
        84 -10.4386    177.3946    169.0331   4.9732983609e+01   1.3988122386e+01    0.4185027    0.2918918 -38.75  0.002279571    1.532    0.347
        85  -9.2789    135.1781    171.2203   5.9620617522e+01   2.0866546549e+01    0.1914248    0.1627575  57.31 0.0009496483    1.340    0.254
        86 -11.2620    206.8985    168.2653   4.3828875390e+01   9.2228188675e+00    0.4176472    0.2073717 -27.21  0.001907003    2.086    0.521
        87 -10.6073    121.5984    168.5043   6.2495064070e+01   2.3706339267e+01    0.5407686    0.3160404 -59.81  0.002352803    2.111    0.526
        88 -12.8568    248.6457    154.7702   3.4368593609e+01   4.7410419204e+00     1.511421    0.3159072 -35.17  0.005450442    4.114    0.757
        89 -11.0737    167.0757    241.9933   6.3315398682e+01   4.5853421484e+00    0.3393185    0.1287806  36.07  0.001612061    2.076    0.518
        90 -11.9470    161.2509    243.7699   6.4669308647e+01   5.1175163211e+00    0.3728748    0.2430574  34.50  0.002436592    1.283    0.220
        91 -10.9401    188.1695    134.6343   4.0497448789e+01   1.7818530252e+01    0.6726339    0.2489978 -42.81  0.002517265    2.826    0.646
        92 -10.7582    187.2012    127.9000   3.9188193655e+01   1.9137495065e+01    0.4704131    0.2516536 -42.85  0.002064975    1.930    0.482
        93  -9.7966    168.0171    157.5200   4.9486922578e+01   1.7609329147e+01    0.2542804    0.2015703 -60.77  0.001348753    1.714    0.417
        94 -10.0558    105.2964    157.2620   6.4819010087e+01   2.8798857426e+01    0.3018465    0.2403038  86.77 0.0008439405    1.571    0.363
        95  -9.5480    157.5204    155.5944   5.1436111237e+01   1.9866214459e+01    0.2427255    0.1372876 -55.22  0.001029797    2.390    0.582
        96 -11.4066    204.8146    153.4772   4.1312853653e+01   1.1794475576e+01    0.4202275    0.2025033 -35.32  0.001680422    2.011    0.503
        97 -10.5154    133.6823    153.2660   5.6671269757e+01   2.4682387900e+01    0.5087945    0.3602879  87.46  0.001866545    2.519    0.603
        98  -9.9790    133.9972    147.3273   5.5411552618e+01   2.5830733496e+01    0.2753044    0.1809379  43.89  0.001277472    1.461    0.315
        99  -9.5562    119.3309    154.4895   6.0583274765e+01   2.6997103135e+01    0.3071199    0.2090684  79.96  0.001297676    2.495    0.599
       100 -10.5056     68.1858    153.6702   7.4709583112e+01   3.5232875690e+01    0.4104731    0.2344358  65.24  0.001505233    2.216    0.549
       101 -10.0531     49.4039    154.6161   8.0303702248e+01   3.7350858720e+01    0.3233355    0.1769193  63.80  0.001469662    2.078    0.519
       102 -10.3645    139.1741    164.8518   5.7516530338e+01   2.1406709483e+01     0.614454    0.3082948 -59.31  0.002416178    2.949    0.661
       103  -8.9193    144.6593    154.3449   5.4192511007e+01   2.2461898537e+01      0.14476    0.1143244  72.73  0.000704752    1.783    0.439
       104 -10.0440     81.3918    153.7436   7.0905803327e+01   3.3349394864e+01    0.3103639    0.2080936  63.80  0.000929684    1.728    0.421
       105  -9.6706    100.0490    153.5416   6.5611740304e+01   3.0482279865e+01    0.2213524    0.1321071  36.35 0.0004915083    1.535    0.348
       106  -9.0745    162.5224    150.0631   4.9184772708e+01   1.9959604417e+01    0.1900797     0.128182 -67.62 0.0008087409    2.570    0.611
       107  -9.4572     90.4941    150.9810   6.7859111561e+01   3.2593821697e+01     0.200337    0.1250865  85.77 0.0007652985    2.547    0.607
       108 -11.1198    199.8345    147.3665   4.0984297825e+01   1.3607466922e+01    0.3424528    0.2084065 -38.22  0.001401474    1.645    0.392
       109 -11.1273    146.3192    162.7951   5.5431553148e+01   2.0538650202e+01    0.5988196    0.4111556 -84.06 0.0005726003    3.070    0.674
       110  -9.7450     39.7266    147.6248   8.2386302856e+01   4.0074019829e+01      0.37041    0.1510432  54.34  0.001458466    2.738    0.635
       111 -11.0466    149.2164    144.8392   5.1163705922e+01   2.3455655551e+01    0.5636126      0.41484 -74.06  0.002116838    2.123    0.529
       112 -10.1909    149.0012    137.4948   4.9639579192e+01   2.4927180307e+01    0.3984141    0.2355557 -21.77  0.001595001    2.425    0.588
       113 -10.8083    107.1332    143.9639   6.1894218590e+01   3.1414193832e+01    0.6838413    0.4518093 -88.69  0.002826035    2.519    0.603
       114 -10.6076     56.6534    145.6825   7.7040052073e+01   3.8619026861e+01    0.6441436     0.266091  55.63  0.002305395    3.178    0.685
       115  -9.2787    175.5868    145.7900   4.5458406506e+01   1.8282416323e+01    0.1906162    0.1320024 -48.63 0.0008543179    1.676    0.403
       116 -10.7562    207.4832    142.7801   3.8637009550e+01   1.2979088335e+01    0.2987554    0.2138615 -49.68  0.001612845    1.744    0.427
       117  -9.9550    165.9880    143.5942   4.7057846189e+01   2.0487094661e+01    0.3307332    0.2317185 -65.11  0.001412875    2.214    0.548
       118 -10.0884    138.3701    144.2345   5.3678981834e+01   2.5637389801e+01    0.2012412    0.1412981 -57.15 0.0009486291    1.702    0.412
       119 -10.7672    124.7962    142.3303   5.6768211853e+01   2.8581129601e+01    0.4939731    0.3201181 -74.22  0.001978065    2.515    0.602
       120  -9.8817     87.7791    143.3015   6.7327922745e+01   3.4788931472e+01    0.3248401    0.2016428 -81.71  0.001115526    2.272    0.560
       121  -9.6567    182.3975    141.3765   4.3111669562e+01   1.7768559138e+01    0.3218453     0.226695 -57.85  0.001458851    1.982    0.495
       122 -11.2404     69.0266    138.9307   7.2254112924e+01   3.8618467515e+01    0.6810333     0.326569 -83.95  0.002282853    3.749    0.733
       123  -9.6359    142.4162    148.2526   5.3509907840e+01   2.4072425218e+01    0.2513103    0.1914636 -53.97  0.001273978    1.513    0.339
       124  -9.7428    172.4951    137.8947   4.4415059366e+01   2.0264365948e+01    0.3363993    0.2308208 -67.99   0.00141684    2.532    0.605
       125 -10.0164     23.4744    138.1730   8.6395014978e+01   4.3885124018e+01    0.4333238    0.1762077  63.56  0.001686508    3.028    0.670
       126 -10.3998    142.3630    158.5752   5.5569201265e+01   2.2057379453e+01    0.4890392    0.2058954  42.70  0.001617275    2.243    0.554
       127  -9.9775    138.5205    137.5469   5.2221192149e+01   2.6962242499e+01    0.2539116    0.1449674 -57.90  0.001027483    2.292    0.564
       128 -10.1021    162.8558    135.7861   4.6054863581e+01   2.2529150599e+01     0.352331    0.1985408 -54.66  0.001448291    2.383    0.580
       129 -11.2250    225.6076    133.0940   3.3563396254e+01   1.1295533311e+01    0.3803149    0.2066859 -13.26  0.001715283    2.426    0.588
       130  -9.8253     38.6772    132.3213   8.0944862980e+01   4.3910985192e+01    0.1969662    0.1105682 -70.33 0.0008302474    1.711    0.415
       131  -9.9359    179.7369    132.7249   4.1760606167e+01   1.9767993020e+01    0.4116012    0.2095741 -46.37  0.001740145    2.193    0.544
       132 -10.9447    131.8158    129.9972   5.2270860397e+01   2.9829209218e+01    0.6732433    0.3356548 -54.84    0.0023821    2.453    0.592
       133  -9.8363    112.6840    132.7684   5.8074623599e+01   3.2901543630e+01    0.3301054    0.2415469  79.91  0.001244582    1.980    0.495
       134 -10.9078    110.9330    128.5290   5.7660244602e+01   3.4168348431e+01    0.4578249    0.3424194   8.38  0.001722516    1.679    0.405
       135 -10.8262    116.8146    124.5217   5.5098406926e+01   3.3936731040e+01    0.5446872    0.3503736  58.15   0.00202249    1.900    0.474
       136 -10.8898    116.4316    119.1852   5.3971091917e+01   3.5180290093e+01    0.5497316    0.3045591 -49.75  0.002279209    1.901    0.474
       137 -11.0672     83.2911    130.9166   6.6423109233e+01   3.8411355076e+01    0.5898429    0.3345117 -76.23  0.002086148    2.488    0.598
       138 -10.3505    142.9537    130.0819   4.9458088144e+01   2.7593815686e+01    0.5886239    0.2232796 -45.98  0.002066778    2.789    0.641
       139  -8.8574     55.3095    169.6213   8.0298563202e+01   3.3185120122e+01    0.1465159   0.08611379  61.51 0.0007026932    1.790    0.441
       140 -11.2340    222.3698    127.1692   3.2826180698e+01   1.2715085296e+01    0.2405085    0.1653667 -35.09  0.000791718    1.356    0.263
       141 -10.4478    168.9598    128.6812   4.3111810782e+01   2.2619129309e+01    0.4349148    0.3097122 -54.67  0.002048362    1.717    0.418
       142 -10.6124    152.9250    128.0666   4.6588666515e+01   2.5977261797e+01    0.6004587    0.2820797 -49.58  0.002148443    2.464    0.594
       143  -9.6554     13.0966    129.3734   8.8892272230e+01   4.6823497216e+01    0.3755973    0.1316472  63.90  0.001331713    3.738    0.733
       144 -11.1113     98.6172    126.8374   6.0911178467e+01   3.6792254909e+01    0.6604642    0.4217006 -79.66  0.002398531    2.415    0.586
       145 -10.6299     98.5864    120.1805   5.9473558545e+01   3.8332073281e+01    0.3976417    0.3094719  -7.57  0.001505034    1.640    0.390
       146 -10.1519     72.9246    128.8249   6.9305644582e+01   4.0499990056e+01    0.2829864    0.1851895  79.39  0.001232046    2.093    0.522
       147 -10.8578     59.4288    123.8237   7.2846000313e+01   4.3602244708e+01    0.6495283    0.3311836  74.81  0.002149343    3.859    0.741
       148 -11.0891     43.9809    122.6548   7.7880297203e+01   4.5749459849e+01    0.6993656     0.349071  72.73  0.002620207    3.083    0.676
       149 -10.5118     29.9139    123.7372   8.2796741668e+01   4.6880414341e+01    0.4510916    0.1960467  65.82  0.001667583    3.252    0.693
       150 -10.0080     26.7684    119.1460   8.3322722357e+01   4.8299694684e+01    0.3082255    0.2091897 -22.80  0.001592026    1.862    0.463
       151 -11.0824    196.3873    107.4532   3.2738241846e+01   2.0674093358e+01    0.3682822    0.1970228 -21.57  0.001530997    2.311    0.567
       152 -11.2812    192.9789    113.4739   3.4772420720e+01   2.0389422671e+01    0.5041286     0.247118 -39.72  0.002180653    1.980    0.495
       153 -12.0406    189.2019    106.7292   3.3860507477e+01   2.2272613220e+01    0.5649995     0.249612 -43.89  0.002245138    2.345    0.574
       154 -10.7414    158.7183    120.2526   4.3411078743e+01   2.6276264154e+01     0.467473    0.3097668 -53.92  0.002013779    1.805    0.446
       155 -10.0409    172.6004    120.0952   4.0338734292e+01   2.3423832486e+01    0.3590801     0.239921 -47.00  0.001490503    1.619    0.382
       156 -11.2672    141.7132    117.2419   4.6741590033e+01   3.0425404277e+01    0.8716362    0.3507987 -47.29  0.003069182    2.689    0.628
       157 -10.3613     70.8314    119.3126   6.8204955915e+01   4.3120986835e+01    0.3513243    0.2051623 -81.93  0.001403717    2.437    0.590
       158 -10.6650    130.6833    117.0544   4.9539628192e+01   3.2759971502e+01     0.565363    0.3333935 -53.22  0.002079034    1.927    0.481
       159  -8.7299     88.6833    168.3464   7.1063035979e+01   2.8984904864e+01    0.1475948   0.09862603  62.54 0.0007048286    1.723    0.420
       160  -9.8746      3.2080    117.2305   9.1179277706e+01   5.0400937837e+01    0.3499497    0.1341214  65.65  0.001401416    3.021    0.669
       161 -11.7806    201.4737    116.0427   3.3848089066e+01   1.8287171622e+01    0.3951911    0.2615467  23.11   0.00193943    1.817    0.449
       162 -11.5343    108.7043    112.2785   5.4564908259e+01   3.8222030128e+01    0.8949875    0.3619248 -51.80  0.003124462    2.664    0.625
       163 -10.5021     92.5347    111.8675   5.9471120728e+01   4.1348014944e+01    0.5848976    0.3475846 -72.08   0.00227521    2.460    0.594
       164  -9.9775     92.4006    104.7868   5.7811223700e+01   4.3015679417e+01    0.3732386    0.2428823 -28.04  0.001571232    2.004    0.501
       165 -10.5817     79.1517    112.5033   6.4008030805e+01   4.3481577658e+01    0.5248517    0.3195862  80.45  0.001917396    3.034    0.670
       166  -9.6268     77.9297    106.1932   6.3008185047e+01   4.5193694925e+01    0.2967039    0.1868503 -30.17   0.00124495    2.071    0.517
       167  -9.8964    219.3669    165.2377   4.1038014680e+01   7.6985787016e+00    0.2948448    0.2670686  -2.26  0.001395283    1.211    0.174
       168 -10.7907    188.3418    156.4491   4.5049864992e+01   1.4169111613e+01    0.5038968    0.3704116 -66.34  0.002486473    2.365    0.577
       169 -11.0591    122.1636    110.7018   5.0286886712e+01   3.5859056100e+01    0.6051292    0.3525672 -35.78  0.002493372    1.937    0.484
       170 -10.5984    159.4059    110.2908   4.0817548636e+01   2.7996851103e+01    0.4731515    0.2566717 -40.14  0.001874612    1.865    0.464
       171 -11.0025     23.7467    102.4921   8.2286793883e+01   5.2719948409e+01    0.7887359    0.3066637  58.84  0.002679125    3.990    0.749
       172 -10.3652     17.5540    104.0872   8.4828320379e+01   5.2780108511e+01    0.4038473    0.2926539  -7.27  0.002258576    1.645    0.392
       173  -9.9456    200.3913    111.1652   3.2910071097e+01   1.9274874441e+01     0.238866    0.1653045 -46.49  0.001222623    1.535    0.348
       174 -10.3203    202.0000    107.9891   3.1891733417e+01   1.9455501466e+01    0.2048716    0.1586532  -2.26 0.0008193278    1.437    0.304
       175 -11.0994     66.0421    109.1693   6.7809269605e+01   4.6303413302e+01    0.5517143    0.2855402 -72.55  0.002138074    2.483    0.597
       176 -10.8330     14.0994    109.9178   8.6748634510e+01   5.1558475339e+01     0.547619    0.3011516  85.61  0.002665319    1.880    0.468
       177  -9.8986     99.0452    165.7547   6.7896077143e+01   2.7964028007e+01    0.3310133     0.176456  59.12   0.00130931    2.619    0.618
       178 -10.6967    139.7439    102.6660   4.3533079187e+01   3.3754053109e+01    0.5773475    0.3115807 -43.52   0.00235501    1.910    0.476
       179 -10.3359    133.4248    108.2203   4.6606236786e+01   3.4008675678e+01    0.4146594    0.2782961 -47.87  0.001542995    1.574    0.365
       180 -11.1796     45.8579    102.2288   7.3823387639e+01   5.0648727598e+01    0.7858242      0.34859  60.42  0.002488949    4.234    0.764
       181 -11.7326    166.5388    101.9109   3.7136988992e+01   2.7967941272e+01    0.6107306     0.301131 -29.31  0.002346465    2.363    0.577
       182 -11.1273    150.2639    100.0021   4.0267218643e+01   3.1935145017e+01    0.7994139    0.2881248 -42.38  0.002698441    2.825    0.646
       183  -9.2504     19.3321    166.6742   8.9790734550e+01   3.7524448148e+01    0.1375924   0.07331137  57.23 0.0007051099    1.710    0.415
       184 -10.9823    128.6763     99.7398   4.5637445694e+01   3.6766764526e+01    0.5672251    0.3393581 -36.56  0.002101343    1.794    0.443
       185 -10.3186    159.9673     99.2410   3.7861534859e+01   2.9907072138e+01    0.4585438    0.2216392 -40.84  0.001813651    2.080    0.519
       186 -11.0405    108.1617     97.6664   5.0969962002e+01   4.1554420411e+01    0.8137571     0.523882  78.19  0.002901787    3.066    0.674
       187  -9.9972    107.5099     92.4906   4.9741746464e+01   4.2808440668e+01    0.4149275    0.2997572   6.95  0.001789613    1.927    0.481
       188  -9.7743     81.9125     99.4271   6.0008235065e+01   4.6131592707e+01    0.4616716    0.2211428 -68.83  0.001473232    3.589    0.721
       189 -10.1537     13.0707    166.0972   9.1418234391e+01   3.8166080787e+01    0.2173862    0.1114505  58.34  0.001138061    1.762    0.432
       190 -11.0842    180.4003    120.6492   3.8868518257e+01   2.1730642706e+01    0.8981649    0.2935348 -37.38  0.003083579    3.055    0.673
       191 -10.1735     94.7851     96.1313   5.4798782682e+01   4.4547664526e+01    0.4614799    0.2225875 -56.75  0.001579537    2.417    0.586
       192  -9.4763     96.1812     90.8235   5.2884593145e+01   4.5464374875e+01    0.2627705    0.1944632  -4.97  0.001158953    1.843    0.457
       193 -10.9930     63.8087     95.8078   6.5674039508e+01   4.9890746934e+01    0.4730128    0.3075665  76.99  0.001877784    2.366    0.577
       194 -10.1844     21.3033     92.5005   8.1814669697e+01   5.5411585211e+01    0.4556856    0.1155512 -46.48  0.001448535    4.123    0.757
       195  -9.9337     43.9276     92.1146   7.2593239514e+01   5.3387659726e+01    0.2768842    0.2195722 -24.84  0.001007617    1.387    0.279
       196  -9.7073    211.3065     92.3102   2.6697782720e+01   1.9974958354e+01    0.1343643    0.1015096   9.84  0.000437091    1.615    0.381
       197 -11.6913    188.8025    148.0946   4.3250531332e+01   1.5459562915e+01    0.7407374    0.5832261 -39.76  0.004191293    1.362    0.266
       198 -10.4207    138.7628     90.0150   4.0324567060e+01   3.6436517701e+01    0.5069892    0.2876259 -40.32  0.002101976    1.806    0.446
       199 -10.2032    165.0398     92.3527   3.4952494948e+01   2.9992985775e+01    0.4093328    0.2189679 -33.15  0.001693754    1.940    0.484
       200  -9.4965    158.0177     90.1806   3.5866117437e+01   3.1981118651e+01    0.2828609    0.1942719 -21.87  0.001276273    1.694    0.410
       201 -10.9638    124.8356     87.6020   4.3288733371e+01   4.0067824124e+01    0.8453352    0.3979343 -32.93    0.0029988    2.598    0.615
       202 -10.4004     34.6981     88.9327   7.5719998317e+01   5.5153310933e+01    0.4687867    0.2373582 -85.50  0.001851064    2.727    0.633
       203  -9.5521      4.8161     91.6044   8.8323407960e+01   5.6639753244e+01    0.1749081    0.1078068  33.63 0.0009446359    1.737    0.424
       204  -9.7162     80.6863    164.7177   7.2721086194e+01   3.0957822842e+01     0.272787    0.1632593  83.19  0.001167212    2.483    0.597
       205  -9.7850    151.1709     87.4641   3.6643006728e+01   3.4050556006e+01    0.2951124    0.2140477 -35.33  0.001400122    1.408    0.290
       206 -10.2591     86.3379     86.2517   5.4942575289e+01   4.8372499712e+01    0.4334847    0.3007973  87.96  0.001480832    2.433    0.589
       207 -10.5894     86.8800     80.4633   5.3059728533e+01   4.9557257037e+01    0.4255241    0.2511447  13.95  0.001510372    2.954    0.661
       208  -9.5171     64.3190     87.3277   6.3397764419e+01   5.1854929582e+01    0.1530397    0.1106182 -21.74 0.0007046874    1.682    0.406
       209  -9.1502    164.3683     85.7738   3.3316436502e+01   3.1287522252e+01    0.2150575    0.1402741 -23.95 0.0009499021    1.744    0.427
       210 -12.2586    182.5159    107.9848   3.5426971631e+01   2.3463678861e+01    0.9999741    0.2427264 -38.09   0.00298628    3.946    0.747
       211 -10.2016     48.5261     84.1741   6.8963230789e+01   5.4793481642e+01    0.3410052    0.2293771  69.93  0.001279282    2.045    0.511
       212  -9.5114    116.7143     83.5415   4.4388462627e+01   4.2695796528e+01    0.2714971    0.1877564 -29.52 0.0005856224    1.632    0.387
       213 -10.8137    104.4427     81.2795   4.7424091658e+01   4.5828218681e+01     0.788334    0.3211302 -48.40  0.002735934    2.644    0.622
       214 -10.2615    140.9733     81.3991   3.7303917957e+01   3.7538775413e+01    0.4577631    0.2275411 -37.17   0.00178301    2.080    0.519
       215 -11.5063    184.1741    113.8539   3.6520601573e+01   2.2122888185e+01    0.5077835    0.4528564  54.87  0.001944322    1.232    0.188
       216  -9.9232    158.7597     81.1386   3.3201289788e+01   3.3393115274e+01    0.3460789     0.204221 -27.29  0.001458918    1.910    0.476
       217 -10.0879     24.5022     80.2217   7.8421377470e+01   5.8221465670e+01    0.3246835    0.2004942  78.00  0.001320877    2.073    0.518
       218 -10.1745    150.1979     78.7981   3.4396258518e+01   3.5824772531e+01    0.3999006    0.2037756 -37.58   0.00160002    1.988    0.497
       219  -9.6749     74.3837     79.8963   5.7483428600e+01   5.1958908580e+01    0.2964124    0.1449897 -60.90  0.001089713    2.570    0.611
       220  -9.2127      8.3357     80.6792   8.5560007713e+01   5.9167409734e+01    0.1337479   0.08806762  59.53 0.0007049944    1.706    0.414
       221 -11.2790    184.7025     75.4360   2.6719933196e+01   2.8276064893e+01    0.5677147    0.2332336 -24.25  0.001915193    3.346    0.701
       222 -10.0819    174.7620     77.1402   2.8932809032e+01   3.0304097932e+01    0.2932862    0.1795052 -30.40  0.001327258    1.675    0.403
       223 -11.3855    213.6438    163.0682   4.1619223335e+01   8.9088768131e+00    0.9185563    0.2130451 -36.69  0.003122146    4.166    0.760
       224  -9.6070    189.4741     75.4988   2.5943692271e+01   2.7181670114e+01    0.2937275    0.1348149 -32.57 0.0009554215    2.127    0.530
       225 -10.4756    128.1044     72.1465   3.7744027775e+01   4.2274924658e+01    0.7321093    0.3014825 -34.73  0.002537448    2.682    0.627
       226  -9.5666    157.5450     74.7722   3.1642980929e+01   3.4763045003e+01    0.2862167    0.1498879 -29.56  0.001135821    2.107    0.525
       227  -9.9567    140.7905     73.1282   3.4883989724e+01   3.9070007304e+01    0.4363794    0.2101236 -30.21  0.001613841    2.413    0.586
       228 -10.2328     10.4130     74.1862   8.3702587034e+01   6.0656005792e+01    0.2810388    0.1966669   9.99  0.001315372    1.590    0.371
       229  -9.6189    177.7897    160.4792   4.7996601635e+01   1.5354347416e+01    0.3780964    0.1944649 -53.26  0.001539193    2.937    0.660
       230 -10.7946     27.4484     71.4620   7.5323710081e+01   6.0123103603e+01    0.7755945    0.2940012 -25.50  0.002019782    6.814    0.853
       231 -10.8606    188.4202    122.7600   3.7783517775e+01   1.9762144595e+01    0.4627524    0.2181116 -42.58  0.001374318    2.168    0.539
       232  -9.7401    119.1442     78.4806   4.2157862892e+01   4.3155465918e+01    0.4877796    0.2073044 -40.93  0.001743858    2.434    0.589
       233  -9.9887     94.8179     70.0101   4.7013459721e+01   5.0183289966e+01    0.5638806    0.2181191 -54.16  0.001686041    3.852    0.740
       234  -9.4699      7.4894     84.4841   8.6412795260e+01   5.8270365210e+01    0.1297412    0.1114409 -60.74  0.000809742    1.056    0.053
       235 -10.3984     51.4906     69.4229   6.3830442236e+01   5.7920046515e+01    0.4778548    0.2643321 -78.09  0.001745833    3.269    0.694
       236  -9.8929     92.6094    159.8211   6.8705804645e+01   3.0271929967e+01    0.2858432    0.2014376  68.76  0.001227063    1.734    0.423
       237  -9.4940    163.1446     69.7273   2.9058801719e+01   3.4246203690e+01    0.2921698    0.1986708   1.52  0.001239531    2.214    0.548
       238  -9.3523     23.6806    160.3254   8.8167572189e+01   3.8605135074e+01    0.1384694   0.07744788  58.34  0.000704606    1.678    0.404
       239  -9.6783    167.4895     75.9948   2.9990488913e+01   3.2195122822e+01    0.2298938    0.1440325 -33.75  0.001037487    1.606    0.377
       240  -9.8181    147.1994     65.3914   3.1063362868e+01   3.8833160300e+01    0.5330962    0.2782744 -20.53  0.001935897    2.761    0.638
       241  -9.9110     49.6343     76.7634   6.6654692276e+01   5.6439285756e+01    0.2985714    0.1576963 -11.61 0.0009634324    4.080    0.755
       242 -10.2248    138.6502     64.5351   3.2731427336e+01   4.1071935681e+01    0.4878522    0.1904157 -30.59  0.001615677    3.033    0.670
       243 -10.1906     82.5388     65.4435   4.9850102065e+01   5.3608323431e+01    0.3526193    0.2071537 -18.21  0.001269342    2.949    0.661
       244  -9.7470    110.0128     63.0375   3.9826561299e+01   4.8188653218e+01     0.304628    0.2021277 -65.12  0.001250397    2.195    0.544
       245 -10.3789     82.2392     72.2025   5.2183667194e+01   5.2238797471e+01    0.3634316    0.2682465 -70.86  0.001153111    1.799    0.444
       246  -9.7998     17.8974     62.2228   7.7928711337e+01   6.3101685140e+01    0.2784068    0.1218513 -44.51  0.001142194    2.096    0.523
       247  -9.3843    170.3128     70.0191   2.7781934737e+01   3.2481932045e+01    0.2322379    0.1236605  -8.89 0.0007044558    4.238    0.764
       248 -10.4525    100.2122     55.3927   4.0172401351e+01   5.1825367582e+01    0.3995723     0.226997  -9.77  0.001253566    3.979    0.749
       249 -10.1802      3.5465    249.0269   9.6646903438e+01   2.2663026152e+01    0.2115724    0.1102573  48.10 0.0009017286    1.317    0.240
       250 -10.0389    203.5848     65.9854   2.1369489388e+01   2.5413001633e+01    0.3154473    0.1244539 -31.90  0.001255584    2.391    0.582
       251 -10.2724      7.3634     56.8909   8.2235840345e+01   6.4998414286e+01    0.2504895    0.1142225 -82.93  0.001081814    2.514    0.602
       252  -9.3132    130.4203     55.3521   3.1709952647e+01   4.4621077308e+01    0.2906764    0.1479792 -17.37 0.0009620306    3.321    0.699
       253  -9.8134    121.6529     63.8271   3.6783999224e+01   4.5312344290e+01    0.5410743    0.1904108 -34.22  0.001719583    3.220    0.689
       254  -9.0932    119.3061     55.6376   3.4647225669e+01   4.7298537068e+01    0.1564267    0.1190735 -74.18 0.0007038722    1.737    0.424
       255  -9.4610     62.8428     54.7898   5.4056493534e+01   5.9419933909e+01    0.1905764    0.1753362  75.72 0.0005049399    1.326    0.246
       256 -11.7885     45.3995     49.2015   6.0194015522e+01   6.3273408532e+01    0.4600145    0.2405304 -44.68 0.0005380643    1.817    0.450
       257  -9.6247     54.3857     54.1828   5.7643582004e+01   6.0907390505e+01    0.2023961    0.1346433 -61.22 0.0009562377    1.773    0.436
       258  -9.1098    128.4747    158.9623   5.9064119964e+01   2.4460315336e+01    0.1910241    0.1310329 -83.08 0.0008097182    2.531    0.605
       259 -10.6583     92.0850     48.1475   4.0149377439e+01   5.4937349419e+01    0.7311373    0.1582292 -42.10  0.001951452    4.866    0.795
       260  -9.3938     30.8410     51.2485   6.8382601573e+01   6.4562575193e+01     0.220177    0.1345119  63.70 0.0009472466    2.786    0.641
       261 -10.2326    196.2832    156.4371   4.3502135456e+01   1.2791703630e+01    0.3908731    0.2740855 -63.44  0.001870581    2.592    0.614
       262 -10.5758    192.4232    129.2915   3.8496236188e+01   1.7894837579e+01    0.3377686    0.2768481 -13.40  0.001380763    1.188    0.159
       263  -9.4072     81.8589     46.3689   4.3104042898e+01   5.7455560495e+01    0.2012386     0.186438 -43.86 0.0005799541    1.176    0.150
       264  -9.3737     23.2533     46.5826   7.1094219955e+01   6.6335689580e+01    0.1788372    0.1197167  -2.09  0.000947967    1.623    0.384
       265  -9.6143    107.5013    247.5587   7.5872953186e+01   1.1616416324e+01    0.2175043    0.1530997  65.23  0.001192977    1.801    0.445
       266 -10.1632     58.1787     42.3241   5.1368426705e+01   6.2717268490e+01    0.2933997    0.1704211 -66.41  0.001088364    3.408    0.707
       267 -10.6658      4.8427     40.4788   8.0173147217e+01   6.8948248553e+01    0.4734943      0.17835 -82.63  0.001690217    4.112    0.757
       268 -10.4551    174.7053    109.8998   3.7445647252e+01   2.4787006615e+01    0.5662852    0.2648449 -44.29  0.002251004    2.232    0.552
       269  -9.3162    123.4134     40.7146   2.8310120999e+01   4.8631361043e+01    0.2019434    0.1462754 -12.85 0.0009465782    1.663    0.399
       270  -9.0477     16.4915     69.9931   8.0168446494e+01   6.1317643815e+01    0.1838077    0.1029695  76.69 0.0008095719    2.460    0.593
       271  -9.3943     84.0178     39.9650   3.9714971940e+01   5.8112826289e+01    0.2435619    0.1720053  15.09  0.001130796    1.746    0.427
       272 -11.8803    196.8679    136.0802   3.9149982181e+01   1.5948074348e+01    0.6066477    0.4182921  36.13  0.003230207    1.440    0.305
       273  -9.3389    106.3071     37.3124   3.1487185682e+01   5.3379041660e+01    0.1527653    0.1096757  24.33 0.0002751692    1.621    0.383
       274  -9.1477    111.5129     34.0083   2.8780597202e+01   5.2575092057e+01    0.2141059    0.1137648 -53.45 0.0008105288    2.602    0.616
       275  -9.9870      6.0656     33.9281   7.7726877575e+01   7.0366118798e+01    0.2196731    0.1146444 -36.81  0.001137313    1.713    0.416
       276  -9.6921     16.5247     40.9631   7.3292262557e+01   6.8140808260e+01     0.296247   0.05259147 -50.94 0.0009953196    3.595    0.722
       277  -9.2541     26.3222     36.4971   6.5963488172e+01   6.8261860029e+01    0.2299177    0.1130949 -56.07  0.001070336    1.952    0.488
       278  -8.9243     60.6465     32.3259   4.5911365084e+01   6.4121237264e+01     0.135407    0.1139948  83.52 0.0007047039    1.766    0.434
       279  -9.0010     49.6672     32.3304   5.1225569589e+01   6.6017507231e+01    0.1302966    0.1116113  77.82 0.0007052062    1.723    0.420
       280  -9.2281     44.2245     25.1654   5.0743147358e+01   6.8178080595e+01    0.2001182    0.1624228  -2.85 0.0005210519    1.175    0.149
       281  -8.7007    118.5143     24.5183   2.3390079373e+01   5.2047542213e+01    0.1462424    0.1329233  53.28 0.0001298009    1.021    0.021
       282  -8.8736    110.4893     24.4702   2.5263757933e+01   5.4096976609e+01    0.1467732    0.1319873  47.18 6.132964e-05    1.033    0.032
       283 -10.0388     12.9011     21.0500   6.8691042264e+01   7.2684123595e+01    0.2365848    0.1887168  11.30 0.0007555942    1.276    0.216
       284  -8.7943     84.7069     21.3224   3.1290496638e+01   6.0765274233e+01    0.1359272    0.1116699 -72.30  0.000346285    1.613    0.380
       285  -8.9764     50.4992     15.4814   4.2419852309e+01   6.8707026543e+01     0.137688    0.1150156  10.76 0.0001481699    1.085    0.078
       286 -10.8647     16.4772    244.9964   9.4085362639e+01   2.2203679286e+01    0.2317232    0.1128294  65.63  0.001239995    1.802    0.445
       287 -10.0915      5.2355    243.1308   9.6182418202e+01   2.3512633816e+01    0.1706298    0.1201446  29.27 0.0007358617    1.415    0.293
