#   1 NUMBER                 Running object number                                     
#   2 MAG_AUTO               Kron-like elliptical aperture magnitude                    [mag]
#   3 X_IMAGE                Object position along x                                    [pixel]
#   4 Y_IMAGE                Object position along y                                    [pixel]
#   5 X_WORLD                Barycenter position along world x axis                     [deg]
#   6 Y_WORLD                Barycenter position along world y axis                     [deg]
#   7 A_WORLD                Profile RMS along major axis (world units)                 [deg]
#   8 B_WORLD                Profile RMS along minor axis (world units)                 [deg]
#   9 THETA_WORLD            Position angle (CCW/world-x)                               [deg]
#  10 FWHM_WORLD             FWHM assuming a gaussian core                              [deg]
#  11 ELONGATION             A_IMAGE/B_IMAGE                                           
#  12 ELLIPTICITY            1 - B_IMAGE/A_IMAGE                                       
         1 -16.4375    237.7066     93.6765   2.5943964553e+01   1.5472667430e+01     3.739429     1.875625 -31.50   0.01976138    1.734    0.423
         2 -11.0308     92.0012     47.8266   4.2488972568e+01   5.5173337876e+01    0.6591043    0.1755792 -40.96  0.001955377    3.966    0.748
         3 -11.0853     40.9589     13.9678   4.9955209590e+01   7.1241322913e+01    0.2000696    0.1740003   9.63 0.0003038496    1.017    0.017
         4 -10.4384     52.3342    250.1022   8.8897494083e+01   1.9415143823e+01    0.1921821    0.1193047  26.20  0.001140058    1.366    0.268
         5 -10.6695    147.4970    239.4816   6.8219663803e+01   9.6014611455e+00    0.1191837   0.08600395  25.17 0.0008103207    1.020    0.019
         6 -10.2588    162.0095    224.8105   6.3467552288e+01   9.6453262223e+00    0.2100217    0.1148782  11.35  0.001093944    2.093    0.522
         7 -10.3760     98.3740    225.2332   7.7104541857e+01   1.8102810558e+01    0.2394848    0.1215788  23.96  0.001115237    1.777    0.437
         8 -10.3236     13.0000    222.0447   9.6039781054e+01   2.7847860256e+01    0.1538885   0.05810855 -83.93 0.0008014468    2.936    0.659
         9 -10.5565    126.1824    220.7767   7.0465358402e+01   1.5124219712e+01    0.1860312    0.1369151  39.02 0.0006954244    1.223    0.182
        10 -10.2044     74.3260    218.6925   8.1973987426e+01   2.2199793641e+01    0.1281524   0.07129567  50.50 0.0005447329    1.652    0.395
        11 -10.4210    143.5833    216.8091   6.6212835588e+01   1.3315643744e+01    0.1398492    0.1238855 -66.05 0.0009538435    1.680    0.405
        12 -10.0786    116.6745    210.3315   7.1328291185e+01   1.8114093962e+01    0.1281731   0.08381397  52.18  0.000705088    1.707    0.414
        13 -11.2287    186.1218    203.9076   5.5693475665e+01   9.1022940433e+00    0.1802887     0.149665  27.93  0.001237202    1.297    0.229
        14 -12.3097    165.3674    202.2232   5.9567466638e+01   1.2330686841e+01    0.3861643    0.2785943 -51.90  0.002324594    2.008    0.502
        15 -12.2012    163.1859    193.9887   5.8746521032e+01   1.3873985539e+01    0.3813303     0.239512  52.51  0.001952108    2.252    0.556
        16 -10.8564    124.6781    197.4592   6.7815831156e+01   1.9134552610e+01    0.2465931     0.162506  43.66  0.001375482    1.422    0.297
        17 -11.1044    177.4824    197.0365   5.6302455094e+01   1.1288566677e+01     0.167997    0.1178872 -31.17 0.0006609361    1.575    0.365
        18 -10.6200     66.5867    193.3205   8.1591545565e+01   2.7871493881e+01    0.2999979    0.1526036  84.63  0.001323803    3.098    0.677
        19 -10.2809    206.3076    191.6317   4.9959353896e+01   7.8408696503e+00    0.1011365   0.09716957  55.61 0.0007035776    1.756    0.431
        20 -10.9691     11.9573    187.0992   9.5067633145e+01   3.4620634061e+01    0.1739289    0.1429033  52.88  0.000472823    1.027    0.026
        21 -10.3077    165.4169    186.2507   5.7026027785e+01   1.4705931779e+01    0.1561853    0.1261347 -49.65 0.0009456103    1.673    0.402
        22 -10.9244    120.4090    184.1296   6.6933959236e+01   2.2131334422e+01     0.272428    0.1378304 -65.01  0.001142702    3.253    0.693
        23 -10.3616    109.3170    185.6471   6.9879184141e+01   2.3536579370e+01    0.1373382   0.09318851  57.39 0.0004595985    1.741    0.425
        24 -11.1144     95.1054    183.2578   7.3151367001e+01   2.6075703083e+01    0.3379303    0.2127223 -73.76  0.001721221    2.160    0.537
        25 -10.4331    174.4877    183.5082   5.4683232356e+01   1.3701748286e+01    0.1301795    0.1058037  17.38 -5.926717e-05    1.017    0.017
        26 -10.7253    147.8117    179.8086   5.9806177287e+01   1.8541376306e+01     0.179674    0.1498353  46.87  0.001072825    1.348    0.258
        27 -10.3534    138.3038    178.9663   6.1856898808e+01   2.0221586661e+01     0.186964    0.1148287 -75.85 0.0007038891    4.202    0.762
        28 -11.5025      1.8471    178.9885   9.7329466855e+01   3.7032606513e+01    0.2208062    0.1453285 -18.70  0.001304403    2.193    0.544
        29 -11.5092     78.0521    175.7125   7.6700084114e+01   2.9971996472e+01    0.3217554    0.1472384  54.70   0.00131043    2.653    0.623
        30 -10.8340    176.8991    170.3317   5.1876248125e+01   1.5302594052e+01    0.2822016    0.1723278 -46.01  0.001463283    2.043    0.511
        31 -11.5270    121.8099    168.2188   6.4103320511e+01   2.4869903532e+01    0.4684753    0.3063471 -67.96  0.002264252    2.243    0.554
        32 -11.5295    139.1344    163.9262   5.9096093535e+01   2.2754864387e+01    0.4449073    0.2783945 -65.35  0.001998694    2.655    0.623
        33 -10.9799     79.6737    163.0056   7.4625336734e+01   3.2431588898e+01     0.452101    0.2329721  84.71  0.001546843    4.343    0.770
        34 -10.4326    146.1679    162.8408   5.7233561087e+01   2.1737761711e+01    0.1982667    0.1745884  48.14 0.0005340466    1.277    0.217
        35 -10.7301    177.6474    159.9144   4.9783374093e+01   1.6784158109e+01    0.2440022    0.1733182 -51.79   0.00130371    1.931    0.482
        36 -11.0146     92.8030    159.1871   7.0377017944e+01   3.1317967970e+01    0.3280116    0.2020029 -75.82  0.001506021    2.263    0.558
        37 -11.4102    188.6058    156.5248   4.6950180233e+01   1.5435955863e+01    0.3153935    0.2160892 -37.47  0.001401089    1.580    0.367
        38 -11.1264    197.0172    157.2913   4.5502393911e+01   1.3915997165e+01    0.1853821    0.1540184  16.79 0.0007120674    1.059    0.056
        39 -10.5902    105.1793    157.1984   6.6637034877e+01   2.9778298716e+01    0.2015232    0.1591026  56.49   0.00108037    1.363    0.266
        40 -10.8412     49.4866    153.9518   8.2351685720e+01   3.8291831548e+01    0.3645436    0.2080628  80.15  0.001705375    2.164    0.538
        41 -11.6984    204.9081    154.1176   4.3453797746e+01   1.3067870814e+01    0.1827191    0.1720688  -6.27 0.0008969178    1.277    0.217
        42 -10.1489    149.6837    169.3273   5.7585783827e+01   2.0009166912e+01    0.1300423    0.1047351  61.70 0.0007045017    1.675    0.403
        43 -10.6182     81.6342    153.8379   7.2759446620e+01   3.4142355445e+01    0.2848176    0.1666804  79.35  0.001146201    2.877    0.652
        44 -11.1796     67.8239    153.0626   7.6731215086e+01   3.6241063271e+01    0.4004449    0.2353114  62.07  0.001839634    2.026    0.506
        45 -10.7272    132.9711    152.3283   5.8472497453e+01   2.5983697361e+01    0.2524059    0.2083863  82.74  0.001333251    1.718    0.418
        46 -12.6402    189.0879    148.4418   4.5263787661e+01   1.6566847424e+01    0.4536134    0.2660449 -42.31  0.002294403    1.919    0.479
        47  -9.8336    162.6592    150.3245   5.1089782412e+01   2.0980496827e+01    0.1323361    0.1107103  71.61 0.0007051079    1.729    0.422
        48 -11.9271    200.2487    148.2037   4.3130133263e+01   1.4680956956e+01    0.2732433    0.2039034 -37.34  0.001611981    1.467    0.319
        49 -10.8785     39.2316    146.8732   8.4758141336e+01   4.1023061169e+01    0.3280246    0.1416593  59.59  0.001310838    2.760    0.638
        50 -11.6517    148.7133    143.5330   5.2896621760e+01   2.4737504719e+01    0.5480767    0.3299094 -61.13  0.002311777    2.698    0.629
        51 -11.3435    106.8398    144.4174   6.3932240545e+01   3.2162847525e+01    0.4412046    0.2900678  79.17  0.001824094    2.691    0.628
        52 -11.2733     55.5301    144.1942   7.9342773108e+01   3.9833265190e+01    0.5082278    0.2687721  85.04  0.002093978    2.723    0.633
        53 -11.1083     87.8942    143.0643   6.9194058597e+01   3.5572949216e+01    0.3320553    0.2136335 -76.32  0.001522119    2.063    0.515
        54 -10.7176    165.5064    142.9987   4.8978545910e+01   2.1695239027e+01    0.2050395    0.1359126 -38.23   0.00084128    1.608    0.378
        55 -11.3574    124.5991    141.5151   5.8522840517e+01   2.9602053324e+01    0.4688267    0.2988504 -71.53   0.00195876    2.653    0.623
        56 -10.8801    182.0183    140.8016   4.5086670046e+01   1.9006270164e+01    0.2378606    0.1752732 -48.27  0.001282652    1.671    0.402
        57 -12.2680    188.7326    136.1100   4.2795125981e+01   1.8505959243e+01    0.4917286    0.2263198 -43.87  0.002117103    2.491    0.599
        58 -10.4947    197.6561    138.3068   4.1592015195e+01   1.6568540418e+01    0.1200617    0.1072926 -85.02 0.0005695805    1.692    0.409
        59 -10.9066    172.1573    137.0998   4.6320560329e+01   2.1432815365e+01    0.2886705    0.1821025 -52.47  0.001356837    2.124    0.529
        60 -11.1131     22.6461    135.8020   8.9033998381e+01   4.5141775444e+01    0.6096998    0.2441335 -89.15  0.002472425    2.871    0.652
        61 -10.7815    162.5620    135.2977   4.7997733343e+01   2.3563553066e+01    0.2612671     0.136339 -44.31  0.001140974    2.125    0.529
        62 -11.2305    179.7655    133.0731   4.3899900044e+01   2.0649051770e+01    0.3390145    0.1739337 -45.97  0.001487133    2.306    0.566
        63 -10.3963      3.4091    249.2515   9.8671123157e+01   2.4033476916e+01    0.1311175   0.07254868  64.86 0.0004446596    1.571    0.364
        64 -11.4638     58.4704    122.2143   7.5190047576e+01   4.4670663258e+01    0.5315267    0.2648806 -87.99  0.001884109    3.433    0.709
        65 -12.0496     42.8808    120.1283   8.0376017686e+01   4.7033039984e+01    0.8796296    0.3560952 -89.32   0.00268975    4.722    0.788
        66 -11.1755     28.8485    121.1904   8.5520377574e+01   4.8141965226e+01    0.5754671    0.1881292 -81.29  0.001965717    3.739    0.733
        67 -10.6234    112.6797    132.6637   5.9986174538e+01   3.3598397180e+01    0.2812547    0.1884248 -79.93  0.001174003    2.498    0.600
        68 -11.2429    158.4454    119.9964   4.5490669126e+01   2.7041429539e+01    0.3938182    0.2487774 -42.14  0.001863975    1.690    0.408
        69 -10.7495    172.4973    119.5508   4.2365502734e+01   2.4263771995e+01     0.289448    0.1368191 -36.75   0.00121272    2.171    0.539
        70 -12.0540    141.4548    116.7869   4.8748473937e+01   3.1125378462e+01    0.7097299    0.2677329 -47.29  0.002463717    3.051    0.672
        71 -11.3686     70.8597    118.4711   7.0242591489e+01   4.3835277211e+01    0.3976212    0.2054028 -73.16  0.001549994    2.608    0.617
        72 -11.2106    130.5813    117.0110   5.1590054499e+01   3.3317646533e+01    0.4767158    0.2639374 -53.53  0.001960525    2.211    0.548
        73 -11.4991      2.5003    114.7124   9.4378052570e+01   5.1512387461e+01    0.6778976     0.193402  88.77  0.002369374    3.879    0.742
        74 -11.7892    185.9457    114.9741   3.8668496204e+01   2.2302079681e+01    0.2843346    0.1864472 -32.04   0.00140718    1.516    0.340
        75 -11.7404    108.9188    111.3680   5.6352628589e+01   3.8821360769e+01    0.8181313    0.3372139 -52.64  0.002905153    2.804    0.643
        76 -11.7735    192.9041    113.6464   3.7090817027e+01   2.1130261522e+01    0.2707623    0.1928098 -37.30  0.001462221    1.415    0.293
        77 -11.6904     78.4675    110.8004   6.6071640603e+01   4.4450924048e+01    0.6548308    0.3414893 -76.13  0.002264248    3.395    0.705
        78 -11.8397     92.2392    109.4816   6.1140582036e+01   4.2382408471e+01    0.8560922    0.2894736 -55.61  0.002746646    3.440    0.709
        79 -11.4231    121.9915    110.5993   5.2379518873e+01   3.6357024630e+01    0.4698904    0.2235783 -45.58  0.001833717    2.262    0.558
        80 -11.2423    174.5104    109.9732   3.9712745182e+01   2.5420233723e+01    0.3636292    0.1365765 -36.66  0.001355223    2.699    0.629
        81 -11.6446    159.3375    110.1439   4.2946196218e+01   2.8575965380e+01     0.375583    0.1792786 -35.77  0.001518763    2.215    0.549
        82 -11.4506     14.3407    108.2717   8.9533057263e+01   5.2409377888e+01    0.4967546    0.2492755 -70.49    0.0024043    1.846    0.458
        83 -11.5367     66.0150    108.6368   7.0034864141e+01   4.6888209157e+01    0.5052724    0.2498767 -71.05   0.00194154    2.623    0.619
        84 -12.4740    189.4083    106.3722   3.6034732717e+01   2.2925163593e+01    0.4438295    0.1857806 -41.51  0.001796097    2.473    0.596
        85 -11.5811    182.9658    107.9649   3.7594492430e+01   2.3994671066e+01    0.2919192    0.1881963 -33.16  0.001454133    1.546    0.353
        86 -11.3857    131.8087    129.3947   5.4089957646e+01   3.0637496986e+01     0.593174    0.2786126 -54.20  0.002235661    2.791    0.642
        87 -12.9523     21.5992     98.2587   8.5586959596e+01   5.4381165685e+01     1.037158    0.4369079  89.31  0.003959169    3.053    0.672
        88 -11.9160    139.7573    102.4629   4.5621462236e+01   3.4174287340e+01    0.5554271    0.2716414 -41.56  0.002216649    2.163    0.538
        89 -12.2503     44.5041    100.5721   7.6684878898e+01   5.1654141608e+01    0.7759063    0.3912187  76.09  0.002698245    3.630    0.725
        90 -12.1538    150.0768    100.2217   4.2556241847e+01   3.2320354598e+01    0.7100168    0.2176575 -41.27  0.002278963    3.394    0.705
        91 -11.2829    166.6679    102.0958   3.9388782732e+01   2.8374572009e+01    0.3784285    0.1761267 -29.10  0.001457256    2.517    0.603
        92 -11.9572    128.5029    100.2400   4.7960427695e+01   3.7043318679e+01    0.5331064    0.2925085 -39.58  0.002217543    1.958    0.489
        93 -11.4234    175.8684    100.6829   3.7191768512e+01   2.6628410010e+01    0.2543968    0.1926166 -19.84  0.001325157    1.396    0.283
        94 -11.2563    159.6350     98.9922   4.0095687011e+01   3.0429245936e+01    0.3340134    0.1384537 -37.25  0.001252125    2.492    0.599
        95 -11.8507     81.7919     97.7091   6.1891276150e+01   4.6912688083e+01    0.6327261    0.2121892 -55.03   0.00205922    3.258    0.693
        96 -12.5148    108.1851     95.5369   5.2557181945e+01   4.2309672052e+01    0.8003917    0.4133595 -50.20  0.003186022    2.142    0.533
        97 -11.4927     95.0370     94.2008   5.6416930918e+01   4.5241488507e+01    0.6512866    0.2760883 -42.02  0.002324333    2.660    0.624
        98 -12.5771     63.3109     92.4803   6.7549937563e+01   5.1143810222e+01    0.9512144    0.3139687 -58.56  0.003201628    3.143    0.682
        99 -11.2740    183.6341     95.1941   3.4383555625e+01   2.5825723407e+01    0.2006857    0.1286036 -21.64 0.0009528142    1.717    0.418
       100 -11.9263     83.0508    128.8728   6.8163519081e+01   3.9535803337e+01    0.8606572    0.2651345 -60.01  0.002742142    3.787    0.736
       101 -12.0754    176.8934     91.8819   3.4795609072e+01   2.7791999065e+01       0.3022    0.1851202 -29.11  0.001417707    1.690    0.408
       102 -11.6659    138.8504     90.1120   4.2552055894e+01   3.6651906613e+01    0.5289527    0.2508769 -39.89  0.002062266    2.216    0.549
       103 -10.8213    157.7089     90.4573   3.8283538287e+01   3.2302559669e+01    0.2670716    0.1319561 -35.85  0.001079021    2.096    0.523
       104 -12.2044    124.9676     87.5109   4.5442709904e+01   4.0278760327e+01    0.7514358    0.3794678 -33.75  0.002889099    2.316    0.568
       105 -12.0886      5.0217     88.4591   9.1437480226e+01   5.7796295962e+01    0.6068416    0.1571504 -62.44  0.002300376    3.031    0.670
       106 -11.4615     34.6307     86.3402   7.8219753325e+01   5.6214769575e+01    0.7804738    0.2458053 -62.78  0.002857488    2.836    0.647
       107 -12.0727     86.2150     84.0682   5.6687673898e+01   4.9158086671e+01    0.7278842    0.2941167 -52.16  0.002573848    2.720    0.632
       108 -10.3411    164.0000     85.9788   3.5773241479e+01   3.1609652442e+01    0.2369774   0.08235704 -35.21 0.0008028904    2.946    0.661
       109 -10.9680    164.6699     92.4971   3.7355266425e+01   3.0398181534e+01    0.2590133    0.1338091 -35.33  0.001086814    1.983    0.496
       110 -12.6377     47.9680     81.2530   7.1288096495e+01   5.5955999569e+01    0.7248731    0.3048097 -58.95  0.002877134    2.314    0.568
       111 -11.1453    158.5527     81.7236   3.5739867273e+01   3.3552660275e+01    0.2826707    0.1467555 -30.02  0.001150309    2.117    0.528
       112 -10.9241    142.9724    129.8238   5.1362922504e+01   2.8366821868e+01    0.4425242    0.1995055 -43.34  0.001757315    2.396    0.583
       113 -11.3109     23.9182     79.0532   8.1757548550e+01   5.8965953196e+01    0.4561155    0.1990357 -83.58  0.001758637    2.909    0.656
       114 -11.7981     25.2811     73.2932   8.0070130751e+01   6.0273094129e+01    0.6559952    0.2606862 -26.78  0.002073141    4.534    0.779
       115 -11.5075    150.2571     78.8888   3.6728122027e+01   3.5960993921e+01    0.3613051    0.2034059 -37.89  0.001553541    1.835    0.455
       116 -10.9000    119.1780     78.4895   4.4415869784e+01   4.3305491007e+01    0.2944994    0.2217569 -38.77    0.0014144    1.413    0.292
       117 -10.9197    174.6180     76.7898   3.1283695076e+01   3.0607104783e+01    0.2059807    0.1260064 -42.56 0.0009535256    1.673    0.402
       118 -11.9021    192.6691    129.1942   4.0580548577e+01   1.8831053354e+01    0.2916101    0.2234011 -14.47  0.001658309    1.294    0.227
       119 -10.5332    167.3154     76.3432   3.2514858774e+01   3.2363063518e+01    0.1503945    0.1099107  18.64 0.0004176584    1.712    0.416
       120 -11.5059    168.6059    128.2578   4.5148463017e+01   2.3587086063e+01    0.3509988    0.2151685 -44.94  0.001669241    1.823    0.452
       121 -11.6680    128.1384     72.6563   4.0195740591e+01   4.2282333688e+01    0.6135138    0.2653356 -33.74  0.002201225    2.630    0.620
       122 -12.0258    104.3942     80.4562   4.9459716429e+01   4.6211579699e+01    0.6984067    0.3021461 -43.85  0.002558703    2.460    0.593
       123 -10.9050      9.9992     74.3440   8.7619886306e+01   6.1033715667e+01    0.1725103    0.1610044  -3.17 0.0003283829    1.134    0.118
       124 -11.2091    152.8015    127.3128   4.8453865091e+01   2.6879914070e+01    0.5045969    0.1980224 -46.94  0.001828837    2.983    0.665
       125 -11.8013     82.0062     71.5238   5.4481198784e+01   5.2674728428e+01    0.4408341    0.2914117 -67.38  0.001883987    2.112    0.527
       126 -11.8953     62.7614     69.4026   6.1629199460e+01   5.6587812812e+01     0.832187    0.1254048 -49.84  0.002034876    5.827    0.828
       127 -10.6944     74.3056     78.6968   5.9619772438e+01   5.2540253647e+01    0.5372261    0.1479434 -56.05  0.001453908    4.753    0.790
       128 -10.6080    115.6380     70.9864   4.3108502740e+01   4.5523940984e+01    0.3521257    0.1480565 -39.53  0.001261245    2.536    0.606
       129 -12.2863     98.6910    124.2717   6.2356839428e+01   3.7933010277e+01    0.9060435    0.4088623 -53.44  0.003526499    2.423    0.587
       130 -11.3080     94.7694     68.4666   4.8882257571e+01   5.0688320526e+01    0.6882316    0.2023191 -46.97   0.00204618    3.806    0.737
       131 -11.8451    140.8832     81.5827   3.9656833776e+01   3.7704028398e+01    0.4025918    0.2104338 -37.89  0.001644687    2.005    0.501
       132 -10.7397     72.7816    128.3031   7.1384856835e+01   4.1239887559e+01    0.3404648    0.2024525 -84.14   0.00141763    2.430    0.588
       133 -11.3405     12.1142    125.5543   9.1749271219e+01   4.8355651096e+01    0.6368524    0.1702877 -79.35  0.002281931    3.606    0.723
       134 -11.5436     50.9055     66.8713   6.6213180511e+01   5.8962981571e+01    0.7105833    0.2193173 -62.42  0.002087459    4.433    0.774
       135 -11.9472     17.2139     64.9919   8.2552142882e+01   6.2902377078e+01    0.7094376          nan -59.02  0.001844558    5.887    0.830
       136 -11.7924    180.0944    123.4866   4.1727404070e+01   2.2116838157e+01     0.397241    0.2023564 -35.82  0.001781476    1.991    0.498
       137 -11.0215    138.5894     64.7290   3.5164887064e+01   4.1101922865e+01    0.2900152     0.151257 -29.99  0.001153969    2.155    0.536
       138 -10.9063    121.4859     63.9498   3.9204148630e+01   4.5400111177e+01    0.4058383    0.1537158 -36.74  0.001387735    2.829    0.647
       139 -11.5867     37.2444     61.0329   7.1253890991e+01   6.2058005189e+01     0.519389    0.1671431 -45.48  0.001801805    3.171    0.685
       140 -10.6972     99.8801     57.7615   4.3512165441e+01   5.1596504651e+01    0.4554663    0.1613491 -43.68  0.001510215    3.066    0.674
       141 -10.6154     73.1922     58.8056   5.3730959941e+01   5.7032246557e+01    0.4300807    0.2297648 -61.44  0.001604652    2.820    0.645
       142 -11.2810     73.2545     53.4973   5.1789458809e+01   5.8095164545e+01    0.5158372    0.2332474 -30.15  0.001683172    3.562    0.719
       143 -11.3454    117.1938    123.3839   5.6719905676e+01   3.4686626519e+01    0.4950176    0.2869309 -57.35  0.002094404    2.129    0.530
       144 -11.8894    188.7870    122.9543   3.9937394108e+01   2.0514752944e+01    0.3204292    0.1885132 -34.68  0.001383391    1.692    0.409
       145 -12.0088      7.0000     55.5044   8.6388863957e+01   6.5768278859e+01    0.4229728    0.1603289 -81.10  0.001687554    2.878    0.653
       146 -10.1300    157.6516     74.6637   3.3956118220e+01   3.4897774522e+01    0.1564612    0.1112066  21.37 0.0007047382    1.781    0.439
       147 -12.1386     45.1948     49.6707   6.3590810727e+01   6.3634853102e+01    0.4943142    0.2382219 -42.32 0.0007415405    2.132    0.531
       148 -10.9659     53.6067     50.3156   5.9538334905e+01   6.2239577841e+01    0.5482712    0.1409011 -52.57  0.001640479    4.191    0.761
       149 -10.6991    154.6790    240.6850   6.6932879713e+01   8.5200419194e+00    0.1173717    0.0728841   8.03 0.0004248489    1.657    0.397
       150 -11.4966    109.9859     61.2073   4.1556860061e+01   4.8625392798e+01    0.4890634    0.2211544 -27.40  0.001620958    3.246    0.692
       151 -10.6896     82.5747     43.1586   4.4051902668e+01   5.8101308238e+01     0.620516    0.2259365 -29.31  0.001749927    4.751    0.790
       152 -10.4933    113.0940     42.8491   3.4116320458e+01   5.0912562008e+01     0.384311    0.2078614  -4.28  0.001155055    4.483    0.777
       153 -10.6474    122.8614     41.8425   3.1246894041e+01   4.8586477692e+01    0.3728113    0.2111195   3.96  0.001216156    3.851    0.740
       154 -10.8368    146.9171     66.0113   3.3689985481e+01   3.8856170707e+01    0.3956491    0.2053333 -19.72  0.001448391    2.809    0.644
       155 -11.2939     16.8949     41.3170   7.7387213525e+01   6.8549239166e+01    0.4414914   0.04265973 -50.03   0.00126148    5.005    0.800
       156 -12.3017      4.8027     39.4518   8.4730159642e+01   6.9670656899e+01    0.5639035    0.1610077 -77.19  0.001943705    4.015    0.751
       157 -10.3760    106.0000     38.9715   3.4615977863e+01   5.3270617464e+01    0.2402699   0.08706494 -32.89 0.0008105125    2.999    0.667
       158 -10.6925     62.9962     48.9783   5.4568913336e+01   6.0926563693e+01    0.3469996    0.1774134 -33.26   0.00137141    2.409    0.585
       159 -11.0484     27.7037     29.1466   6.6135969007e+01   7.0239577216e+01    0.3408691    0.1117438 -40.48  0.001209278    3.342    0.701
       160 -10.4948     12.9683     21.2237   7.3581502424e+01   7.3302921400e+01    0.1654112   0.09841447  15.37 0.0007673745    1.672    0.402
