#   1 NUMBER                 Running object number                                     
#   2 MAG_AUTO               Kron-like elliptical aperture magnitude                    [mag]
#   3 X_IMAGE                Object position along x                                    [pixel]
#   4 Y_IMAGE                Object position along y                                    [pixel]
#   5 X_WORLD                Barycenter position along world x axis                     [deg]
#   6 Y_WORLD                Barycenter position along world y axis                     [deg]
#   7 A_WORLD                Profile RMS along major axis (world units)                 [deg]
#   8 B_WORLD                Profile RMS along minor axis (world units)                 [deg]
#   9 THETA_WORLD            Position angle (CCW/world-x)                               [deg]
#  10 FWHM_WORLD             FWHM assuming a gaussian core                              [deg]
#  11 ELONGATION             A_IMAGE/B_IMAGE                                           
#  12 ELLIPTICITY            1 - B_IMAGE/A_IMAGE                                       
         1 -11.3418    225.4228     32.6530   2.9607232984e+01   2.6149324597e+01     0.885841    0.5559087  48.69  0.002452106    2.036    0.509
         2 -11.1844    241.7537     18.5776   2.5380553719e+01   2.4486699257e+01     0.647302    0.4656872 -56.04  0.002896712    1.111    0.100
         3  -7.6946    160.9834     18.8300   3.2785864308e+01   4.2226143660e+01    0.1726608    0.1571935  80.99 0.0003412779    1.038    0.036
         4  -8.5996    249.1505    249.5457   6.9569289180e+01  -8.0661557380e+00    0.2394847    0.1075331 -35.18  0.001425012    2.262    0.558
         5 -11.2702     24.4881    227.3158   1.1276647311e+02   2.3349926441e+01    0.9330017    0.7261673 -77.49   0.00367157    1.356    0.263
         6 -12.1388     41.7588    248.4842   1.1043200966e+02   1.7513174703e+01     3.208267    0.4458858  30.27   0.01065973    5.132    0.805
         7 -12.6859     30.7286    195.2389   1.0922595312e+02   2.9627300474e+01     1.729678     1.244798  85.24   0.01043307    1.310    0.236
         8 -11.5245     13.2581    244.3793   1.1587503369e+02   2.1081800283e+01    0.5228993    0.2865574  70.90 0.0002869576    1.631    0.387
         9 -11.2113     11.9431    239.1272   1.1591155954e+02   2.2194230180e+01    0.6491783    0.1741947  41.34  0.002357399    2.477    0.596
        10 -10.5755     21.1853    204.4411   1.1213551064e+02   2.8474386048e+01     0.328401    0.2933858  51.45  0.001050099    1.136    0.120
        11  -9.6380     72.4445    242.3674   1.0359604754e+02   1.5171620664e+01    0.2627223    0.1668303  35.31 0.0008892725    1.309    0.236
        12  -9.4249    198.4324    242.4229   7.7399854828e+01  -1.4065292982e+00    0.2173498    0.1681599   8.92 0.0001573969    1.050    0.048
        13  -8.0601    164.9623    242.3078   8.3945969171e+01   2.9625707029e+00    0.1766613    0.1273079  21.88 0.0004387276    1.124    0.110
        14  -8.5826     92.9903    241.2318   9.9067325160e+01   1.2814967123e+01    0.1796551    0.1736722  64.78 0.0003123141    1.181    0.153
        15  -9.6276     56.7932    240.3655   1.0676760128e+02   1.7383716713e+01    0.2722215    0.1928453  39.55  0.001159048    1.176    0.150
        16  -7.7093    166.9921    236.9721   8.2769203313e+01   3.5036900405e+00     0.202845     0.131079   0.01  0.001024024    1.694    0.410
        17  -8.0818    109.2984    237.3022   9.5092103339e+01   1.1375448386e+01    0.1203014   0.09146233  -2.79 0.0002583884    1.582    0.368
        18  -8.1113     63.6433    235.8226   1.0493758236e+02   1.7460034892e+01    0.2847351    0.1403665 -63.43  0.001506286    2.250    0.555
        19  -8.9951     49.1421    235.6788   1.0805097876e+02   1.9142003849e+01    0.3296629    0.1957989 -26.83  0.001577975    3.340    0.701
        20  -9.1624     99.7898    234.6876   9.6886248930e+01   1.3124487700e+01    0.4062164    0.1063345  32.06  0.001484337    3.195    0.687
        21  -8.6718     77.6648    233.6306   1.0167027004e+02   1.6180892744e+01    0.2706426    0.1553147 -68.78  0.001480431    2.026    0.506
        22  -8.1241     42.2035    233.7021   1.0939427484e+02   2.0280997026e+01     0.291782    0.1735185  -7.61  0.001333305    3.635    0.725
        23  -9.3772     35.4096    233.2491   1.1080675080e+02   2.1080992112e+01    0.4081669    0.1681306  33.64  0.001785215    2.014    0.503
        24  -9.1883     83.2142    232.9063   1.0037083043e+02   1.5619990149e+01    0.2612903    0.1723152  -8.74  0.001083336    2.458    0.593
        25  -9.2380     90.5722    229.9819   9.8425409293e+01   1.5229092991e+01    0.2190093    0.2005424  -7.44  0.000466251    1.263    0.208
        26  -7.6227    121.4584    232.4701   9.1840213478e+01   1.0576695785e+01    0.1282747     0.108059  28.36 0.0008084322    1.008    0.008
        27  -9.3578    112.0477    230.8492   9.3721105827e+01   1.2172765271e+01    0.3266618    0.1641882  31.77  0.000922599    1.695    0.410
        28  -7.6325    149.6832    228.6915   8.5186964639e+01   7.2516152697e+00    0.1307005     0.089854  -0.64 0.0003243466    1.634    0.388
        29  -9.9102    135.0004    225.6926   8.7952738922e+01   9.8717179722e+00    0.3202808    0.2319711 -19.07 0.0004277494    1.610    0.379
        30  -8.6315     35.9988    227.0432   1.1028434048e+02   2.2259691587e+01    0.1613547    0.1587541  47.91 0.0003142135    1.259    0.206
        31  -8.9722     37.7850    223.5844   1.0966250890e+02   2.2779340698e+01    0.3655474    0.1438294  39.57  0.001588865    2.021    0.505
        32  -9.0866    107.8105    226.4348   9.4132289032e+01   1.3580427354e+01    0.2657287    0.1023744  36.34  0.001145299    2.146    0.534
        33  -8.1419     55.2188    225.4046   1.0593109452e+02   2.0500826470e+01    0.1995947    0.1589084 -85.11 0.0006056934    1.318    0.242
        34  -9.9814     27.5992    181.6066   1.0891313789e+02   3.3085222397e+01    0.4940363    0.3204627  30.68  0.002769921    1.552    0.356
        35  -8.6760    111.6901    224.0300   9.2953843912e+01   1.3495239121e+01    0.1721531    0.1641809  28.19 0.0005978644    1.107    0.097
        36  -7.4360     57.5210    233.4934   1.0607844960e+02   1.8624968646e+01    0.1216485    0.1004225  50.33 0.0001819797    1.007    0.007
        37  -7.9423     60.0102    222.5004   1.0460395026e+02   2.0536566103e+01    0.1864171    0.1098049  31.74 0.0005009942    1.534    0.348
        38  -9.4920     30.6586    218.3104   1.1088399391e+02   2.4597324232e+01    0.3355917    0.2748276  -6.54  0.001900433    1.677    0.404
        39  -7.8812     36.1341    219.1317   1.0972071351e+02   2.3871822784e+01    0.1925496    0.1528385 -69.55 0.0005125189    1.369    0.269
        40  -7.1585     88.6701    218.6593   9.7605718432e+01   1.7711483156e+01    0.1292482   0.09801932 -14.70  0.000705156    1.742    0.426
        41  -8.5302     54.9276    217.0848   1.0529250041e+02   2.2251317417e+01    0.3340488    0.1403995  19.81 0.0007405007    3.152    0.683
        42  -8.9355     25.0245    212.4915   1.1176945115e+02   2.6375036198e+01    0.3255436    0.2131709  89.70  0.001603258    1.460    0.315
        43  -7.8758     84.4357    211.6361   9.7794038557e+01   1.9721917046e+01    0.2463309    0.1552815   3.67  0.001140526    2.378    0.580
        44  -7.6554     75.6301    212.2891   9.9966872525e+01   2.0738821510e+01    0.1714976    0.1164202 -54.20 0.0009411565    1.637    0.389
        45  -7.1774    120.2483    211.3992   8.9278595581e+01   1.4698364154e+01    0.1342805   0.09758176 -18.74 0.0006942624    1.690    0.408
        46  -8.9746     64.5057    208.3093   1.0220910341e+02   2.2984765610e+01    0.2321048    0.2095669  18.79 0.0002294815    1.217    0.178
        47  -8.0906    157.8897    207.3608   8.0099604451e+01   9.7565285490e+00     0.334057    0.1946876   6.25  0.001131442    2.384    0.581
        48  -7.7761    118.2577    208.4140   8.9316337951e+01   1.5583755399e+01    0.1799361    0.1142826  40.76 0.0002599539    1.453    0.312
        49  -7.1310     95.7094    208.2908   9.4680305766e+01   1.8876662874e+01    0.1337536   0.09467734  58.62 0.0002512873    1.546    0.353
        50  -8.6305     46.3242    207.2074   1.0645211676e+02   2.5336800810e+01    0.3074937    0.2149869   2.96  0.001165568    1.971    0.493
        51  -7.0559    119.5631    205.2649   8.8546471755e+01   1.6018608393e+01    0.1449784   0.09431562  54.52 0.0001835984    1.824    0.452
        52  -7.8663     75.7032    204.2542   9.9051420314e+01   2.2449923494e+01    0.3362838    0.1058878  42.19  0.001262498    2.788    0.641
        53  -7.6967     97.4083    201.2216   9.3332140528e+01   2.0126991376e+01    0.1835784    0.1321808 -80.25 0.0009498363    1.725    0.420
        54  -8.3526     79.0073    198.8772   9.7595130362e+01   2.3192480694e+01    0.3504832    0.1924679 -68.24 0.0009429109    2.019    0.505
        55  -8.0617    113.2765    200.0536   8.9282170059e+01   1.8032594551e+01    0.2040094    0.1857197  32.44 0.0003166367    1.025    0.024
        56  -8.5255    109.3353    198.6068   9.0029650491e+01   1.8928873583e+01    0.2287641    0.2157971  40.44 0.0005329498    1.061    0.057
        57  -8.6911     48.1896    199.4687   1.0531273094e+02   2.6845216123e+01    0.3307119    0.2252506  -2.40 0.0008381075    2.145    0.534
        58  -8.1352    101.0407    198.7756   9.2096879880e+01   2.0123094647e+01    0.1920478    0.1648751  34.81 0.0005157015    1.064    0.060
        59  -8.4214     89.1442    196.8955   9.4802528135e+01   2.2238830684e+01    0.3562238    0.2098196   9.08   0.00151426    2.517    0.603
        60  -7.2818     82.5559    197.4957   9.6534031821e+01   2.3018779013e+01    0.1327553    0.1252243  38.18  5.48054e-05    1.050    0.047
        61  -7.0681     85.2908    195.2930   9.5560512469e+01   2.3130727514e+01    0.1308694    0.1045587 -18.12 0.0005254584    1.550    0.355
        62  -7.9731     57.6869    192.9516   1.0228993351e+02   2.7229524589e+01    0.1816745    0.1558492  86.87 0.0002994796    1.147    0.129
        63  -8.3645     71.8547    191.8618   9.8546440626e+01   2.5711278010e+01    0.1947137    0.1818866  56.31 0.0004402632    1.015    0.015
        64  -7.8258     64.7920    189.2817   1.0005588291e+02   2.7205599644e+01    0.2191271    0.1518166 -44.70 0.0006212289    1.657    0.397
        65 -11.2573      3.5201    248.8222   1.1790005527e+02   2.1121869318e+01    0.7025348    0.3527556  33.91  0.004447149    1.704    0.413
        66  -7.6750    120.8487    188.1814   8.5554024120e+01   1.9353364358e+01    0.1855406    0.1582062  -5.67 0.0004802958    1.252    0.201
        67 -12.2418     11.0600    208.5115   1.1465916966e+02   2.8483578513e+01     1.452561    0.8300117  59.89  0.008596278    1.511    0.338
        68 -12.3231      2.6712    222.6967   1.1710056304e+02   2.6226792578e+01     1.036781    0.6239927  54.35  0.006761143    1.332    0.249
        69  -7.5760    169.2890    184.4333   7.3532212603e+01   1.2141311069e+01    0.1739688    0.1275352  38.42 0.0003673729    1.392    0.282
        70  -9.1652      8.3113    181.6676   1.1378607187e+02   3.4707555429e+01    0.4661398    0.1547161  46.35  0.002044367    2.637    0.621
        71  -7.7344     78.0543    182.0054   9.5645704093e+01   2.7156604293e+01    0.1832951    0.1593351 -27.34 0.0003479989    1.317    0.241
        72  -8.0015     80.9667    179.3102   9.4488706670e+01   2.7383012217e+01    0.1906653    0.1687818  32.16 0.0002009338    1.107    0.096
        73  -9.0305     47.7422    181.5450   1.0364829805e+02   3.1040246516e+01      0.38087    0.1871224  69.47    0.0015474    2.733    0.634
        74  -9.7042     52.1973    178.2034   1.0209217488e+02   3.1332710409e+01    0.4125456    0.2645829 -37.19  0.001443827    1.980    0.495
        75  -7.9510      1.3143    181.3314   1.1548169373e+02   3.5301402611e+01    0.1189119   0.08248446 -50.01 0.0004607297    1.680    0.405
        76  -7.7438     90.7286    180.1471   9.2009016997e+01   2.5785189444e+01    0.2243371    0.1779744  86.87  0.001174449    1.474    0.322
        77  -7.5111     62.9620    181.0000   9.9538652834e+01   2.9372071794e+01     0.231715   0.07478592  28.74  0.000509251    3.035    0.671
        78 -10.8385      1.7804    231.1000   1.1760494624e+02   2.4626629445e+01    0.2372821    0.1635128  83.49  0.000836839    1.295    0.228
        79  -8.6185     36.6691    178.8505   1.0630186704e+02   3.2859060106e+01    0.3151199    0.2213258 -26.81  0.001048025    1.932    0.482
        80 -11.9577      3.4017    238.4718   1.1755788699e+02   2.3065353528e+01    0.7472343    0.6012688  10.29  0.002477367    1.676    0.403
        81  -7.3675    117.0000    177.9555   8.4783539548e+01   2.2187977648e+01    0.2198285   0.08307508 -53.53 0.0004395618    2.791    0.642
        82  -7.7612     86.7665    178.2275   9.2775024571e+01   2.6809263454e+01    0.1882004    0.1609931 -23.50 0.0004894817    1.333    0.250
        83  -8.0074     64.2062    176.9830   9.8696665928e+01   3.0172272632e+01    0.2055239    0.1695563  64.58 0.0004765457    1.204    0.169
        84  -7.1835     76.5738    176.4393   9.5262881698e+01   2.8669612469e+01    0.1364204    0.1324027  55.31 5.826478e-06    1.027    0.026
        85  -9.4010     17.4080    171.9753   1.1079146732e+02   3.6274997340e+01    0.4626665    0.2296908  89.11  0.002207709    2.013    0.503
        86  -7.7469      1.5197    174.9836   1.1507920638e+02   3.6761022486e+01    0.1826837      0.10434 -81.13 0.0005756448    1.532    0.347
        87  -9.2189    175.3222    172.3293   6.9867712808e+01   1.3385862947e+01    0.2821845    0.2367178 -14.90 0.0006807955    1.114    0.102
        88  -9.5970     58.9043    171.8321   9.9488431762e+01   3.2074280214e+01    0.4602312    0.2285078 -50.44  0.001630598    2.117    0.528
        89 -11.8074      8.0603    232.3211   1.1639909218e+02   2.3854503472e+01    0.4913934     0.409087  64.45  0.002489834    1.089    0.081
        90  -7.4771     30.5015    171.5430   1.0725548580e+02   3.5223032226e+01    0.1317552    0.1149849  74.31 -8.081562e-07    1.039    0.037
        91  -9.1279     23.6756    170.6627   1.0901582411e+02   3.6058790254e+01    0.2215913    0.2060213  -6.31 0.0008121075    1.300    0.231
        92  -7.1809    123.2779    168.3210   8.1414328046e+01   2.3269045966e+01     0.148501    0.1123407 -14.28 0.0005432419    1.580    0.367
        93  -7.2686     42.9912    168.7394   1.0353750356e+02   3.4652188850e+01    0.1859304    0.1129927  42.68 0.0002898716    1.586    0.369
        94  -8.1680     39.6579    167.0706   1.0428150153e+02   3.5411893366e+01    0.2242659     0.196228 -12.92 0.0007635157    1.376    0.273
        95  -8.5068      4.9388    166.9046   1.1370869590e+02   3.8437204035e+01    0.2141857    0.1192546  61.10  0.001132409    1.715    0.417
        96  -8.1164     92.0237    164.7609   8.9174369431e+01   2.9203350816e+01    0.4273035     0.155018 -51.61  0.001520857    2.707    0.631
        97  -7.0587     88.6883    165.2666   9.0190638809e+01   2.9590753734e+01    0.1461074    0.1077291  61.38 0.0001404088    1.542    0.352
        98  -9.7032     26.6037    163.8581   1.0759556600e+02   3.7461040565e+01    0.3219916    0.2320427 -56.87 0.0001327545    1.396    0.284
        99 -10.3844     21.9016    155.3011   1.0810430823e+02   3.9987606923e+01     0.971572    0.2691857  47.46 0.0009657644    3.899    0.744
       100  -9.0140     69.9794    162.8681   9.5111280083e+01   3.2847778818e+01    0.2766033    0.2192629  50.52 0.0003514884    1.260    0.206
       101  -8.7889     32.9496    162.5595   1.0568276966e+02   3.7193789738e+01    0.3255019    0.2250751  22.08  0.001431022    1.591    0.371
       102  -7.7119     34.6197    158.6891   1.0478632456e+02   3.7995451227e+01    0.2305411    0.1651904 -19.07   0.00120067    1.833    0.454
       103  -7.3148     53.3901    161.7971   9.9738752536e+01   3.5203925357e+01    0.1910816    0.1179662 -55.16 0.0006423474    1.595    0.373
       104  -7.6580     19.2956    162.6107   1.0951105600e+02   3.8394101544e+01    0.1430927   0.08225264  65.03 0.0006411091    1.780    0.438
       105  -9.6743     12.7646    161.1168   1.1118804770e+02   3.9272855045e+01    0.3525714    0.2316016 -24.93            0    2.059    0.514
       106  -7.9274    166.8138    159.4851   6.9087591651e+01   1.7352508558e+01    0.2467769    0.1720962 -52.67 0.0004721942    1.656    0.396
       107  -8.3524     57.8727    158.9898   9.8051215556e+01   3.5365695675e+01    0.2179208    0.2002252 -72.99 0.0008254016    1.059    0.056
       108  -9.7813     78.0931    156.1581   9.1686712244e+01   3.3371169767e+01    0.5863712    0.4485805 -14.38  0.001857637    1.639    0.390
       109  -7.5866    122.2066    157.4405   7.9564536653e+01   2.5892171772e+01    0.1936358    0.1392515  45.82  0.000301529    1.435    0.303
       110  -7.1859     45.6365    156.2034   1.0126998776e+02   3.7482154323e+01    0.1815969    0.1186488 -60.46 0.0002142047    1.453    0.312
       111  -7.4037      8.9479    155.2048   1.1178116306e+02   4.0999642701e+01    0.1512524     0.100159  24.51 0.0005276527    1.666    0.400
       112  -7.8703    110.2192    154.1078   8.2136451600e+01   2.8753933962e+01    0.2128495    0.1912346  -8.59 0.0003893635    1.171    0.146
       113  -7.7804    117.0762    154.3063   8.0301863311e+01   2.7512835741e+01    0.2094945    0.1856588  34.76 0.0003505911    1.107    0.097
       114  -7.0398    128.3195    153.6118   7.7167838238e+01   2.5654628746e+01    0.1559691    0.1212336  80.55 2.842821e-05    1.848    0.459
       115 -10.8933     68.7874    145.0257   9.2571956415e+01   3.7459219186e+01    0.7794213    0.5801875  73.15  0.003059535    1.591    0.371
       116  -7.7300     50.8271    150.8321   9.8989321624e+01   3.8255303267e+01    0.2084125    0.1794812 -49.87 0.0006316514    1.183    0.155
       117  -8.3276     54.4856    149.0870   9.7621657754e+01   3.8267711862e+01    0.2206988    0.1339322 -66.30  0.001029976    1.582    0.368
       118  -9.2905    242.8801    144.5258   5.1818576062e+01   6.9844503498e+00    0.2121945    0.1575068 -40.82  0.001297647    1.314    0.239
       119  -7.9592     93.2262    142.7893   8.4727757547e+01   3.4324576814e+01     0.212568    0.1775923 -11.70  0.001061308    1.362    0.266
       120  -9.1904     81.5040    141.1804   8.7950217852e+01   3.6579487891e+01    0.4035391    0.2506172 -49.77  0.001811605    1.582    0.368
       121  -7.6243     97.7426    142.6745   8.3368480331e+01   3.3601548402e+01    0.1540639     0.148416  74.92 0.0002563834    1.095    0.087
       122  -8.0174     97.1681    139.6180   8.2899711158e+01   3.4437837751e+01    0.3007141    0.1969387  40.46  0.001072912    1.528    0.345
       123  -7.8798     15.9682    142.0390   1.0855608703e+02   4.3782012166e+01    0.2186469    0.1359804  65.21 0.0009078346    1.690    0.408
       124  -8.9655     22.7551    148.7172   1.0719304095e+02   4.1567021150e+01    0.3801454    0.1850027 -51.26  0.001199892    2.048    0.512
       125 -10.5345     28.6112    132.6993   1.0348162602e+02   4.5148252832e+01    0.3145134    0.2421087 -61.92 0.0006155811    1.181    0.153
       126  -9.6257     10.0642    132.7407   1.0945936163e+02   4.6540036081e+01    0.3765563    0.2212023  60.48  0.001526956    1.837    0.456
       127  -8.0829    106.2931    132.2880   7.8591164295e+01   3.4593732855e+01    0.3826137    0.2207268 -13.30  0.001154225    4.049    0.753
       128  -8.6386     73.6179    131.4943   8.8514193672e+01   4.0185119666e+01     0.407601     0.253266   1.37  0.001218983    2.468    0.595
       129  -8.4369     67.1668    129.8363   9.0281603511e+01   4.1525866592e+01     0.206144    0.1695996 -31.62  0.001059169    1.291    0.225
       130  -9.0642    250.5048    127.9538   4.7367641411e+01   8.3100100230e+00    0.2910079   0.09458809 -40.18  0.001209832    2.550    0.608
       131  -7.6781     65.5694    124.5334   8.9752192107e+01   4.3090215461e+01    0.1465069    0.1392195 -51.25 6.658414e-05    1.009    0.009
       132  -7.3554    118.4827    122.5506   7.2743830436e+01   3.4550071397e+01    0.1551093    0.1489073  -3.83 0.0002730351    1.020    0.019
       133  -7.1358     21.7204    122.3049   1.0440304647e+02   4.8380543915e+01    0.1345297   0.09541782  67.87 0.0002387826    1.552    0.356
       134  -7.5879      6.0000    118.9862   1.0936689017e+02   5.0266418807e+01     0.221848    0.0647258 -74.85 0.0008009631    2.932    0.659
       135  -9.2581    248.6063    116.5840   4.5285242063e+01   1.0304284218e+01    0.2334853    0.1361573 -35.10 0.0009376496    1.399    0.285
       136  -7.6772     37.0260    117.4837   9.8319121067e+01   4.8281147043e+01    0.1889685    0.1411797  14.95 0.0005091615    1.496    0.331
       137  -9.7598     14.7251    115.6458   1.0595477387e+02   5.0583804986e+01    0.2599396    0.2104308 -67.46 0.0003284692    1.072    0.067
       138  -8.0287     71.9224    116.1829   8.5800112972e+01   4.4270394602e+01    0.2135955    0.1978343  73.78 0.0002759419    1.188    0.158
       139  -8.1412     33.0371    115.7514   9.9451094240e+01   4.9106166626e+01    0.2320097    0.1828386 -66.87 0.0004634649    1.158    0.136
       140  -7.8243    243.6667    114.3424   4.5469065991e+01   1.1451063450e+01    0.1284283   0.08877361 -58.30 0.0003494202    1.756    0.431
       141  -7.2223    175.4749    112.4067   5.6301008403e+01   2.4779557771e+01    0.1448921    0.1385263 -19.06 -2.525832e-05    1.017    0.016
       142  -7.3066     59.5063    111.4940   8.9092405282e+01   4.7203974193e+01     0.146037    0.1386938 -48.62 0.0008105761    1.017    0.016
       143  -8.3077     20.7609    109.3748   1.0289778541e+02   5.1759738461e+01    0.3696422    0.1667561  39.22  0.001038007    2.435    0.589
       144  -8.0243     13.8066    107.1894   1.0514523636e+02   5.2794339412e+01    0.1841689    0.1367173 -41.84 0.0004363083    1.310    0.237
       145  -7.8007     92.5159    104.4619   7.5953952414e+01   4.3664311398e+01    0.3049622    0.2189088 -88.24  0.001036103    2.238    0.553
       146  -8.0878     79.8088    102.7770   7.9787644035e+01   4.6285655866e+01    0.2221022    0.1976907 -17.08 0.0004670762    1.141    0.124
       147  -7.6926     35.7640     98.0236   9.5126448543e+01   5.3347960746e+01    0.1870893    0.1086687 -62.79 0.0003859619    1.580    0.367
       148  -7.7890     16.8095     98.4010   1.0266951413e+02   5.4819288143e+01    0.1767129    0.1227482 -11.83 0.0006370248    1.649    0.394
       149  -7.5310    100.5652     97.4675   7.1414467983e+01   4.3726839544e+01    0.1530038    0.1474313 -12.81 7.966866e-05    1.008    0.008
       150  -7.3088     41.4061     96.2270   9.2509407111e+01   5.3213242033e+01    0.1446548   0.09912822 -20.63 0.0005028145    1.665    0.399
       151  -8.5097      8.9890     94.8337   1.0519385081e+02   5.6192116897e+01    0.2234452    0.1633618 -67.76 0.0004187058    1.180    0.152
       152  -7.4839     42.1495     92.1766   9.1282957810e+01   5.4131609440e+01    0.1784049     0.162716  81.14 0.0002743419    1.266    0.210
       153  -7.2415     52.4819     89.5055   8.6468533331e+01   5.3538540556e+01    0.1420933    0.1355203 -43.75 0.0008093026    1.074    0.069
       154  -7.5731     41.0561     87.0329   9.0490477847e+01   5.5506185860e+01    0.1660065    0.1529691 -17.47 0.0004834456    1.078    0.072
       155  -7.1385     55.5920     84.4488   8.3850769143e+01   5.4321131090e+01    0.1450795    0.1305307 -30.29 6.847849e-05    1.023    0.022
       156  -7.3128     37.5365     82.5024   9.0842029161e+01   5.6976791018e+01    0.1380227    0.1272516 -44.43 -3.900564e-05    1.062    0.059
       157  -7.1243     38.7034     77.6798   8.9080928834e+01   5.7996196950e+01    0.1480156   0.09427176 -29.97 0.0003454158    1.616    0.381
       158  -7.0159     15.3059     77.2899   9.9405512869e+01   6.0131399498e+01    0.1398188   0.08253982 -37.43 0.0002614086    1.573    0.364
       159  -7.9998     19.1716     75.3349   9.7234288640e+01   6.0333052514e+01    0.1698505    0.1164886  28.63 0.0003005968    1.633    0.388
       160  -8.7647      6.5052     68.3048   1.0161007418e+02   6.2788465739e+01    0.2332839    0.1788725 -40.84 0.0003587987    1.124    0.110
       161  -8.0267    146.0379     56.9602   4.6861970701e+01   4.1089291653e+01      0.20682    0.1999169  22.80 -0.001877172    1.083    0.076
       162  -7.5914     22.8768     48.8118   8.8027944847e+01   6.6037096544e+01     0.158289    0.1559557 -61.95 0.0004980427    1.300    0.231
       163 -11.0400    211.9826     42.3810   3.3116751636e+01   2.7785556715e+01    0.6840413    0.4405768  63.48  0.003864269    1.621    0.383
       164 -10.5612    217.6112     38.4442   3.1630494086e+01   2.7077755887e+01    0.6992443    0.2946257 -42.54  0.003342137    2.009    0.502
       165  -8.0259    177.1748    247.8456   8.2290421000e+01   5.4427735422e-01    0.1719752    0.1472333  28.90 0.0007108177    1.348    0.258
       166  -7.6953      3.3178     45.3342   9.7786878538e+01   6.8173077597e+01    0.1392828    0.0697566 -36.37 0.0007048313    1.695    0.410
       167  -7.2193     89.5061     34.4228   5.2998379778e+01   5.7649356537e+01    0.1401747    0.1259409  32.18 0.0001100479    1.017    0.017
       168  -8.1544     14.4291     26.0340   8.4180092917e+01   7.1321947229e+01    0.1818548    0.1418571  -1.52 0.0001993588    1.162    0.139
       169  -8.3889    120.4319    247.8193   9.3912121945e+01   8.0678136030e+00    0.2046271    0.1251678 -60.38  0.001163326    2.130    0.531
       170  -7.8831     43.9159     22.5029   6.5541881835e+01   6.8163495083e+01    0.1891727    0.1165616  35.19 0.0006036224    1.528    0.345
       171  -8.0027      9.6286     22.3161   8.5666446451e+01   7.2420948499e+01    0.1102729   0.09402373  50.06  0.000703429    1.788    0.441
