#   1 NUMBER                 Running object number                                     
#   2 MAG_AUTO               Kron-like elliptical aperture magnitude                    [mag]
#   3 X_IMAGE                Object position along x                                    [pixel]
#   4 Y_IMAGE                Object position along y                                    [pixel]
#   5 X_WORLD                Barycenter position along world x axis                     [deg]
#   6 Y_WORLD                Barycenter position along world y axis                     [deg]
#   7 A_WORLD                Profile RMS along major axis (world units)                 [deg]
#   8 B_WORLD                Profile RMS along minor axis (world units)                 [deg]
#   9 THETA_WORLD            Position angle (CCW/world-x)                               [deg]
#  10 FWHM_WORLD             FWHM assuming a gaussian core                              [deg]
#  11 ELONGATION             A_IMAGE/B_IMAGE                                           
#  12 ELLIPTICITY            1 - B_IMAGE/A_IMAGE                                       
         1 -14.0005     23.6962     50.7606   9.0388823774e+01   6.4635330593e+01     1.546974     1.159171 -31.13  0.008400469    1.100    0.090
         2 -13.6916    233.1926     32.3349   3.3105709421e+01   2.4961262235e+01     1.221694    0.8076264  47.58  0.007189697    2.152    0.535
         3 -12.0357    141.1075     20.7927   4.1252645590e+01   4.6950705325e+01    0.5448453    0.3847306 -59.37  0.003051378    1.595    0.373
         4 -12.0576    206.5635     19.6397   3.2812796010e+01   3.2032313632e+01    0.6460029    0.2560258  60.20  0.003069731    2.453    0.592
         5 -11.2523    235.0094     17.1608   2.9943855876e+01   2.6415189133e+01    0.5636798    0.3196252 -48.79  0.003480621    1.480    0.324
         6 -12.7266      4.8294      5.0881   8.1880991999e+01   7.3916622220e+01    0.7399642    0.4591886 -17.24  0.005011386    1.295    0.228
         7 -12.1625     21.5420    240.6375   1.1909945233e+02   1.9750437768e+01    0.7146455    0.2993055  70.55  0.003407822    2.517    0.603
         8 -15.4799     11.0232    134.7382   1.1271251066e+02   4.5908911905e+01     8.448146      1.63829 -70.81   0.02626027    4.009    0.751
         9 -14.3983     12.8296    200.7585   1.1833369772e+02   2.9407842426e+01     1.320302    0.8693339 -85.42  0.004062084    1.298    0.230
        10 -11.6391    112.0538    241.9401   1.0007464255e+02   7.9388874353e+00    0.3006454    0.2839684  39.45  0.001377676    1.080    0.074
        11 -13.4071    134.3399    232.3111   9.3839482532e+01   6.4737293702e+00    0.8779824    0.8136935  37.23  0.004031569    1.086    0.079
        12 -12.7753    125.1547    238.3681   9.6726231047e+01   6.6928681254e+00    0.5916247    0.4275158  39.34  0.002732194    1.231    0.187
        13 -13.6589    116.8447    231.7480   9.7689082226e+01   9.2462616346e+00     1.226424    0.8962587  54.20  0.004559957    1.419    0.295
        14 -11.6247     11.1217    233.1475   1.2071886109e+02   2.2353693323e+01     0.286947    0.1662858 -83.48  0.001260402    1.541    0.351
        15 -12.2333     95.0938    233.1059   1.0276501899e+02   1.2174973294e+01    0.9274635    0.5659293  -6.39  0.003658218    3.673    0.728
        16 -12.2055     90.5207    228.3855   1.0323629327e+02   1.3822893698e+01    0.8470683    0.6490068 -47.64  0.004858352    1.498    0.333
        17 -10.7095     85.9944    222.7489   1.0360023825e+02   1.5685668134e+01    0.3649566    0.2583355 -66.56   0.00102421    1.494    0.331
        18 -12.0784     37.3905    233.7655   1.1542575297e+02   1.9484565991e+01    0.4919747    0.4031333  74.76  0.001749779    1.052    0.049
        19 -10.6095     73.3283    228.9596   1.0718900743e+02   1.6082992996e+01    0.5099587    0.2080841  48.81  0.002172585    2.333    0.571
        20 -10.3417     73.9926    224.3144   1.0653878658e+02   1.7005919538e+01    0.2827325    0.2502748 -76.28 0.0009831584    1.178    0.151
        21 -11.9863     67.9833    219.7482   1.0742047068e+02   1.8824327453e+01    0.8574795      0.48171  63.75   0.00406657    1.990    0.497
        22 -12.3774     48.0255    216.0036   1.1161823246e+02   2.2180939664e+01    0.9166649    0.4118063  61.67  0.003502975    2.572    0.611
        23 -11.0042     32.1007    210.8439   1.1477176079e+02   2.5163813414e+01    0.3950291    0.2975402  86.66  0.002047509    1.171    0.146
        24 -10.9163     35.8347    208.2257   1.1369942780e+02   2.5368635321e+01    0.3853997    0.2230638  71.68  0.001589352    1.744    0.427
        25 -11.1231     32.6462    205.3113   1.1417905499e+02   2.6394679921e+01     0.334141    0.2321704  63.20  0.001537337    1.312    0.238
        26 -10.3147     56.6504    207.2825   1.0873436298e+02   2.3151934090e+01    0.4014216    0.2076578 -67.41  0.001876451    1.873    0.466
        27 -11.7126     39.6864    199.7924   1.1201930150e+02   2.6939132020e+01    0.6800975    0.4015371  87.79  0.002919501    1.723    0.420
        28 -10.9884     37.4743    195.5043   1.1213399328e+02   2.8215871506e+01    0.3309407    0.2549668 -87.62    0.0017243    1.164    0.141
        29 -11.2916     40.8023    179.6979   1.0962709570e+02   3.1757976737e+01    0.2705674     0.240692 -51.35 0.0005414961    1.240    0.194
        30 -11.5156     48.8829    173.1226   1.0668359163e+02   3.2509819858e+01    0.2702351    0.2527046 -57.03 0.0004018387    1.148    0.129
        31 -11.9242      4.0289    109.3819   1.1167568275e+02   5.2691491296e+01    0.6591182    0.4133942 -50.27  0.003714717    1.355    0.262
        32 -10.4242     62.3340    163.0098   1.0151097729e+02   3.3448166227e+01    0.2430873    0.2141986  36.17 0.0003360991    1.207    0.171
        33 -12.8042     47.0833    159.5190   1.0534226893e+02   3.6222042768e+01    0.5420828    0.3183235 -34.01  0.001586323    2.240    0.554
        34 -11.4791     71.1801    156.2902   9.7857096631e+01   3.3988140678e+01    0.5184883    0.4437602 -30.98  0.001636528    1.292    0.226
        35 -11.9313     67.8480    143.5330   9.6551541436e+01   3.7770196047e+01    0.7647327    0.4582418  62.69   0.00305186    2.297    0.565
        36 -10.0855     44.4653    143.7863   1.0376170454e+02   4.0610920363e+01    0.3614055    0.1681034 -56.20  0.001526738    1.867    0.464
        37  -9.6693     87.9969    143.7373   9.0492072257e+01   3.4679788932e+01    0.2740877    0.2187063 -56.21 0.0007299265    1.201    0.167
        38 -11.2581    105.4491    141.3906   8.4855862406e+01   3.2279600123e+01    0.4479819    0.3400012 -73.11  0.002046527    1.534    0.348
        39 -11.1994     75.6534    141.2714   9.3724227511e+01   3.7234147480e+01     0.322332    0.2545862 -53.85  0.000507189    1.190    0.160
        40 -11.6081    241.8284    139.2812   5.4334634896e+01   6.5630685728e+00    0.3245157    0.1570623 -39.30  0.001525705    1.719    0.418
        41  -8.7482     92.2711    140.3190   8.8493205562e+01   3.4845281204e+01    0.1567017    0.1169695 -26.86 0.0002168968    1.564    0.361
        42 -12.3142    103.6942    132.2605   8.3280464949e+01   3.4863008757e+01    0.7432388    0.5530398   8.15  0.002219511    1.715    0.417
        43 -13.7085     18.7108    191.0200   1.1623269861e+02   3.1186343197e+01     1.151892    0.5687312  51.35  0.003821052    1.946    0.486
        44  -9.4057    154.9733    132.0000   6.9462219337e+01   2.4689689491e+01    0.4299829   0.09002279  43.92  0.001052887    4.948    0.798
        45 -10.3084     89.4756    127.7908   8.6541755388e+01   3.8474068955e+01    0.2670483    0.2633322  -9.29 0.0004122182    1.044    0.042
        46 -11.5496    115.3377    124.8046   7.8084747597e+01   3.4467237597e+01    0.7346808     0.361304  42.11  0.002763875    2.081    0.520
        47 -10.2024    102.4161    119.6754   8.0599993484e+01   3.8165728910e+01     0.265368    0.2423836  46.81 0.0002786152    1.151    0.131
        48 -11.6863     43.6348    118.2994   9.9542543080e+01   4.7283246205e+01    0.4159161       0.3656  26.07  0.002135001    1.264    0.209
        49 -10.0883     63.8178    108.5237   9.0403143554e+01   4.7230374927e+01    0.3586119    0.2479778  60.64  0.001529505    1.977    0.494
        50 -10.4970     66.1085    102.3949   8.8072447129e+01   4.8385926129e+01    0.7044696    0.3091308 -64.85   0.00233796    3.285    0.696
        51 -10.0886     32.8255    107.4627   1.0119723997e+02   5.1092042720e+01    0.2721155      0.17974 -60.93  0.001018812    1.329    0.248
        52 -11.4270     43.5589    105.6079   9.6933400471e+01   5.0469516135e+01    0.5061581    0.4316014  59.29  0.002851266    1.406    0.289
        53 -10.6193    133.5559    103.3593   6.7429931383e+01   3.5528232767e+01    0.4084699    0.2777463  61.13  0.001761691    1.754    0.430
        54 -12.8256    245.1554     99.7080   4.5696227528e+01   1.2750826623e+01    0.5448718    0.4990057 -18.63  0.003612267    1.300    0.231
        55 -10.7037    124.3856    100.8160   6.9177659726e+01   3.8048417644e+01    0.5040666    0.3162774 -31.02   0.00210043    1.809    0.447
        56 -11.2078     42.3865     85.4458   9.2521342590e+01   5.5398530798e+01    0.5248973    0.4348544  71.78  0.002915116    1.657    0.396
        57 -11.5274     43.4895     79.4935   9.0463361822e+01   5.6614455078e+01    0.3841159    0.3714383  28.75  0.001844381    1.234    0.190
        58 -10.8947     18.7468     84.2690   1.0172133930e+02   5.7836208983e+01    0.4133553    0.3293913 -22.63  0.001840776    1.226    0.184
        59  -9.6702     83.8153     81.6153   7.5952020709e+01   5.0172244947e+01    0.2137544    0.1353113  47.38 0.0009582051    1.758    0.431
        60 -13.2873      6.5381    206.2124   1.2008202483e+02   2.8701846518e+01    0.5682611    0.3999776 -57.73 0.0008229798    1.587    0.370
        61 -10.5914    162.6338     78.6130   5.3878088895e+01   3.3722840492e+01    0.4575833    0.2924909 -66.84  0.001961369    2.074    0.518
        62 -10.9422     38.6592     74.2226   9.0950751093e+01   5.8312131291e+01     0.501707    0.2476888  22.07  0.002298607    2.187    0.543
        63 -10.1377     35.8093     70.7911   9.1159268686e+01   5.9356727283e+01    0.2937592    0.1862336 -57.02  0.001368543    1.597    0.374
        64 -11.4728    147.7509     71.1760   5.4901188931e+01   3.8475895569e+01    0.4966587    0.4396591  33.30  0.002708977    1.213    0.176
        65 -10.4605    172.8813     66.1596   4.8613658819e+01   3.3419452284e+01    0.2311202    0.1878882 -74.97 0.0009640995    1.275    0.216
        66 -10.7598    182.7061    248.8479   8.6006140616e+01  -3.5474038922e+00    0.2042872    0.1446523 -13.60  0.001211402    1.435    0.303
        67 -12.1065     13.0651     59.2294   9.8013120132e+01   6.3773832679e+01    0.5218157    0.4216633 -42.55  0.002056077    1.095    0.086
        68 -10.5016     55.4458     50.6472   7.6091203804e+01   6.0790339918e+01    0.3786816     0.282792  43.45  0.002124803    1.580    0.367
        69  -9.2951     60.8362    249.1891   1.1178934288e+02   1.3498110066e+01    0.1896812    0.1365585  62.93 0.0005240369    1.235    0.190
        70 -13.2310      4.6921     55.7522   1.0102363933e+02   6.5012980375e+01    0.9872939    0.5569032 -55.33  0.003512252    1.481    0.325
        71 -11.2326     35.1391     35.8658   7.9342810752e+01   6.6074021808e+01    0.3670154    0.2542082  43.48  0.002103515    1.949    0.487
        72 -10.8861     39.6490     33.8251   7.6372921827e+01   6.5819782976e+01    0.4932576    0.4677726 -88.37  0.003285313    1.745    0.427
        73 -10.7964     59.6615     34.5787   6.8060150110e+01   6.2681829746e+01    0.3560673     0.232136 -50.30  0.001837813    2.199    0.545
        74 -10.7383     14.0323    247.0263   1.2090349894e+02   1.9212357349e+01     0.289467    0.1387427  82.66  0.001583934    1.977    0.494
        75  -8.9766     59.3668    245.1772   1.1175387426e+02   1.4489295112e+01    0.1678941    0.1051642  87.79 0.0008275055    1.717    0.418
        76  -9.9273     32.8817    244.5349   1.1710295883e+02   1.7737554709e+01    0.2468211    0.1282518  78.25   0.00132102    1.958    0.489
