#   1 NUMBER                 Running object number                                     
#   2 MAG_AUTO               Kron-like elliptical aperture magnitude                    [mag]
#   3 X_IMAGE                Object position along x                                    [pixel]
#   4 Y_IMAGE                Object position along y                                    [pixel]
#   5 X_WORLD                Barycenter position along world x axis                     [deg]
#   6 Y_WORLD                Barycenter position along world y axis                     [deg]
#   7 A_WORLD                Profile RMS along major axis (world units)                 [deg]
#   8 B_WORLD                Profile RMS along minor axis (world units)                 [deg]
#   9 THETA_WORLD            Position angle (CCW/world-x)                               [deg]
#  10 FWHM_WORLD             FWHM assuming a gaussian core                              [deg]
#  11 ELONGATION             A_IMAGE/B_IMAGE                                           
#  12 ELLIPTICITY            1 - B_IMAGE/A_IMAGE                                       
         1 -13.2643    196.6576     32.4731   6.4740864717e+01   3.2189205899e+01     1.317909    0.9976535  61.86  0.007649989    1.270    0.212
         2 -13.6748    213.6200     13.7334   5.8568240494e+01   3.0421768569e+01     1.187509    0.8804607  46.36  0.007196728    1.750    0.428
         3 -11.8046      1.9269      4.7711   1.1021063965e+02   7.2112996909e+01    0.6243673    0.2064423 -43.71  0.003315968    2.923    0.658
         4 -11.4969     63.0102    246.1655   1.3876447157e+02   1.5426136848e+01    0.3977298    0.2312823  76.67  0.001042158    1.694    0.410
         5  -9.6011    200.6617    250.3167   1.1182517169e+02  -7.7387096794e+00    0.1197837   0.09668638  59.80 0.0007048476    1.703    0.413
         6 -11.9364    140.0001    249.4998   1.2389711375e+02   2.5841255358e+00    0.5773052    0.2023195  46.28  0.002309801    2.488    0.598
         7 -11.9816    127.7868    249.1413   1.2632737086e+02   4.7213514106e+00    0.6038882    0.3456319 -79.56  0.002727185    2.877    0.652
         8 -10.1862    214.7512    247.9844   1.0870418865e+02  -9.6128329088e+00    0.1546683    0.1029535 -33.15 0.0008959174    1.618    0.382
         9  -9.8885     81.5006    249.5131   1.3555402291e+02   1.2085088627e+01    0.1277372    0.1001876  64.42  0.000810508    1.014    0.014
        10 -11.5503    109.3694    241.4895   1.2911112403e+02   9.2489088296e+00    0.4506761    0.1586031  55.45  0.001529858    3.736    0.732
        11 -14.8661     10.3118    241.8667   1.4789716631e+02   2.2746134206e+01     15.67582     5.779939 -78.32   0.05732252    2.328    0.570
        12  -9.0152    152.6978    213.0147   1.1561349365e+02   7.2570288582e+00    0.1852097    0.1807071  62.68 0.0004118358    1.079    0.073
        13 -11.4817     54.7085    238.3434   1.3964186421e+02   1.8143094695e+01    0.2827086    0.2454221  71.00  0.001158299    1.196    0.164
        14 -11.3170     49.7141    236.6099   1.4044156926e+02   1.9161913813e+01    0.2765149    0.1753552 -62.05  0.001648441    1.740    0.425
        15  -8.9595    180.2822    232.6596   1.1303358980e+02  -1.4677524534e+00    0.1277978    0.1052414  72.43  0.000701187    1.629    0.386
        16 -11.6164     58.9579    195.2053   1.3427931339e+02   2.7057098890e+01    0.3515705    0.2491071 -49.40 0.0009922567    1.667    0.400
        17  -9.4830    192.0104    193.1851   1.0334395214e+02   3.6715465334e+00    0.3778777    0.2005077 -66.31  0.001093972    5.190    0.807
        18  -8.3165    128.7152    194.2804   1.1783818700e+02   1.5806544445e+01    0.1471568    0.1108616  73.07 0.0001915496    1.517    0.341
        19  -8.5084     73.6775    189.2677   1.3010506946e+02   2.6372245520e+01    0.1427397   0.09511133  68.78 0.0002312529    1.565    0.361
        20 -11.7518     65.2473    187.5264   1.3185267251e+02   2.8001679344e+01    0.2919396    0.2520097 -55.51   0.00042957    1.299    0.230
        21  -9.1174    120.4622    188.1828   1.1872762681e+02   1.8746451681e+01    0.2626986    0.1768688  15.87  0.001070564    2.283    0.562
        22 -12.6973     31.2010    228.1918   1.4325017179e+02   2.3211037678e+01     0.310132    0.2529281 -79.19 0.0007539108    1.290    0.225
        23 -10.9065    243.7224    248.0039   1.0327298438e+02  -1.3865520079e+01    0.1752347    0.1378626  -2.80 0.0009889998    1.080    0.074
        24 -10.8604     75.6572    175.3589   1.2758279560e+02   2.9419284805e+01     0.257379    0.2308328 -74.97 0.0002849977    1.077    0.071
        25 -13.2113     62.3766    172.8446   1.3050345924e+02   3.1928878112e+01    0.5480824     0.285735 -45.68  0.001917197    2.278    0.561
        26 -11.8552     83.5906    166.2871   1.2409162194e+02   3.0411549970e+01    0.6618021    0.6258614  78.84  0.003838283    1.065    0.061
        27 -11.3953     22.8540    156.8332   1.3817556408e+02   4.0276382293e+01    0.2436779    0.1978117  32.43  0.001577203    1.491    0.329
        28 -10.0412     96.5661    150.7807   1.1776779524e+02   3.2063134886e+01    0.2857817    0.2710056  78.00 0.0008217963    1.043    0.042
        29 -12.0123     85.0770    149.8359   1.2069842593e+02   3.4216458359e+01    0.3107803    0.2569066 -43.22 0.0004767718    1.272    0.214
        30 -14.5511     37.2946    220.5302   1.4145397535e+02   2.4117916395e+01     1.880382       1.4768 -20.10  0.008766123    2.404    0.584
        31  -9.1599    134.3463    148.2414   1.0724517945e+02   2.5400647655e+01    0.2261942    0.1466079 -59.47 0.0006172038    1.670    0.401
        32 -12.3507     67.4966    143.7823   1.2439673601e+02   3.8343053065e+01    0.7221584    0.4902781  66.45  0.003071927    1.792    0.442
        33  -9.1572     99.8430    146.8941   1.1608243957e+02   3.2435960312e+01    0.2267335    0.2007346 -27.05 0.0004258923    1.283    0.220
        34  -8.5298    192.2392    144.3099   9.2783450945e+01   1.3601276737e+01     0.147861    0.1199553 -10.44 0.0002627801    1.497    0.332
        35  -9.6200    108.8922    136.3769   1.1130466668e+02   3.3312969023e+01    0.3326667    0.2351352 -17.81  0.001396819    2.076    0.518
        36 -11.6042     57.8341    133.2876   1.2517838578e+02   4.2182875631e+01    0.7358752    0.3116512 -76.30  0.002182823    4.697    0.787
        37 -10.6523     50.2658    129.9223   1.2674394819e+02   4.3912619479e+01    0.2406696    0.2088782  70.09 0.0006962973    1.266    0.210
        38 -10.4058     95.8973    133.4999   1.1428285745e+02   3.6376684366e+01    0.2722478     0.222238 -41.55 0.0006320911    1.241    0.194
        39 -14.9344      9.3867    207.7849   1.4585960885e+02   2.9901086532e+01     4.476037     2.022226 -63.15   0.01685057    2.072    0.517
        40  -9.1141    106.1355    123.2714   1.0898382737e+02   3.6930705669e+01    0.1991004    0.1885854  56.80  0.000350824    1.089    0.081
        41 -10.2000    167.6715    112.7233   9.0461547413e+01   2.5840395473e+01     0.362953    0.2787004 -83.07 0.0009950147    1.640    0.390
        42  -8.9022    203.4790    111.5083   8.2807339785e+01   1.7688139181e+01    0.1492227    0.1446073 -56.29 -1.614566e-06    1.057    0.054
        43 -11.6317    243.9821     95.7360   7.2637918551e+01   1.1668550716e+01    0.4026817    0.2034278 -50.75   0.00181231    1.839    0.456
        44  -8.9257    159.2969     77.6860   8.2978358394e+01   3.4592980992e+01     0.152729    0.1164945 -78.73 0.0003213184    1.603    0.376
        45 -10.0840      2.0000     64.9837   1.2946839757e+02   6.2158941852e+01    0.1904207     0.051915 -60.83 0.0005901855    2.956    0.662
        46  -9.9590      2.0000     47.0059   1.2497540932e+02   6.5538579128e+01    0.1817836   0.05069763 -56.52 0.0006495021    2.951    0.661
        47 -10.6615    162.5707    249.4568   1.1930621377e+02  -1.2675941725e+00     0.236206    0.1591715  33.96  0.001309017    1.303    0.232
        48 -11.4278    100.4264    248.8541   1.3178220362e+02   9.2784160716e+00    0.4150521    0.1296082  45.07  0.001668153    2.588    0.614
