#   1 NUMBER                 Running object number                                     
#   2 MAG_AUTO               Kron-like elliptical aperture magnitude                    [mag]
#   3 X_IMAGE                Object position along x                                    [pixel]
#   4 Y_IMAGE                Object position along y                                    [pixel]
#   5 X_WORLD                Barycenter position along world x axis                     [deg]
#   6 Y_WORLD                Barycenter position along world y axis                     [deg]
#   7 A_WORLD                Profile RMS along major axis (world units)                 [deg]
#   8 B_WORLD                Profile RMS along minor axis (world units)                 [deg]
#   9 THETA_WORLD            Position angle (CCW/world-x)                               [deg]
#  10 FWHM_WORLD             FWHM assuming a gaussian core                              [deg]
#  11 ELONGATION             A_IMAGE/B_IMAGE                                           
#  12 ELLIPTICITY            1 - B_IMAGE/A_IMAGE                                       
         1 -13.0514    183.4122     35.5487   6.1905262368e+01   3.5026485321e+01     1.411081     1.029819  20.03  0.004738774    1.637    0.389
         2 -11.7709    187.6704     28.9753   5.9125895005e+01   3.4724454500e+01    0.5732617    0.5654332  -4.23  0.001176663    1.031    0.030
         3 -12.0861    205.1905      4.1892   4.9192106126e+01   3.2746197594e+01    0.9492532    0.6047477  70.66  0.004552067    1.537    0.349
         4  -9.4797    178.0469    222.1498   1.0555924963e+02   7.2266148207e+00    0.2352786    0.1519097 -55.88  0.001133868    2.249    0.555
         5 -10.6267    139.5623    249.7262   1.1488538430e+02   9.6718075865e+00    0.3201311    0.1743205  47.89  0.002189518    1.333    0.250
         6 -10.7866    140.5012    245.4883   1.1432776040e+02   1.0058406092e+01    0.2360371    0.1791043  86.00  0.001820187    1.669    0.401
         7 -19.5497     30.9291    149.3271   1.2539025809e+02   4.1097386605e+01     17.22296     2.650552 -73.68   0.05293463    6.213    0.839
         8 -10.3292     88.1656    203.5409   1.1909274756e+02   2.3768590183e+01    0.3341114    0.1715197  55.63  0.001973461    1.629    0.386
         9  -9.6773     95.2959    200.8621   1.1753135513e+02   2.3220300587e+01    0.2473349    0.1622232  89.05  0.001579532    1.631    0.387
        10 -10.2541     80.1924    201.8679   1.2037897594e+02   2.5141674484e+01    0.3420819    0.1750373  74.55  0.001865585    2.266    0.559
        11 -10.8691    103.8210    199.6226   1.1583643477e+02   2.2189795637e+01     0.337623    0.1986221  42.76  0.002041023    1.522    0.343
        12  -9.1836    156.1555    199.9545   1.0633100757e+02   1.3802711309e+01    0.1881986    0.1339937  83.76  0.001088726    2.037    0.509
        13  -8.9557    208.5079    196.9777   9.6783126265e+01   5.2862883978e+00    0.1613811     0.116378 -28.43 0.0006691405    1.586    0.369
        14 -10.5515    113.4616    195.6140   1.1359496098e+02   2.1409223924e+01    0.3491164    0.2468277 -19.45  0.001824939    3.175    0.685
        15  -9.6748    192.0117    192.2062   9.8819163369e+01   8.7314727348e+00    0.3359345    0.2192138 -62.74  0.001763428    2.676    0.626
        16 -10.0290     99.6460    192.0645   1.1578008016e+02   2.4106614907e+01    0.2242035    0.1296555  57.71   0.00056829    1.522    0.343
        17 -10.0277     10.3212    213.9481   1.3310172257e+02   3.0971862446e+01    0.2224962    0.1400218  28.67  0.001643934    2.338    0.572
        18  -9.6181     99.4967    180.6861   1.1447899900e+02   2.6169324619e+01    0.1975397    0.1888058  82.02  0.000590931    1.267    0.211
        19 -10.5715     72.7170    175.0521   1.1916895848e+02   3.1038493397e+01    0.4385245    0.1440948  54.18  0.001850119    3.092    0.677
        20  -9.6555     67.8760    172.1078   1.1983582118e+02   3.2245022405e+01    0.1818459    0.1412877  71.13 0.0003393988    1.044    0.042
        21  -8.9397    124.6769    171.7059   1.0824065811e+02   2.3780623272e+01    0.1171801   0.09988695  11.80 0.0007018032    1.617    0.381
        22  -9.8153     58.3476    177.2096   1.2224086452e+02   3.2457559421e+01    0.2402002    0.1993389  58.29  0.001257728    1.225    0.184
        23  -8.5808    141.5605    169.7721   1.0456522460e+02   2.1191086119e+01    0.1697158    0.1220942 -69.36 0.0009450537    1.665    0.399
        24  -9.9912    194.9373    168.4623   9.4193998939e+01   1.1504700103e+01    0.2966087    0.2139306  40.74 0.0009929722    1.229    0.187
        25 -10.1092     95.0722    160.8802   1.1281353146e+02   3.0618791962e+01    0.2451889    0.2158402 -74.91 0.0004692978    1.189    0.159
        26 -11.1189     99.9936    153.7493   1.1072181485e+02   3.1275105836e+01    0.5166745    0.3641224 -39.72  0.002610194    1.931    0.482
        27 -10.2155    133.4827    143.1610   1.0159589931e+02   2.7573874419e+01    0.4773505    0.1686167 -55.04  0.001697666    3.371    0.703
        28 -11.0611    109.5749    140.0366   1.0634217486e+02   3.2485452412e+01    0.4760973    0.3011409 -36.99  0.002296876    2.186    0.543
        29 -10.7989     99.0631    139.2212   1.0861146221e+02   3.4402269431e+01    0.2550631    0.2336724  63.22 0.0003431442    1.121    0.108
        30 -10.0818    111.6640    217.7471   1.1633483908e+02   1.8120078903e+01     0.177315    0.1492604  45.32 0.0005683227    1.260    0.206
        31 -10.1217    105.8388    130.5915   1.0548944887e+02   3.5085756570e+01    0.4346998    0.2895874 -64.07  0.002265032    1.503    0.335
        32  -9.6171    104.6588    126.0358   1.0490234623e+02   3.6249968035e+01    0.2301733    0.2128883 -10.86 0.0006665649    1.394    0.283
        33 -10.1933    116.1466    130.0702   1.0296890456e+02   3.3386119317e+01    0.2880847    0.2214748 -35.14 0.0008434053    1.599    0.375
        34  -9.4030      8.1312    217.9874   1.3360016010e+02   3.0507596745e+01    0.1364818    0.0907563  77.36 0.0002521072    1.122    0.109
        35  -9.0059    135.0000    120.0526   9.6486332816e+01   3.1843621400e+01    0.2340671   0.08056355 -46.80 0.0008014834    2.936    0.659
        36  -8.7301    111.7510    119.3194   1.0182661160e+02   3.6426798159e+01    0.1912007    0.1268661  37.80 0.0009346522    1.658    0.397
        37 -10.5217    106.4622    210.6954   1.1652882054e+02   1.9983446119e+01     0.353762    0.1411142  51.67  0.001795208    2.104    0.525
        38  -8.7369    168.0429    113.0142   8.7573213674e+01   2.6189959744e+01    0.2433726    0.1846255 -80.33  0.001138473    1.809    0.447
        39 -10.4092    106.0121    207.0104   1.1622743681e+02   2.0643400626e+01    0.2458342    0.1631615  44.20  0.001042007    1.337    0.252
        40  -8.7112    205.9384    110.2127   7.9578624033e+01   1.8163310843e+01    0.1936889    0.1161121  52.61 0.0008666821    1.700    0.412
        41 -10.8111    172.7590     71.8200   7.5297392047e+01   3.2350470190e+01    0.4617338    0.3370039 -79.06 0.0008156043    1.871    0.465
        42  -9.3106    114.5055    209.5206   1.1497858972e+02   1.8979781603e+01    0.1154619    0.0904424  58.01 2.296112e-05    1.006    0.006
        43 -11.9451    169.0640     50.4910   6.9283864884e+01   3.6685065871e+01    0.6773009    0.4795014 -27.35  0.001830252    1.404    0.288
        44  -9.5791     93.9965    205.0241   1.1818477834e+02   2.2703117967e+01    0.2026301    0.1699209  -0.16  0.001241203    2.157    0.536
        45  -9.2225    169.0110    235.9932   1.0875068801e+02   6.9667289060e+00    0.1593779    0.1242785  44.60  0.000361055    1.057    0.054
        46 -10.2543    189.9145     14.8079   5.4222356960e+01   3.5736870639e+01    0.3396127    0.2012261  81.22  0.001481291    1.842    0.457
