#   1 NUMBER                 Running object number                                     
#   2 MAG_AUTO               Kron-like elliptical aperture magnitude                    [mag]
#   3 X_IMAGE                Object position along x                                    [pixel]
#   4 Y_IMAGE                Object position along y                                    [pixel]
#   5 X_WORLD                Barycenter position along world x axis                     [deg]
#   6 Y_WORLD                Barycenter position along world y axis                     [deg]
#   7 A_WORLD                Profile RMS along major axis (world units)                 [deg]
#   8 B_WORLD                Profile RMS along minor axis (world units)                 [deg]
#   9 THETA_WORLD            Position angle (CCW/world-x)                               [deg]
#  10 FWHM_WORLD             FWHM assuming a gaussian core                              [deg]
#  11 ELONGATION             A_IMAGE/B_IMAGE                                           
#  12 ELLIPTICITY            1 - B_IMAGE/A_IMAGE                                       
         1 -11.5664     83.8569     20.0367   5.0693454667e+01   5.9652144802e+01    0.3130288    0.3097409  68.44  0.002158849    1.251    0.201
         2 -11.4456     20.4085     16.8586   7.5445618470e+01   7.0742091388e+01     0.247104    0.2067679 -18.70 0.0007144457    1.333    0.250
         3 -12.1333    152.0448     14.4942   3.5231760363e+01   4.4689658696e+01    0.3153265    0.2202006 -13.94  0.001826898    1.924    0.480
         4 -11.0200     49.4287     14.5109   6.0242321996e+01   6.6824038693e+01    0.3008027     0.184136  35.93 0.0005565843    1.365    0.267
         5 -11.2457     35.6429     13.0490   6.5682149123e+01   6.9196203161e+01    0.3254375    0.1795692  24.72  0.001345867    1.609    0.379
         6 -10.5507     32.0020     10.9835   6.6434560341e+01   6.9970598168e+01    0.1816656    0.1398379  11.06 0.0003135491    1.025    0.024
         7 -10.8917     27.0570     12.8296   6.9878178842e+01   7.0437480421e+01    0.1965207    0.1393316  -7.67  0.001296304    1.215    0.177
         8 -12.7782    183.6410     11.6815   3.0875750297e+01   3.7772572654e+01    0.4347544    0.1655965  67.46  0.002070101    2.220    0.550
         9 -11.9196    163.8208     12.1930   3.3142225281e+01   4.2193661636e+01     0.273341     0.151308  84.82  0.001430053    1.741    0.425
        10 -12.4703    183.8357      3.3640   2.8963085782e+01   3.8535284053e+01    0.3020031    0.2657758 -75.41  0.002207735    1.158    0.137
        11 -11.0820    101.3274     10.7509   4.2810109202e+01   5.6724419906e+01    0.2787492    0.1871175 -88.28  0.001144172    2.021    0.505
        12 -11.6446     56.5864      9.5672   5.5157060855e+01   6.6058214454e+01    0.3643275    0.2428371  28.48  0.001328491    1.263    0.208
        13 -10.5494    114.1482      9.4367   3.9756921154e+01   5.3935014216e+01    0.2123427    0.1891603  44.67 0.0002954439    1.130    0.115
        14  -9.5082    213.9619      8.5137   2.7585066898e+01   3.1627806140e+01    0.1550545   0.09445793  83.46 0.0004112599    1.418    0.295
        15 -13.3516    172.9582      4.2331   3.0193834937e+01   4.0868291998e+01    0.5728919    0.3515596 -76.37  0.003356231    1.567    0.362
        16 -10.1480    124.8361      7.4169   3.7234847467e+01   5.1645412108e+01    0.2852618    0.1533739 -87.59  0.001125748    2.515    0.602
        17 -11.7692     86.5500      7.3442   4.5019795111e+01   6.0245389534e+01    0.4411841    0.1715747  45.17 0.0009012522    2.113    0.527
        18  -9.8342      3.4765      8.6508   8.1578837226e+01   7.3616900468e+01    0.1715449   0.08802812  18.87 0.0006836752    1.740    0.425
        19 -10.1891     16.7959      5.7883   7.1909016373e+01   7.2600114474e+01    0.1451907    0.1220923  13.59  0.001070343    1.378    0.274
        20 -12.3725    152.2448      2.6037   3.2033986352e+01   4.5713738893e+01    0.3693111    0.2299693  81.88  0.002157834    1.401    0.286
        21 -10.9623    132.8764      3.8454   3.4917545643e+01   5.0078032665e+01    0.3563318    0.1490551  81.93  0.001197241    2.877    0.652
        22 -11.8489    115.0885      2.0502   3.7173401737e+01   5.4305804947e+01    0.4439829    0.1632369  66.54  0.001966445    2.246    0.555
        23  -9.2972     89.3025      1.2953   4.2036684935e+01   6.0115661140e+01    0.1275993   0.07383151  38.42 0.0002254648    1.577    0.366
        24 -10.8797     11.7502    180.6562   1.1526976938e+02   3.4082208489e+01    0.3375713    0.2200711  64.11  0.001192657    1.499    0.333
        25 -10.9137     65.6614    250.4802   1.0881935874e+02   1.1922856311e+01    0.4190924    0.1159136  30.45  0.001522266    3.442    0.709
        26 -14.5453     21.5462    199.2913   1.1440945993e+02   2.8582731128e+01     1.888479     1.524735 -41.69   0.01143088    1.513    0.339
        27 -15.2531      7.8968    246.9519   1.2047722479e+02   1.9128425647e+01     1.518719    0.9089884  40.36  0.005636307    1.495    0.331
        28 -14.3486     19.3309    234.5974   1.1747461927e+02   2.0624514425e+01     1.137707    0.6215976 -83.22  0.006336892    1.717    0.417
        29 -10.6012     23.6668    178.0626   1.1192598808e+02   3.3703621156e+01    0.2482715    0.2105101   4.84   0.00147218    1.464    0.317
        30  -9.8200     28.3357    177.2874   1.1059730757e+02   3.3461409913e+01    0.1365658   0.09702295 -40.22 0.0004156037    1.630    0.387
        31 -10.7680     35.9906    175.2164   1.0828073178e+02   3.3229063106e+01    0.2434931    0.1997135 -14.24  0.001345782    1.528    0.345
        32 -10.5270     26.4884    168.9612   1.1019269036e+02   3.5793401750e+01    0.2043293    0.1219263 -72.82  0.000403154    1.483    0.326
        33 -10.6592     15.0740    167.0202   1.1313785146e+02   3.7287691618e+01    0.1969076    0.1710804 -83.29 0.0003648193    1.020    0.020
        34  -9.8925     29.4962    161.4967   1.0846362424e+02   3.7464547327e+01    0.1405008    0.1239381 -79.93 -3.272918e-05    1.013    0.013
        35 -10.9212    236.7520    147.7711   5.3731979268e+01   6.0608701504e+00    0.2241514   0.09048362 -49.08 0.0008978358    2.486    0.598
        36  -9.5681     11.1989    134.3990   1.1063470203e+02   4.6043879982e+01    0.1793581    0.1184139  37.18 0.0009482612    1.714    0.417
        37 -10.5908     17.9353    132.6362   1.0823538574e+02   4.6026370107e+01    0.2297336    0.1587901 -59.06 0.0003167458    1.227    0.185
        38  -9.1771    122.3154    121.7553   7.2135420957e+01   3.3694635495e+01    0.1526361    0.1255571  74.32 0.0002559684    1.515    0.340
        39 -11.4777    245.4843    120.0012   4.6864924440e+01   9.5234021556e+00    0.2068349     0.106087 -40.96 0.0008184006    1.590    0.371
        40 -11.6886    246.4011    101.7902   4.3113574318e+01   1.2426718267e+01    0.2765703    0.1047178 -35.40  0.001127581    2.686    0.628
        41 -10.5149    237.0000     96.4681   4.3220476621e+01   1.4960828720e+01     0.290959   0.06269489 -40.21 0.0009311365    3.906    0.744
        42  -9.6974    103.1589     96.2563   7.0840237822e+01   4.3330961452e+01    0.1931847    0.1779476 -84.94 0.0002317569    1.278    0.218
        43  -9.9114      5.1269     95.7409   1.0708289694e+02   5.6157642760e+01     0.228241    0.1109583 -34.28  0.001079724    1.986    0.497
        44  -9.0852     51.3003     95.7086   8.8911589208e+01   5.2093428442e+01    0.1351673    0.1144122  69.83 0.0002277969    1.565    0.361
        45 -10.3898    130.8186     93.0779   6.2049608133e+01   3.8111040475e+01    0.3388025    0.2072065  43.41 0.0008034537    1.637    0.389
        46 -10.0794    107.9796     89.9801   6.7529781834e+01   4.3668734981e+01    0.2506724    0.1970807  88.13  0.001143595    1.831    0.454
        47  -9.4397     16.3316     82.3064   9.9845673092e+01   5.8676795640e+01    0.1446357   0.07995118 -33.76 0.0007039044    1.662    0.398
        48  -9.6146     78.0449     78.2276   7.3732237919e+01   5.1871442443e+01    0.1847444    0.1175018  34.27 0.0002009705    1.551    0.355
        49 -10.0172     52.4930     77.4738   8.3290432912e+01   5.6048466118e+01    0.2880695    0.1344339  29.82  0.001211792    2.177    0.541
        50  -9.4733     63.9340     69.9755   7.6328405549e+01   5.5897816167e+01    0.1669353     0.145495   8.21 0.0009429726    1.066    0.062
        51  -9.3002     41.2886     69.6822   8.5590359776e+01   5.9123447854e+01    0.1223458    0.1102492  73.44 0.0002760451    1.594    0.373
        52  -9.7700      7.6406     68.8489   1.0052618264e+02   6.2269229305e+01    0.1681105    0.1106004 -68.58 0.0005579315    1.625    0.385
        53 -11.7169    192.2216     66.0660   4.2627385471e+01   2.8917255824e+01    0.2294292    0.1983449 -73.78 0.0002895763    1.052    0.050
        54  -9.7722    204.4762     65.5506   4.0800038749e+01   2.6344032960e+01    0.1343848    0.1130551 -69.69  0.000807444    1.053    0.051
        55  -9.9977     67.0098     65.2120   7.3529166192e+01   5.6312075333e+01    0.1890282    0.1667855  10.10  0.000214868    1.047    0.045
        56  -9.6198      4.1237     64.8222   1.0118078705e+02   6.3342171903e+01     0.175192    0.1128739 -32.46 0.0004144309    1.297    0.229
        57 -11.4853     99.1938     62.2612   6.1446081079e+01   5.0704514156e+01    0.3415034    0.2911739  87.03  0.001817349    1.558    0.358
        58  -9.3785     86.3236     61.3100   6.5225384700e+01   5.3489918814e+01    0.1480154    0.1058988   8.85 0.0005879916    1.652    0.395
        59 -10.0521      3.9846     59.5163   9.9914724370e+01   6.4486124300e+01    0.1742425    0.1141096   4.96  0.000891685    1.583    0.368
        60  -9.7260     77.7147     56.3358   6.6444671397e+01   5.5988021135e+01    0.1288891    0.1142237 -84.88 0.0003898664    1.626    0.385
        61  -8.9230     15.2830     51.6887   9.2050126754e+01   6.5345498756e+01    0.1062291    0.1000289  64.87 0.0003010124    1.571    0.363
        62 -10.2609    170.3103     49.9980   4.1953499376e+01   3.6242290841e+01    0.1831096     0.163671 -66.50 0.0004150457    1.086    0.079
        63  -9.9099    249.7533     44.9988   3.1781226454e+01   2.0318865047e+01    0.1530429   0.08118439 -43.13 0.0008215292    1.599    0.375
        64 -10.3561     38.8957     44.8146   7.8027017127e+01   6.4154136163e+01    0.2034497    0.1505098  -4.43 0.0005341478    1.216    0.177
        65  -9.7568    226.2874     43.3809   3.3556176356e+01   2.4997336126e+01    0.1066782    0.0960795  13.82 0.0002409488    1.736    0.424
        66 -10.5070     71.5961     42.7882   6.3613171095e+01   5.9262142057e+01    0.1765013    0.1256432 -41.18 0.0009496995    1.623    0.384
        67 -10.4575    185.9532     41.9488   3.7730008953e+01   3.3757830836e+01    0.1890383    0.1666232 -87.22  0.001205536    1.041    0.040
        68 -10.6581    151.6327     41.0626   4.2607097403e+01   4.1806364726e+01    0.2335809    0.1961273  49.08 0.0006826909    1.227    0.185
        69 -10.0054    143.1018     42.0174   4.4402371204e+01   4.3694173510e+01    0.2008736    0.1797651  72.62 0.0003021204    1.021    0.020
        70 -10.0524    159.0147     40.0105   4.1099309515e+01   4.0206521587e+01    0.2011958    0.1792517  84.38 0.0003672651    1.011    0.011
        71 -10.4660    224.5031     39.5024   3.2938853658e+01   2.5861851788e+01    0.1230135   0.09639558 -69.45 -3.83173e-05    1.031    0.030
        72  -9.5685     96.1632     38.6142   5.4129248267e+01   5.4876509060e+01    0.1904664    0.1105805  42.45  0.000396078    1.551    0.355
        73  -9.4237    198.5684     37.4578   3.5167443549e+01   3.1547685558e+01    0.1259296    0.1055511 -77.08 3.365905e-05    1.007    0.007
        74 -10.4708     40.5784     36.2195   7.3801954828e+01   6.5332039741e+01     0.227134    0.1573969  25.35 0.0005577894    1.323    0.244
        75 -10.0706    119.6540     34.9932   4.6998530362e+01   5.0060122481e+01    0.1724643    0.1671225  19.54 0.0003640037    1.124    0.111
        76 -10.3361    140.5357     32.5002   4.2094936537e+01   4.5471790804e+01    0.2069024    0.1335452  -9.94 0.0006963277    2.230    0.552
        77  -9.4011     17.5341     31.5941   8.3580888241e+01   6.8806886063e+01     0.122302   0.09461999 -10.09 0.0001426575    1.020    0.019
        78 -11.7831    153.2473     28.0149   3.8737595623e+01   4.2997134708e+01    0.2279444    0.2067926  84.33 0.0002580627    1.052    0.049
        79  -9.2342    160.6414     27.2735   3.7456298409e+01   4.1353382664e+01    0.1343601   0.08848259 -77.46 0.0007002838    1.651    0.394
        80 -10.7179     46.9109     27.0198   6.6987768478e+01   6.5721153178e+01    0.1849734    0.1507136  10.17 0.0002838857    1.024    0.024
        81 -10.4724    142.0204     22.7030   3.9000108669e+01   4.6207141332e+01    0.1855399    0.1490522  68.27 0.0004526912    1.076    0.071
        82 -10.4934    106.1367     22.3451   4.5802816615e+01   5.4556513051e+01    0.2005728     0.185132 -27.61 0.0003679029    1.251    0.201
        83 -10.7902     98.5566     23.0132   4.7860519149e+01   5.6178978574e+01    0.2416366    0.1672964  53.46 0.0004168721    1.242    0.195
        84 -10.5608     72.8441     22.5192   5.5091345778e+01   6.1631361143e+01    0.2016589    0.1698146  -1.35 0.0003654538    1.210    0.174
        85 -12.7601     67.5962    239.8391   1.0738652691e+02   1.3897833974e+01    0.4018911    0.3353804  73.38  0.001986272    1.159    0.137
        86  -9.4309     48.7387     20.0024   6.3057643203e+01   6.6314000406e+01    0.1405943   0.09949516 -20.08 0.0003196661    1.428    0.300
        87  -9.5668    117.2086     18.3949   4.2105656024e+01   5.2423694001e+01     0.174086    0.1114718  72.53 0.0002760084    1.535    0.349
        88 -12.0515     83.3100    238.0724   1.0363211999e+02   1.2177597656e+01    0.3573101    0.2198235  39.54  0.000334728    1.423    0.297
        89 -11.9439     73.9799    233.0098   1.0522548006e+02   1.4535741766e+01    0.2611157    0.1943462 -59.37  0.000779281    1.456    0.313
        90 -10.9441    128.1378     14.7826   3.8948964954e+01   5.0233659007e+01    0.3117602    0.1578876  69.87  0.001224497    1.795    0.443
        91 -12.1525     75.3906    228.1408   1.0435872432e+02   1.5422959849e+01    0.3643677    0.2192496 -45.72  0.001666159    1.988    0.497
        92 -10.9079     44.9765     12.8471   6.1337796784e+01   6.7751613563e+01    0.2454327    0.1332666  32.19 0.0008299216    1.560    0.359
        93  -9.7406    112.8220     14.1713   4.1583539231e+01   5.3825088592e+01    0.1788488    0.1289909  41.90 0.0005599593    1.314    0.239
        94 -11.3554     95.2865    229.0460   9.9757422051e+01   1.2434520982e+01    0.1874143    0.1806615  74.76 0.0007084376    1.089    0.082
        95 -14.8176     36.6929    218.5061   1.1246024981e+02   2.2421501442e+01     1.550547     1.181792 -63.67  0.008991877    1.368    0.269
        96  -9.8012    119.5418     13.5669   4.0095370351e+01   5.2336365082e+01    0.1283428    0.1066196  59.20 9.989461e-05    1.023    0.022
        97 -14.0883     18.6231    214.8054   1.1629296739e+02   2.5159347520e+01     1.710196      0.67494  50.43  0.007776578    2.317    0.568
        98 -12.2957     56.7369    210.2231   1.0685959900e+02   2.2023332529e+01    0.4330482    0.2201861 -76.02  0.001918219    2.097    0.523
        99 -10.7232     78.5054    213.0147   1.0179427859e+02   1.8468337874e+01    0.2115081    0.1369281 -66.23  0.001036014    1.599    0.375
       100 -14.3415      8.0050    221.0455   1.1903276781e+02   2.4721070502e+01     2.614694     1.197715  10.27   0.01086815    4.115    0.757
       101  -9.7379      1.5921    211.2521   1.1983604502e+02   2.7519417530e+01    0.1622945    0.1287181  67.17 0.0005914103    1.088    0.081
       102 -12.0304      9.0175    200.0035   1.1743731751e+02   2.9545036581e+01    0.5059738    0.2675659 -77.70   0.00144833    1.644    0.392
       103 -11.2114      2.4335    206.1174   1.1934223669e+02   2.8645576777e+01    0.4186117    0.2615206 -67.49  0.001499154    1.511    0.338
       104 -11.9340      3.5593    199.9169   1.1869383568e+02   3.0021588378e+01    0.4661163    0.2116079  65.08  0.001556231    2.205    0.547
       105 -10.2323     45.5801    197.7723   1.0829313293e+02   2.6418868155e+01    0.2570935    0.1174847 -64.22 0.0009559908    2.025    0.506
       106 -14.9308     53.2717    233.1685   1.0997645840e+02   1.7153560381e+01     1.810364     1.368206  41.38   0.01088078    1.214    0.176
       107 -15.2879     32.2527    236.7479   1.1488798352e+02   1.8798950591e+01     2.298168     1.277078  56.67   0.01257406    1.602    0.376
       108 -10.3047    238.4993    194.4956   6.2548165767e+01  -2.3950152492e+00     0.129388    0.1038217 -22.78 -4.909549e-05    1.042    0.041
       109 -13.2994      3.8197    231.1754   1.2047418133e+02   2.2852297469e+01    0.6085625    0.3795775  48.26  0.001929954    1.392    0.282
       110 -12.2100      8.1130    187.8118   1.1675642650e+02   3.2593944673e+01    0.5034582    0.2826101 -49.64  0.001789299    1.977    0.494
       111  -9.8942     53.0337    185.3192   1.0486918878e+02   2.8685767854e+01     0.192815    0.1797281  65.26  0.000623923    1.061    0.057
       112 -10.9496    244.9478    181.9059   5.9084997947e+01  -1.1231728021e+00    0.3290895    0.1493965 -55.11  0.001155308    4.460    0.776
