#   1 NUMBER                 Running object number                                     
#   2 MAG_AUTO               Kron-like elliptical aperture magnitude                    [mag]
#   3 X_IMAGE                Object position along x                                    [pixel]
#   4 Y_IMAGE                Object position along y                                    [pixel]
#   5 X_WORLD                Barycenter position along world x axis                     [deg]
#   6 Y_WORLD                Barycenter position along world y axis                     [deg]
#   7 A_WORLD                Profile RMS along major axis (world units)                 [deg]
#   8 B_WORLD                Profile RMS along minor axis (world units)                 [deg]
#   9 THETA_WORLD            Position angle (CCW/world-x)                               [deg]
#  10 FWHM_WORLD             FWHM assuming a gaussian core                              [deg]
#  11 ELONGATION             A_IMAGE/B_IMAGE                                           
#  12 ELLIPTICITY            1 - B_IMAGE/A_IMAGE                                       
         1 -14.9082    166.3196     41.9555   7.5628201560e+01   3.8387770158e+01     1.312125     1.093441  -1.22  0.004051278    1.390    0.281
         2 -14.8179    183.8144      8.7979   6.3167834382e+01   3.7802847329e+01     1.719843    0.9078414  62.42  0.006211678    1.707    0.414
         3 -13.2978    210.4589    187.4890   1.0392235923e+02   3.3573395021e+00    0.7760619    0.4129625 -60.29  0.002475351    5.695    0.824
         4 -20.0216     67.6742    173.6295   1.3226634740e+02   3.0988406132e+01     17.43699     6.657437 -67.16   0.07332741    2.553    0.608
         5 -12.4378    206.2019    178.0533   1.0287885713e+02   5.6466053032e+00     0.566579    0.3350444  14.95  0.002433465    2.448    0.592
         6 -12.2592    203.5215    174.5202   1.0268240730e+02   6.7340608644e+00    0.3560088    0.2543417 -51.49  0.001392844    1.708    0.415
         7 -12.7788    203.7404    169.1101   1.0153599738e+02   7.6057913803e+00    0.8554178    0.5086052 -47.62  0.004004742    1.927    0.481
         8 -11.3070    125.0458    243.5556   1.2893707866e+02   8.8536780303e+00    0.1470548    0.1348995  83.62  0.001080473    1.230    0.187
         9 -10.3108     13.5803    239.7194   1.4813622479e+02   2.3996229297e+01    0.2651396    0.1401738  88.67  0.001832249    1.580    0.367
        10 -11.4983    119.0121    240.3208   1.2968667710e+02   1.0299637480e+01    0.1847287    0.1476602 -75.76 0.0008843687    1.451    0.311
        11 -12.3792    199.1765    178.8936   1.0439432012e+02   6.8169786961e+00    0.4763339    0.2854774 -60.26  0.001581621    2.887    0.654
        12 -13.2442    195.2298    168.7540   1.0312070673e+02   9.3105846983e+00    0.4954199    0.3977463 -34.36 0.0007404627    1.266    0.210
        13 -12.3294    192.6723    164.1939   1.0268043097e+02   1.0619457321e+01    0.4525512    0.3101671  32.95  0.001598911    1.464    0.317
        14 -11.9650      9.7515    175.0548   1.4508354840e+02   3.7055169810e+01    0.1989379    0.1538862  58.82 0.0007410217    1.264    0.209
        15 -12.6256    136.7150    170.3666   1.1587951699e+02   2.0386978353e+01    0.4791817    0.3530564  57.82  0.001535037    1.399    0.285
        16 -11.1270    126.4021    172.5533   1.1860690364e+02   2.1833288035e+01      0.31454    0.2279577  68.54  0.001577549    1.578    0.366
        17 -11.9981    164.5424    171.1852   1.0992488830e+02   1.4872810738e+01     0.355953    0.2379979 -77.80  0.001296824    2.636    0.621
        18 -10.9378      7.9757    239.7321   1.4903223235e+02   2.4550448642e+01    0.1316049   0.09049433  76.73 0.0008568921    1.081    0.075
        19 -12.3404    177.0859    170.1390   1.0707682021e+02   1.2611800141e+01    0.3172019    0.2051415 -46.30  0.001525503    1.650    0.394
        20  -9.3389    154.2951    239.6296   1.2306067099e+02   4.8692338137e+00    0.1188481   0.08618969  67.77 0.0007027887    1.729    0.422
        21 -11.9689    230.1969    166.8835   9.6203451830e+01   3.0303854679e+00    0.2914977    0.1755436 -44.20  0.001434395    1.842    0.457
        22 -11.5841    142.0490    165.3292   1.1372280953e+02   2.0416678785e+01    0.2707262    0.2109074 -61.56 0.0006543698    1.393    0.282
        23 -10.6698     19.5384    231.7720   1.4676024256e+02   2.4813533115e+01    0.3596812    0.1216838 -69.65  0.001954586    2.750    0.636
        24 -11.3562     15.2280    164.0120   1.4306010457e+02   3.8981211745e+01    0.3803681    0.2484061 -10.28  0.002092741    3.057    0.673
        25 -10.4285      2.0623    165.1970   1.4599179457e+02   3.9808705623e+01    0.1476836    0.1216601 -82.93  0.000352149    1.187    0.157
        26 -11.9870    114.6817    161.1677   1.1928845223e+02   2.6395705737e+01    0.4837818     0.261516  59.17  0.001139082    2.294    0.564
        27 -11.3833    189.1778    158.3054   1.0213248809e+02   1.2384157116e+01    0.2874871    0.2133893  15.22 0.0009820301    1.577    0.366
        28 -11.6392     13.3704    233.3141   1.4786322678e+02   2.5161118520e+01    0.1697654    0.1099269  81.08 0.0006688705    1.183    0.154
        29 -12.4473    134.6875    109.3821   1.0276669188e+02   3.3912805912e+01      1.20522    0.1812594 -45.28  0.002556294    6.590    0.848
        30 -14.6239    132.6031    144.9845   1.1178515771e+02   2.6595021702e+01     1.301637    0.7350457 -59.10  0.004590915    2.012    0.503
        31 -13.8004    135.8096    127.6128   1.0707249160e+02   2.9741595341e+01     1.836699    0.3105921 -49.48    0.0038012    7.246    0.862
        32 -10.1655    176.9522    154.9490   1.0393165486e+02   1.5506222521e+01    0.2167653    0.1799518  89.99 0.0005281042    1.590    0.371
        33 -10.1913     14.2283    221.7938   1.4712992172e+02   2.7200414022e+01    0.1280858   0.09015173 -77.74 0.0004468501    1.413    0.292
        34 -11.4998    174.3098    148.6872   1.0311722168e+02   1.7265362125e+01     0.345506    0.2758159 -72.69  0.001367052    1.612    0.380
        35 -13.1624    144.3075    145.5634   1.0913496874e+02   2.4125262745e+01    0.5192876     0.411829  85.51  0.002176304    1.586    0.370
        36 -13.1591    142.3775    139.0449   1.0814139948e+02   2.5912311483e+01    0.4979008    0.3787842 -63.17  0.002401519    1.456    0.313
        37 -10.7561      7.7028    221.1319   1.4821143845e+02   2.7958302222e+01    0.1307095   0.09658061  86.10 0.0004564233    1.167    0.143
        38 -10.3815    130.7030    213.5730   1.2410409809e+02   1.3039294117e+01     0.188054    0.1384557 -87.57 0.0006294824    1.713    0.416
        39 -10.8026    112.0599    214.2903   1.2794442231e+02   1.5943002385e+01    0.1602117    0.1330026  63.17 0.0003513403    1.071    0.067
        40  -9.9231    170.3161    136.6829   1.0123391626e+02   2.0484348333e+01     0.151849    0.1217843 -85.37 0.0003441252    1.651    0.394
        41 -13.0011    107.4265    207.5157   1.2802133861e+02   1.7965087623e+01    0.5024087    0.3300071 -79.34  0.001917811    1.786    0.440
        42 -12.2200    160.3897    127.9104   1.0133739864e+02   2.4419463639e+01    0.4339028    0.3025297 -49.85  0.001820687    1.475    0.322
        43 -10.4074      1.5590    214.1308   1.4892100047e+02   2.9852245900e+01    0.1302444   0.07656203 -70.68 0.0008948751    1.692    0.409
        44 -10.0655    115.6950    209.7882   1.2662790903e+02   1.6205384799e+01    0.1147372   0.09354546  24.87 0.0002635927    1.460    0.315
        45 -11.0027    153.6294    194.9888   1.1656398688e+02   1.2443177167e+01    0.3174526    0.2497748 -77.49  0.001745969    1.636    0.389
        46 -13.1312     31.4279    118.8784   1.3385526214e+02   4.7892982104e+01    0.5118152    0.3854945  21.82  0.001248062    1.670    0.401
        47 -12.5709    132.1621    129.1746   1.0834379315e+02   3.0150308643e+01    0.3193996      0.27891 -29.84 0.0007818215    1.232    0.188
        48 -12.8992    162.7292    201.5867   1.1580430406e+02   9.6260327429e+00    0.5773488    0.3662467 -74.16  0.002149311    2.920    0.658
        49 -10.9774    167.7066    112.8274   9.5903931039e+01   2.5822162555e+01    0.3996027    0.2781055 -87.22   0.00159489    2.347    0.574
        50 -13.0231    113.9874    110.2260   1.0839765756e+02   3.7990301294e+01    0.3234798    0.3052714  77.25 0.0004401365    1.110    0.099
        51 -11.4884    157.5356    199.5603   1.1652262088e+02   1.0912482855e+01    0.3374498     0.214872  57.20 0.0006436163    1.763    0.433
        52 -10.4194    139.5131    249.9155   1.2703189138e+02   5.6499266164e+00    0.1394075    0.1177102 -56.66  0.000499376    1.484    0.326
        53 -10.8696    205.4372    110.1749   8.7678152735e+01   1.7686428011e+01    0.3172419     0.213793  42.27 0.0009229961    1.576    0.365
        54 -10.5663     19.1002    108.6447   1.3588369046e+02   5.1326965315e+01    0.1574462    0.1442204 -56.04  0.001109421    1.194    0.162
        55 -11.9741     16.4177    250.0228   1.4816357320e+02   2.1921835970e+01    0.1585408    0.1200005  67.62 0.0008721876    1.166    0.142
        56 -13.1565    180.5754    193.6411   1.1084639496e+02   7.7680432230e+00    0.4491125    0.3423969 -64.82  0.001814288    1.800    0.445
        57 -12.0225    169.6708    195.3678   1.1334152853e+02   9.4598018379e+00    0.2139053    0.1888477  75.72  0.001266294    1.364    0.267
        58 -13.8159    165.7554    188.5153   1.1292798263e+02   1.1401104148e+01    0.6008278    0.4175844  38.01  0.003163101    1.333    0.250
        59 -14.3436    174.1362    187.7334   1.1106807830e+02   9.9816759706e+00    0.8702388    0.5864244 -31.42  0.004459723    1.681    0.405
        60 -14.5036    154.6292     56.5596   8.2453344027e+01   3.9186912490e+01     1.291476     1.106141  58.60  0.001022697    1.156    0.135
        61 -12.5226    170.3845    183.2431   1.1100676762e+02   1.1492576253e+01    0.3887419    0.2533777  34.19   0.00122954    1.497    0.332
        62 -12.9508    170.5840     33.8895   7.2422419470e+01   3.8361833385e+01    0.4020043    0.3623424  12.80 0.0008869018    1.246    0.198
        63 -10.9173     13.5202     59.9604   1.2854738949e+02   6.2604579482e+01    0.1797163    0.1625219  56.28 0.0004308679    1.435    0.303
        64 -10.4174    111.9093    196.8389   1.2564537265e+02   1.9340870131e+01    0.3625441    0.2152516  18.20  0.001489585    3.214    0.689
        65 -10.6618    118.9189     33.3044   8.2489039518e+01   5.1142465772e+01    0.2016568    0.1727466  47.92   0.00050886    1.126    0.112
        66 -10.8252    137.9436     31.6157   7.7621511557e+01   4.6833540105e+01    0.3092279    0.2083059  76.83   0.00145881    1.751    0.429
        67 -10.2562    150.7157    245.3413   1.2444808925e+02   4.5856449460e+00    0.1417963    0.1144203  27.99 0.0003782078    1.227    0.185
        68 -10.6412    133.7376    247.0611   1.2774826890e+02   6.9700113372e+00    0.1366308    0.1267913  58.28  0.000340515    1.177    0.150
