#   1 NUMBER                 Running object number                                     
#   2 MAG_AUTO               Kron-like elliptical aperture magnitude                    [mag]
#   3 X_IMAGE                Object position along x                                    [pixel]
#   4 Y_IMAGE                Object position along y                                    [pixel]
#   5 X_WORLD                Barycenter position along world x axis                     [deg]
#   6 Y_WORLD                Barycenter position along world y axis                     [deg]
#   7 A_WORLD                Profile RMS along major axis (world units)                 [deg]
#   8 B_WORLD                Profile RMS along minor axis (world units)                 [deg]
#   9 THETA_WORLD            Position angle (CCW/world-x)                               [deg]
#  10 FWHM_WORLD             FWHM assuming a gaussian core                              [deg]
#  11 ELONGATION             A_IMAGE/B_IMAGE                                           
#  12 ELLIPTICITY            1 - B_IMAGE/A_IMAGE                                       
         1 -16.5861     56.5605     92.3808   7.0214437963e+01   5.2137565292e+01      1.80311    0.5231963 -55.98  0.006023243    3.202    0.688
         2 -16.9114     32.8314     82.3665   7.8273090006e+01   5.7369297565e+01      1.80602    0.6818029 -66.35  0.007055797    2.549    0.608
         3 -16.2675    114.3048     65.2106   4.1627189026e+01   4.6889639050e+01     1.379664    0.8078946 -35.34  0.005884327    1.856    0.461
         4 -17.0738    163.5209     16.8147   1.5566686918e+01   4.1005414812e+01     1.759162     1.259364  32.66   0.00915562    1.691    0.409
         5 -17.7013    154.9764     60.3042   3.0312877093e+01   3.7751969181e+01     2.112415     1.724071  65.06  0.007160009    1.210    0.174
         6 -17.3733    152.4877     42.6976   2.5360204348e+01   4.0849654282e+01     1.496434     1.208028 -41.31  0.006228481    1.283    0.220
         7 -15.7839     51.2095     51.9713   6.1318537400e+01   6.2256866151e+01     1.261576    0.6328934 -58.34  0.005247165    2.298    0.565
         8 -16.4770    129.2125     47.7724   3.1817553249e+01   4.6094837066e+01     2.341643    0.7939312 -30.22   0.00762727    3.362    0.703
         9 -15.3960     28.9050     36.9471   6.8384112398e+01   6.8442195874e+01      1.13969    0.5671912 -36.30   0.00508151    2.137    0.532
        10 -16.3037     80.6373     17.8790   3.3442970185e+01   6.2439121670e+01     1.193777    0.7539752  40.21  0.005741598    1.494    0.331
        11 -15.4114    201.6785      8.3120   9.4854836233e+00   3.2476627522e+01    0.7964647     0.545135 -15.53  0.004565116    1.677    0.404
        12 -16.2216    189.2548      3.8767   9.2730726309e+00   3.5791691919e+01     1.030861    0.5013549  71.59  0.005019705    1.905    0.475
        13 -14.2194    153.9244      2.9568   1.2297821850e+01   4.4781886797e+01    0.3954207    0.2248664  83.95  0.001876844    1.671    0.402
        14 -13.9302      6.3068      2.3127   7.0821436206e+01   7.7667635951e+01    0.3347269    0.1067074  16.32   0.00135876    3.224    0.690
        15 -16.5791     65.7006     97.7028   6.7823956131e+01   4.9543356082e+01     1.783248    0.9207084 -71.35    0.0066566    2.626    0.619
        16 -13.9016    109.5035    240.4909   7.6172459016e+01   1.4317964364e+01    0.4122375     0.356767 -49.71  0.003120918    1.566    0.361
        17 -14.9715    117.0973    249.0099   7.5411280567e+01   1.2149252075e+01    0.8880845    0.2700425  35.75  0.004222461    2.252    0.556
        18 -14.3397    122.8507    244.3319   7.3769073551e+01   1.2087222924e+01    0.4027013    0.2458605  33.04  0.001623516    1.192    0.161
        19 -17.1719    163.0973    204.7960   6.0423262886e+01   1.2289430621e+01     1.633425     1.143254  45.34   0.00783297    1.636    0.389
        20 -16.4113    195.1821    214.4710   5.5601275899e+01   6.5101159419e+00     1.086295    0.7910439 -15.47  0.005291826    1.365    0.267
        21 -15.3709     57.7829    216.9636   8.5673610437e+01   2.4418415229e+01    0.4741718    0.2713383  77.47  0.002676784    2.188    0.543
        22 -15.9361    117.4165    207.5780   7.0819773807e+01   1.8469938618e+01    0.9345998    0.4949785  39.76  0.003865849    1.562    0.360
        23 -15.0936    248.1795    198.9820   4.4279332274e+01   1.5543302503e+00    0.6527576    0.3473343 -26.45  0.004264279    1.724    0.420
        24 -17.1824    165.5611    122.3334   4.4464891781e+01   2.5194007955e+01     2.321274     1.898529  58.27   0.01257616    1.410    0.291
        25 -17.0257    183.8698    173.0215   5.0960784981e+01   1.3768466640e+01     2.522903      1.91207  43.93   0.01172274    1.494    0.331
        26 -15.8675    189.0257    137.5081   4.3033261522e+01   1.8238698962e+01     1.468982    0.9498326  -3.58  0.007228417    1.941    0.485
        27 -17.2130    115.6810    165.3160   6.5190993152e+01   2.6434281865e+01     1.337667    0.6946769 -49.89  0.006128813    2.197    0.545
        28 -16.5623    107.1168    175.1305   6.8934194860e+01   2.5876767841e+01     0.678597    0.5909764  46.65  0.003806227    1.147    0.128
        29 -16.9685     91.5379    166.9715   7.1880583006e+01   2.9877456609e+01     1.349626    0.9754817  78.46   0.00702015    1.823    0.451
        30 -15.7348    131.3729    155.1729   5.9406805235e+01   2.5726387847e+01    0.5934637    0.3958419  30.56  0.002987226    1.353    0.261
        31 -15.4038    104.7327    151.8159   6.5845374383e+01   3.0967354829e+01    0.6432813    0.3824737  44.67  0.003013692    1.575    0.365
        32 -15.2521     99.8976    139.0083   6.4916278055e+01   3.4501829548e+01    0.7985495     0.573694 -79.54  0.003827526    1.897    0.473
        33 -17.3369    108.4211    129.3223   6.0513746310e+01   3.5083579398e+01     2.315053     1.782825  56.87   0.01145491    1.418    0.295
        34 -15.9667    243.8194    122.2978   3.1068315658e+01   1.0952513959e+01    0.8217357    0.6106604 -23.78  0.005479896    1.161    0.138
        35 -16.9024     27.6615    113.6885   8.5100316218e+01   5.0082188046e+01     1.362716    0.6858996 -75.44  0.006296683    1.976    0.494
        36 -15.7415     45.6606    118.1197   7.9089532048e+01   4.7217074123e+01    0.7514647    0.3974328 -65.13  0.003439985    1.888    0.470
        37 -15.9587    162.1725     91.6526   3.7652357237e+01   3.1096519751e+01     1.343357     0.920751  65.29  0.005484832    1.726    0.421
        38 -17.4820    136.6317    224.7054   6.8691985697e+01   1.3107340738e+01     1.925894     1.296651 -76.96    0.0105101    3.078    0.675
        39 -14.4033      7.0539     94.0468   9.1097700195e+01   5.6325047580e+01    0.3757738    0.2218691  55.76  0.001950813    1.759    0.432
        40 -16.7093    204.2196     74.1287   2.5884694244e+01   2.4440961853e+01     1.670271     1.100337  54.06  0.007775018    1.569    0.362
        41 -15.7604      6.5956     76.7327   8.9525882640e+01   6.0610694547e+01    0.9457952    0.4733301  86.27   0.00438411    2.178    0.541
        42 -17.1026    142.2606    203.9385   6.4743915113e+01   1.5473096609e+01     1.618822     1.022983 -42.28  0.008649608    1.904    0.475
        43 -15.3462    201.2131    238.7128   5.7962123175e+01   2.9377702717e+00    0.3861449    0.3609487   9.52  0.003160759    1.713    0.416
        44 -14.6862    128.0263    239.3517   7.2178793478e+01   1.2130773360e+01    0.3153099    0.2879633 -67.11  0.002421166    1.603    0.376
        45 -14.1083    249.0702    234.5742   4.9534041939e+01  -2.0442153586e+00    0.2875439    0.1715473  -4.63  0.002158502    1.326    0.246
        46 -15.7507     76.8546    132.6149   7.0815010728e+01   3.9633796528e+01     1.217942    0.8702297  71.85  0.005719214    1.725    0.420
        47 -15.7446     68.9264    156.4569   7.6852752805e+01   3.5335584013e+01    0.9328379    0.5889343  85.40   0.00344025    2.082    0.520
        48 -15.3688    217.1111    225.3476   5.3329446594e+01   2.4743109314e+00    0.5613032    0.3701386  14.90  0.003564723    1.110    0.099
        49 -17.4656     70.2254    177.7921   7.9053124503e+01   3.0568296319e+01     1.466174     1.132446 -83.35   0.00869996    1.496    0.331
        50 -15.4800      3.8767     47.4361   8.6833916189e+01   6.7826743216e+01    0.6448849    0.3245662 -67.96  0.002955525    1.759    0.432
        51 -15.9136     11.7437     43.8630   8.1280163820e+01   6.8294669170e+01      0.73493    0.5538273 -24.31  0.003586973    1.287    0.223
        52 -16.5622     43.4205     56.1663   6.6657252354e+01   6.2427584939e+01     1.165291    0.7203841 -48.05  0.004550524    1.577    0.366
        53 -16.7591     82.8084    220.2251   8.0155158302e+01   2.0901609764e+01     1.834803    0.9569036  71.28  0.008559412    3.277    0.695
        54 -17.6111     63.0535    199.9601   8.3076351715e+01   2.6996406931e+01     1.543602    0.8762554  64.08   0.00580519    2.002    0.501
        55 -17.9589     50.3183    145.8169   8.1177746795e+01   4.0070550886e+01     2.133816     1.848744  -6.16    0.0118431    1.341    0.254
        56 -17.5570     59.8424    119.2347   7.4212156260e+01   4.5206149385e+01     2.343829     1.348631 -73.87   0.01046679    2.012    0.503
