#   1 NUMBER                 Running object number                                     
#   2 MAG_AUTO               Kron-like elliptical aperture magnitude                    [mag]
#   3 X_IMAGE                Object position along x                                    [pixel]
#   4 Y_IMAGE                Object position along y                                    [pixel]
#   5 X_WORLD                Barycenter position along world x axis                     [deg]
#   6 Y_WORLD                Barycenter position along world y axis                     [deg]
#   7 A_WORLD                Profile RMS along major axis (world units)                 [deg]
#   8 B_WORLD                Profile RMS along minor axis (world units)                 [deg]
#   9 THETA_WORLD            Position angle (CCW/world-x)                               [deg]
#  10 FWHM_WORLD             FWHM assuming a gaussian core                              [deg]
#  11 ELONGATION             A_IMAGE/B_IMAGE                                           
#  12 ELLIPTICITY            1 - B_IMAGE/A_IMAGE                                       
         1 -14.8412    170.1519    181.1507   1.1166021406e+02   1.0786500284e+01     4.342864     3.901157 -61.20   0.02384794    1.189    0.159
         2  -9.4321      6.3571     11.8190   1.1550296125e+02   7.0356186512e+01    0.2436702   0.08123368 -29.69  0.001174617    2.964    0.663
         3 -10.3980    173.0193      3.0009   6.5111585353e+01   4.1247237533e+01     0.298201    0.1263834  68.65  0.001329606    2.002    0.500
         4  -9.4801     99.5030      2.5013   7.8056935737e+01   5.8073188647e+01    0.1235268    0.1028171  35.21 0.0008106299    1.017    0.017
         5  -9.1761     54.9268    241.9740   1.4338765994e+02   1.8193438299e+01    0.3238363    0.1460451 -77.13  0.001750078    2.178    0.541
         6 -12.3696    246.5232    233.3382   1.0650097139e+02  -1.1785231519e+01     1.363288    0.6887445 -11.69   0.00611618    3.022    0.669
         7  -7.9384     68.2966    250.6372   1.4182170852e+02   1.4763304440e+01    0.1250422   0.06776665  71.04 0.0007032351    1.714    0.416
         8  -8.8391     34.4862    249.9540   1.4734397983e+02   1.9289614389e+01    0.1536372    0.0875992 -79.67  0.001019322    1.564    0.361
         9  -8.7979     26.8274    249.9944   1.4855361230e+02   2.0185367800e+01    0.1748394    0.1008108  72.35  0.001185306    1.301    0.231
        10  -8.9267     20.3766    249.8872   1.4954686256e+02   2.0938688363e+01    0.1808328    0.1679875  54.21  0.001516463    1.737    0.424
        11 -10.7272     21.7165    238.7243   1.4866614231e+02   2.2856271079e+01    0.7802727    0.2423599 -71.44  0.003992983    2.763    0.638
        12 -10.7549     15.5299    243.0996   1.4990589774e+02   2.2716809929e+01     0.853259    0.1620942 -70.96  0.003674353    4.133    0.758
        13 -11.0998     32.7741    216.1487   1.4519191726e+02   2.6042092372e+01     1.012687    0.4529769  77.23     0.005043    2.388    0.581
        14 -13.4974      7.5892    227.7558   1.5027388849e+02   2.6448222517e+01     2.872035     1.176591 -66.93    0.0168117    2.268    0.559
        15  -9.4338     55.3731    223.4578   1.4171842920e+02   2.1754939287e+01    0.3000719    0.1861347 -87.06  0.001335982    1.437    0.304
        16 -11.2760    243.9624    245.0466   1.0896294964e+02  -1.2882446122e+01     0.534633    0.2693553 -13.43   0.00255434    2.838    0.648
        17 -10.9673     23.8133    229.5814   1.4772903832e+02   2.4376296075e+01    0.7668881    0.3036398  66.16  0.003963304    2.396    0.583
        18  -9.6205     45.6113    221.5537   1.4332694792e+02   2.3397300142e+01    0.3032368    0.1778715 -79.31  0.001189968    1.495    0.331
        19  -8.6154     64.5010    222.0295   1.3989190953e+02   2.0807622288e+01    0.1794598    0.1062909 -75.91 0.0007268488    1.580    0.367
        20 -11.8072     17.5998    192.0214   1.4604085654e+02   3.2723464488e+01     1.673094     0.581317  80.25  0.005515895    5.547    0.820
        21 -10.5320    248.4071    250.0070   1.0901540410e+02  -1.4130694385e+01    0.6147273    0.1969572  36.81  0.002787132    2.694    0.629
        22 -11.2268     13.5905    204.8105   1.4776435467e+02   3.0432716886e+01     1.098973    0.2519536  55.57  0.004161555    4.656    0.785
        23 -13.7056    166.5373    203.7052   1.1664336980e+02   7.0645754313e+00      1.74432    0.9769487  29.54  0.007457711    2.175    0.540
        24  -8.9624     46.0082    246.2962   1.4522134083e+02   1.8540035894e+01    0.1900855     0.128962  86.65 0.0008645724    1.211    0.175
        25  -8.8025    120.5598    180.2802   1.2253456569e+02   2.0770863343e+01    0.1941599    0.1354167 -46.96 0.0009418997    1.572    0.364
        26  -8.7582     38.5269    242.0055   1.4614759857e+02   2.0274787797e+01    0.1600942   0.09014511 -82.12  0.000705534    1.554    0.356
        27  -8.7126    214.9779    181.9723   1.0261024446e+02   1.5848192010e+00    0.2172227    0.2062785  -4.85 0.0008322796    1.047    0.045
        28  -8.6063     36.2729    186.2239   1.4183372839e+02   3.2016991842e+01    0.1745724    0.1130103  75.12  0.000644249    1.395    0.283
        29  -8.9642    196.6956    210.6336   1.1176215506e+02   6.8702736072e-02    0.2308248    0.1644389 -25.16 0.0007540111    1.610    0.379
        30  -9.3097     45.6247    238.6973   1.4471480920e+02   2.0020268024e+01    0.2581906    0.1533646  81.31  0.001154545    1.428    0.299
        31  -8.2640     61.3006    202.9523   1.3853689575e+02   2.5246315509e+01    0.1786635    0.1390163  88.38 0.0006928848    1.071    0.066
        32  -9.3803    208.5290    168.4928   1.0105358590e+02   5.3425724458e+00    0.2962935    0.1414138 -41.72  0.001015379    2.096    0.523
        33  -8.8819     35.7267    202.3923   1.4348153865e+02   2.8571517617e+01     0.217583    0.1164576 -87.75 0.0008672922    1.673    0.402
        34  -9.9690     31.3729    202.6490   1.4432906482e+02   2.9011034674e+01    0.2971898    0.1605563 -87.92  0.001254459    1.610    0.379
        35  -8.1252     45.4320    202.4493   1.4161797839e+02   2.7404901836e+01    0.1249452   0.09369358  80.97  0.000241105    1.061    0.057
        36 -13.8830      4.9861    130.7248   1.4274961243e+02   4.7296484275e+01     4.081385    0.6418511 -69.60   0.01370675    4.423    0.774
        37 -10.8856    139.6006    162.0847   1.1468222923e+02   2.1153316982e+01    0.3021981    0.2741175  -7.03   0.00137346    1.336    0.251
        38  -8.0964     53.4721    199.5093   1.3973412821e+02   2.7027225328e+01    0.1293423   0.09764992  79.88 0.0008083946    1.089    0.082
        39  -9.7094    206.4491    197.2886   1.0733541893e+02   5.2823984862e-01    0.2751239    0.2353583 -36.34  0.001104973    1.235    0.191
        40  -9.2271     45.1445    213.4069   1.4269738641e+02   2.5127330639e+01    0.2300292    0.1432788 -88.49 0.0008952108    1.373    0.272
        41  -9.7872     64.6622    234.9419   1.4108178948e+02   1.8220648163e+01     0.479409    0.2168166 -74.57  0.002482491    2.227    0.551
        42 -10.1879    200.2570    155.5650   9.9889563412e+01   9.5703588505e+00    0.2871035    0.2400329 -76.16 0.0009610154    1.468    0.319
        43  -8.8389     69.6322    213.3679   1.3801894914e+02   2.1872910346e+01     0.232319    0.1402783 -69.44  0.001306908    1.577    0.366
        44 -10.5954    125.3664    195.4948   1.2402273923e+02   1.6563364800e+01    0.4154453    0.2591844  22.54  0.001750641    2.574    0.612
        45  -8.5046     33.9776    196.4878   1.4328102535e+02   3.0035106408e+01    0.1642076   0.07338811  60.85 0.0006751709    2.245    0.555
        46  -9.4283     48.8544    231.1552   1.4355634141e+02   2.1070215477e+01     0.276662    0.1545597 -88.07  0.001390401    1.627    0.385
        47 -11.0431     17.7579    141.9613   1.4101990951e+02   4.3809130865e+01    0.3268079    0.2078152 -88.64  0.001531228    1.437    0.304
        48  -9.7895    137.9322    151.3170   1.1281372831e+02   2.3924552729e+01    0.2232788    0.1964037  47.86 0.0009763807    1.139    0.122
        49  -9.1057     40.8090    230.3441   1.4489471232e+02   2.2238803674e+01    0.2076164    0.1363007 -79.65  0.000779921    1.352    0.261
        50 -10.4740    184.7995    148.4708   1.0150727147e+02   1.4381717206e+01    0.2988727    0.2471281 -80.84 0.0009003175    1.463    0.317
        51  -9.5083     36.0122    208.6158   1.4397544462e+02   2.7225007061e+01    0.2821105    0.1529167  67.36  0.001032637    1.671    0.402
        52  -9.0462     39.3236    194.0879   1.4200272895e+02   2.9942915719e+01    0.2473267    0.1403366  75.39  0.001068636    1.697    0.411
        53 -10.8408    168.4805    138.8141   1.0283947637e+02   2.0069186387e+01    0.3140375    0.2623711  71.88  0.001520017    1.321    0.243
        54 -11.3348    202.7426    191.0350   1.0684916143e+02   2.3457893185e+00     0.541503    0.3143053 -21.07   0.00225169    2.472    0.596
        55 -11.0192    184.1823    140.4073   9.9768707122e+01   1.6186893121e+01    0.3646752    0.2812486 -84.79  0.001443915    1.712    0.416
        56  -9.8855     29.0587    193.1274   1.4393107089e+02   3.1302573096e+01    0.3056222    0.1519605  80.00  0.001580682    2.047    0.511
        57  -7.9789     70.6472    192.3240   1.3537191849e+02   2.6274038341e+01    0.1426353    0.0855678  72.24  0.000399293    1.759    0.431
        58  -8.7383     51.3563    206.9979   1.4091385837e+02   2.5691019433e+01    0.1784403    0.1301484 -87.70 0.0008101856    1.142    0.124
        59 -10.6396    131.4965    202.8508   1.2388655591e+02   1.3893811008e+01    0.2858912    0.2286046 -14.04  0.001476899    1.904    0.475
        60 -11.5106    178.1931    142.9045   1.0164738327e+02   1.7015353953e+01    0.4727042    0.4067641  80.37   0.00234904    1.312    0.238
        61  -8.8147     26.0000    135.9485   1.3824231266e+02   4.4466465341e+01    0.2109193    0.0574084 -67.31 0.0008019242    2.939    0.660
        62  -8.5744     33.1194    190.7994   1.4291670129e+02   3.1364208032e+01    0.1901119    0.1280822  77.85 0.0007537227    1.266    0.210
        63 -11.0733    175.1406    134.3541   1.0029189177e+02   1.9506601425e+01    0.3876165    0.2931061  71.46  0.001451643    1.578    0.366
        64  -9.3917     58.3090    213.4844   1.4021897784e+02   2.3413337980e+01     0.245774    0.1862982  82.67  0.000899957    1.065    0.061
        65 -10.7221    183.3747    130.9520   9.7683871553e+01   1.8327328390e+01    0.3734317    0.2411547 -46.51  0.001189809    1.544    0.352
        66  -8.8703    120.6799    187.4767   1.2373426293e+02   1.9156448203e+01    0.2409734    0.1757397 -36.02  0.001184422    1.798    0.444
        67  -8.4452    154.3218    124.2935   1.0258123582e+02   2.6405947996e+01    0.1568758    0.1273157   5.74 0.0002575893    1.613    0.380
        68 -10.4754    189.4266    204.5667   1.1210640935e+02   2.4946582763e+00    0.2918357    0.2377939  11.50  0.001221237    1.348    0.258
        69 -10.2720    200.7402    182.3174   1.0550354701e+02   4.3342189886e+00     0.440785     0.187244 -42.26  0.001706494    2.426    0.588
        70 -10.1639    207.0844    183.0250   1.0437737109e+02   2.9427875022e+00    0.3271822    0.2043844 -47.20  0.001132723    1.735    0.424
        71  -8.4113     24.2266    114.8850   1.3557830918e+02   4.9405088649e+01    0.1700308    0.0842799 -67.44 0.0008720531    1.660    0.397
        72  -9.1349     32.2855    230.2425   1.4634905325e+02   2.3280225452e+01    0.2087649    0.1434798  69.27   0.00082904    1.118    0.105
        73 -10.6921     15.9162    108.1532   1.3680380031e+02   5.1547527485e+01     0.415408    0.1276355 -67.97  0.001726198    2.756    0.637
        74 -11.6923      4.7165    202.3382   1.4916595279e+02   3.1791088631e+01     1.147782    0.3878729 -88.11  0.005232234    2.958    0.662
        75 -11.1171      4.9585    191.0411   1.4833241224e+02   3.4117125355e+01     1.025709     0.368685  77.62  0.004298861    3.615    0.723
        76 -11.2523      4.3959    180.2698   1.4762517550e+02   3.6452734836e+01     0.953459    0.3933749  74.37  0.004615894    2.703    0.630
        77 -13.7061      6.6607    162.1556   1.4563249116e+02   4.0201320076e+01      3.78741     1.418213 -74.80   0.01898414    2.070    0.517
        78  -8.5838    187.7293     71.3534   8.1392300764e+01   2.8673993932e+01    0.2154301    0.1322267  50.67 0.0006393143    1.626    0.385
        79 -11.2215      6.2334     85.0379   1.3572681864e+02   5.7151809283e+01    0.3972157    0.1455568 -68.20   0.00187223    2.414    0.586
        80  -9.4139    242.9043     59.0094   7.0019365945e+01   1.7378481319e+01    0.2119831    0.1833846  82.66 0.0003607211    1.145    0.126
        81  -9.0085     76.4610    226.7780   1.3812677500e+02   1.8143307569e+01    0.2758654    0.1081814 -63.42  0.001286655    2.543    0.607
        82  -8.7475    138.9931     35.0761   8.0384910629e+01   4.6025248171e+01    0.2048753    0.1843095  46.51 0.0003281579    1.015    0.015
        83  -8.4361     29.3700    245.1662   1.4784911437e+02   2.0777446809e+01    0.1511222   0.07844543  88.43 0.0008962127    1.640    0.390
        84 -10.6749    249.2263    244.2728   1.0791162472e+02  -1.3561951927e+01    0.3788834    0.2766019 -23.57  0.002552344    1.406    0.289
