#   1 NUMBER                 Running object number                                     
#   2 MAG_AUTO               Kron-like elliptical aperture magnitude                    [mag]
#   3 X_IMAGE                Object position along x                                    [pixel]
#   4 Y_IMAGE                Object position along y                                    [pixel]
#   5 X_WORLD                Barycenter position along world x axis                     [deg]
#   6 Y_WORLD                Barycenter position along world y axis                     [deg]
#   7 A_WORLD                Profile RMS along major axis (world units)                 [deg]
#   8 B_WORLD                Profile RMS along minor axis (world units)                 [deg]
#   9 THETA_WORLD            Position angle (CCW/world-x)                               [deg]
#  10 FWHM_WORLD             FWHM assuming a gaussian core                              [deg]
#  11 ELONGATION             A_IMAGE/B_IMAGE                                           
#  12 ELLIPTICITY            1 - B_IMAGE/A_IMAGE                                       
         1 -12.7858    197.7481     33.6395   5.1564936857e+01   3.1260230164e+01     1.613475     1.201418  25.00  0.007994077    1.637    0.389
         2 -12.5663    209.1737     20.3655   4.6356727013e+01   2.9920415069e+01     1.141198    0.8428422  22.50  0.005877655    1.737    0.424
         3 -11.3525     32.5380     19.8839   9.0655711938e+01   6.8117355886e+01    0.8868455    0.1673365 -43.57  0.002991409    4.456    0.776
         4 -10.2365     32.8968      3.0808   8.2127915496e+01   7.0536810653e+01    0.3433113    0.1571725 -28.97  0.001848973    1.840    0.457
         5  -8.7454     41.5890      3.2262   7.8261666712e+01   6.9380883998e+01    0.1754603   0.09334889 -18.62 0.0009564474    1.698    0.411
         6 -10.9159    138.8273    231.2874   1.0911110381e+02   8.9718509869e+00    0.2621227    0.2460029  41.68  0.001916229    1.182    0.154
         7 -14.0495     70.1136    244.2724   1.2246392390e+02   1.6920239286e+01     6.577025     1.249524  47.57   0.02748087    3.585    0.721
         8 -13.3853     19.7267    192.7353   1.2751395978e+02   3.2215273077e+01      1.65363     1.048462 -65.57 0.0004780862    1.626    0.385
         9 -12.9138     45.8931    208.8634   1.2391892395e+02   2.6252669787e+01     1.471628     1.171227   2.53  0.009616676    2.457    0.593
        10 -13.8069     55.6937    198.0646   1.2116399660e+02   2.7195617694e+01     3.760051     1.903198  78.67   0.01942781    2.211    0.548
        11 -10.3976    110.0102    228.3730   1.1404492219e+02   1.3970563878e+01    0.4595972     0.292374  28.29  0.002580825    2.029    0.507
        12  -8.1192     71.8059    230.2145   1.2105411503e+02   1.9088606222e+01     0.135615    0.1192091  60.05 0.0003593853    1.280    0.219
        13 -11.2428     96.8810    225.9944   1.1618719852e+02   1.6337259546e+01    0.8823375    0.2710221  50.46  0.002902564    2.901    0.655
        14  -9.8714    159.7681    226.9781   1.0468183072e+02   6.1954070943e+00    0.2641287    0.1415524  24.44  0.001207977    2.656    0.624
        15  -9.0092    168.4002    225.7827   1.0291454448e+02   4.9275427232e+00    0.1517519    0.1168178 -25.37 0.0009458485    1.612    0.380
        16 -11.5635    116.8600    230.0854   1.1298545510e+02   1.2635418408e+01     0.705981    0.2736404  46.64  0.003414569    2.102    0.524
        17 -14.7485      5.6088    247.1719   1.3262774708e+02   2.3699088085e+01     2.013749     1.443392  40.62  0.006915676    1.748    0.428
        18  -7.7969    164.2356    206.0252   1.0069428130e+02   8.7261647104e+00     0.151038    0.1110916 -43.56 0.0004321935    1.564    0.360
        19  -7.9363    108.3447    204.1355   1.1148910926e+02   1.8560927167e+01    0.1659066    0.1110142 -78.15 0.0004172536    1.697    0.411
        20 -11.2055    125.1919    228.1336   1.1123101024e+02   1.1655526673e+01    0.6330701    0.4529487 -86.99  0.003928842    1.730    0.422
        21  -9.5261    194.5373    197.8729   9.3435749844e+01   4.5659281310e+00     0.361939    0.2269715 -64.85  0.001544223    3.351    0.702
        22  -9.3413     83.5693    232.7769   1.1922215155e+02   1.7056051894e+01    0.2414974     0.177001 -79.11  0.001068832    1.414    0.293
        23 -10.2857     70.3118    180.2647   1.1633291717e+02   2.8984341947e+01    0.4014251      0.25556 -43.32  0.002139749    2.197    0.545
        24 -10.3071     74.6535    174.8881   1.1473739652e+02   2.9540594077e+01    0.3281627    0.2387501 -45.64 0.0009946409    1.723    0.420
        25  -7.9341     99.5102    180.9710   1.1018224437e+02   2.4556892709e+01    0.1869621    0.1243202 -65.10 0.0005231915    1.519    0.342
        26  -7.7327    208.7000    178.3431   8.6995536352e+01   4.9836025267e+00    0.1271811    0.1123438 -83.03 0.0007036743    1.674    0.403
        27 -10.2045     99.2625    170.8924   1.0873969286e+02   2.6725991520e+01    0.5682318    0.2970335  60.53  0.002478907    2.307    0.567
        28  -8.6405    195.6532    169.2285   8.7664125061e+01   9.0027826512e+00    0.2640804    0.1864701  42.28  0.000604442    1.355    0.262
        29 -10.8275     83.4593    164.6499   1.1136838191e+02   3.0516552037e+01    0.5187566    0.3943456  77.25 0.0006962268    1.299    0.230
        30 -11.9082     71.2041    160.8535   1.1362930029e+02   3.3096915599e+01      0.60794     0.454502 -34.86    0.0015502    1.874    0.466
        31 -11.8521     68.4016    144.4892   1.1187150136e+02   3.7195531267e+01    0.8721983     0.556565  78.02  0.003181788    1.856    0.461
        32  -7.6414     87.5261    146.4692   1.0749129844e+02   3.3996453805e+01    0.1986792    0.1205761 -51.90 0.0005768273    1.616    0.381
        33 -10.5760     90.7504    142.3042   1.0594889815e+02   3.4449527045e+01     0.277411    0.2456185 -43.92 0.0003297093    1.243    0.196
        34  -8.6486    133.6647    143.0844   9.5594493158e+01   2.6625024602e+01    0.2982119    0.1353509 -55.77  0.001087826    2.517    0.603
        35  -9.2507    103.1655    142.0406   1.0280825389e+02   3.2474698319e+01    0.5088785    0.3339113 -19.21   0.00207715    2.849    0.649
        36  -8.2483     44.6497    143.6868   1.1755562283e+02   4.0252092018e+01    0.1238679   0.08822072 -42.66            0    1.724    0.420
        37 -10.6340     89.4894    157.9455   1.0894079301e+02   3.1098961598e+01    0.5303886    0.3919158 -25.21  0.001519006    2.072    0.517
        38 -11.1126     59.4127    133.7551   1.1242407862e+02   4.0843112690e+01    0.6461874     0.274056 -69.97   0.00269351    2.378    0.579
        39  -8.5104    105.9498    131.0147   9.9849224745e+01   3.4503810980e+01    0.2323365    0.2109277 -68.51  0.001295334    1.050    0.048
        40  -9.3691     99.3977    128.0441   1.0091111920e+02   3.6318500346e+01    0.3029763    0.2287639 -30.70 0.0006253246    1.597    0.374
        41  -9.3981     29.3066    128.2230   1.1933361927e+02   4.5337967547e+01    0.2706321   0.07123008 -61.96  0.001088565    2.739    0.635
        42  -8.3628    111.9740    131.9470   9.8511910692e+01   3.3212577812e+01    0.2290367     0.182581  -9.82 0.0009775021    1.709    0.415
        43  -8.3572    125.7239    127.5382   9.4041418265e+01   3.1592655914e+01    0.2101907    0.1429941  55.26 0.0006381737    1.610    0.379
        44  -9.3283    117.5584    126.7192   9.5918098126e+01   3.3353746977e+01    0.2820926    0.1394214 -46.43  0.001101251    1.974    0.493
        45 -11.0587     32.6183    119.4943   1.1725967718e+02   4.7057133863e+01    0.5993804    0.1782895 -67.36  0.002384046    2.735    0.634
        46 -10.4696     33.0000    106.5060   1.1511271365e+02   5.0042126796e+01    0.5284922    0.1267978 -65.99  0.001836766    3.489    0.713
        47  -8.1335    108.2260    120.1654   9.6821988481e+01   3.6570137820e+01     0.195599    0.1685055  89.13 0.0003430493    1.286    0.222
        48 -10.4715     45.2059    109.3837   1.1210701939e+02   4.8180077966e+01    0.7163669    0.1655905 -64.06  0.002299789    3.895    0.743
        49  -8.5408     41.5088    108.5274   1.1301474865e+02   4.8760239668e+01    0.2125769    0.1775947 -63.16 0.0009896684    1.045    0.043
        50  -8.2228    168.2080    112.8038   8.0165356837e+01   2.5519928336e+01    0.2672246    0.1770853 -78.40 0.0009551443    2.840    0.648
        51  -7.3797    107.6955    113.7228   9.5418486752e+01   3.8129431839e+01    0.1439282    0.1165756 -12.74 0.0001938836    1.547    0.354
        52  -8.2524    205.5038    110.5092   7.1892113871e+01   1.7273112190e+01    0.2671676    0.1360311  40.40 0.0006091131    2.147    0.534
        53  -9.2965    120.1937    109.8461   9.1098059658e+01   3.6606475627e+01    0.3509512    0.1135754 -51.85  0.001033827    3.455    0.711
        54  -9.5005     53.3384    108.8176   1.0965758697e+02   4.7417147244e+01    0.2816772    0.1152024 -68.69  0.001096853    2.630    0.620
        55 -13.7751      9.4785    206.5820   1.3015922400e+02   3.0491459783e+01     1.228095    0.7668616  49.79  0.006262991    1.482    0.325
        56  -9.1967    152.8398     56.0678   6.6578812688e+01   3.9654227534e+01    0.4091127    0.2748362 -74.63  0.001632866    2.366    0.577
        57  -9.1395    155.2623     50.1279   6.4079331816e+01   3.9965108260e+01    0.3893074    0.2771517 -82.91  0.001024714    2.013    0.503
        58  -8.9501     33.0000     50.5763   1.0213018898e+02   6.2438906649e+01    0.2847829   0.05867957 -54.07 0.0009373002    3.955    0.747
        59 -12.0326    188.9625     39.7617   5.4670934115e+01   3.2740861553e+01     1.018699    0.6152229  26.38   0.00364012    2.316    0.568
        60 -10.6016    140.1236    239.5763   1.0989016898e+02   7.4965426527e+00    0.3491515    0.1711839  48.79  0.001893548    1.697    0.411
        61 -11.4856    133.8623    239.9929   1.1105540571e+02   8.4185536206e+00    0.4669527    0.3489009 -50.55  0.003175122    1.682    0.406
        62  -9.2710     29.6147     36.7801   9.8844982211e+01   6.5448624780e+01    0.1767838    0.1016385 -55.65 0.0009591026    1.778    0.437
        63 -15.3849      2.4361    224.0043   1.3214771318e+02   2.7945613626e+01     20.76703          nan -76.34   0.02580332   18.038    0.945
        64 -10.1497     92.1184    234.3652   1.1786739385e+02   1.5588796196e+01    0.2192628    0.1626165  87.90 0.0001853479    1.348    0.258
        65  -8.2746     45.6611     11.3346   8.0733253495e+01   6.7770520942e+01     0.108467   0.09588779 -48.47 0.0007051553    1.750    0.429
