#   1 NUMBER                 Running object number                                     
#   2 MAG_AUTO               Kron-like elliptical aperture magnitude                    [mag]
#   3 X_IMAGE                Object position along x                                    [pixel]
#   4 Y_IMAGE                Object position along y                                    [pixel]
#   5 X_WORLD                Barycenter position along world x axis                     [deg]
#   6 Y_WORLD                Barycenter position along world y axis                     [deg]
#   7 A_WORLD                Profile RMS along major axis (world units)                 [deg]
#   8 B_WORLD                Profile RMS along minor axis (world units)                 [deg]
#   9 THETA_WORLD            Position angle (CCW/world-x)                               [deg]
#  10 FWHM_WORLD             FWHM assuming a gaussian core                              [deg]
#  11 ELONGATION             A_IMAGE/B_IMAGE                                           
#  12 ELLIPTICITY            1 - B_IMAGE/A_IMAGE                                       
         1 -13.1072    209.8802      2.0995   6.0793521372e+01   3.1901378769e+01     1.523857    0.6793717  71.89  0.002292338    2.040    0.510
         2 -14.1712    187.0865     25.4665   6.9820061044e+01   3.5185092147e+01     1.797952     1.429287 -24.91  0.005644099    1.352    0.260
         3 -13.7601    194.1007     19.1978   6.7105534774e+01   3.4100790098e+01     1.243133    0.8586808 -63.85  0.004114122    1.518    0.341
         4 -13.1788    200.5071     11.1133   6.4118729610e+01   3.3339408342e+01    0.7364591    0.7063593  14.26  0.001335899    1.222    0.182
         5 -10.5678    226.0029    238.4894   1.1247141381e+02  -5.7253851545e+00    0.1826703   0.09250171  37.49  0.001039262    1.609    0.379
         6 -11.8570    246.7172    249.2178   1.1070535043e+02  -9.8461564599e+00    0.5358742    0.2024386  34.35  0.002866283    2.120    0.528
         7 -11.5325    192.5732    250.0982   1.1987993090e+02  -1.9733907581e+00    0.4393959    0.1281848  36.84  0.001838513    2.977    0.664
         8 -11.9557    143.0830    241.3120   1.2749212352e+02   7.0390989078e+00     0.290413    0.2134741  39.15  0.001036016    1.170    0.145
         9 -12.4931    139.5941    248.4996   1.2895242221e+02   6.5292527651e+00    0.7025439     0.386664 -64.02  0.004007029    2.574    0.612
        10 -11.1454    144.5252    249.0003   1.2814036273e+02   5.6898122012e+00    0.2151695      0.21124  45.20  0.001322691    1.273    0.215
        11 -12.6335    125.7500    249.5908   1.3150624916e+02   8.4960360989e+00    0.7100779      0.30843  37.78   0.00355566    2.067    0.516
        12 -14.8088    102.7128    245.5091   1.3513564219e+02   1.2561649611e+01     4.961427     2.806456  26.55   0.01410405    2.780    0.640
        13 -14.3695     32.4276    245.8772   1.4696796878e+02   2.1580068122e+01     1.689024    0.9689896  39.65   0.01182415    1.787    0.440
        14 -13.6524     49.6852    225.8041   1.4282001932e+02   2.3098725228e+01    0.6863852    0.6310451  23.97  0.005285046    1.704    0.413
        15 -16.0592     47.2753    200.6603   1.4129254686e+02   2.8192328295e+01     6.921244     2.695111  71.59   0.02767815    3.808    0.737
        16 -11.9714     30.4218    210.7218   1.4520230565e+02   2.8132077832e+01    0.3609021   0.09879196  38.89   0.00171372    3.112    0.679
        17 -10.4409    228.2752    204.6760   1.0644326947e+02  -1.9299614211e+00    0.2115172    0.2014428 -18.92  0.000753892    1.354    0.262
        18 -10.9626    192.9631    194.6701   1.1110593900e+02   5.6823835854e+00    0.7777642    0.3922399 -61.14  0.002443334    5.948    0.832
        19 -10.6061     66.3836    195.5475   1.3702457342e+02   2.6817145528e+01    0.3418904     0.175143  61.88  0.001665461    1.927    0.481
        20 -12.0221     73.5170    192.1522   1.3519779390e+02   2.6541338173e+01    0.3759629    0.2763393 -46.50  0.002251676    1.816    0.449
        21 -11.9454     77.8904    185.5175   1.3350643316e+02   2.7300699372e+01    0.2853183    0.2364593 -63.72 0.0008104434    1.318    0.241
        22  -9.0049    181.5014    192.4204   1.1292322058e+02   8.1534001041e+00    0.1349431    0.1180532  31.90 3.936038e-05    1.016    0.015
        23 -13.9902     10.9973    206.4824   1.4840605146e+02   3.0912027243e+01    0.8309979    0.5625207  27.75   0.00280302    2.079    0.519
        24 -12.3409    106.0183    172.8559   1.2557151742e+02   2.5619434720e+01     2.840891    0.1755876  42.70  0.005883961    9.214    0.891
        25 -13.8639     67.5466    144.1862   1.3021713218e+02   3.7874030446e+01      1.50393    0.8125024  81.70  0.005950921    2.836    0.647
        26 -13.5884     58.1324    131.0477   1.3054690951e+02   4.2137775542e+01     2.174906    0.7257066 -73.83  0.006114165    5.526    0.819
        27 -13.3826     73.8225    171.1893   1.3259069929e+02   3.0940121114e+01    0.4499137    0.2717586 -45.35  0.001834923    2.139    0.532
        28 -11.1724    137.4505    171.9594   1.1841521561e+02   2.0212926763e+01    0.3881345    0.1946316  39.60  0.001669478    1.948    0.487
        29 -12.7741     91.3903    165.9411   1.2783569273e+02   2.9480742887e+01     1.191935     0.556411  50.09  0.001078506    2.123    0.529
        30 -11.5040     58.1932    144.9932   1.3267779850e+02   3.8904698566e+01    0.4229564     0.255953  83.59  0.002110941    1.906    0.475
        31 -12.5219     54.5957    144.7824   1.3354240654e+02   3.9396098061e+01    0.7847475    0.2408926 -61.53  0.003116195    2.732    0.634
        32  -9.7344    105.9987    145.2379   1.2078911903e+02   3.1662789140e+01    0.3335588    0.1827944 -38.37  0.001368683    2.417    0.586
        33 -12.3134     92.4456    148.6155   1.2475087613e+02   3.3174964518e+01     0.271456    0.2584767 -40.42 0.0004750346    1.231    0.188
        34 -10.2200    133.8691    144.8936   1.1397632282e+02   2.6532999731e+01     0.932543    0.1859657 -53.86    0.0017683    9.664    0.897
        35 -11.8283     69.5415    134.7989   1.2816993459e+02   3.9771913721e+01    0.3566521    0.3153389  47.91  0.001177654    1.227    0.185
        36 -10.8600    100.6950    132.2402   1.1954965110e+02   3.5523329073e+01    0.2995544    0.2407582 -28.13  0.001023615    1.544    0.352
        37 -11.7465    208.9849    245.3078   1.1638766063e+02  -3.9275148490e+00    0.3300968    0.1102665  35.50  0.001487109    2.579    0.612
        38 -10.3183    103.6710    149.0337   1.2207257973e+02   3.1216058039e+01    0.3342125    0.2490429 -56.77 0.0008448121    1.325    0.245
        39 -10.0530    113.1178    135.2630   1.1700849393e+02   3.2619319073e+01    0.3152394    0.2475214 -17.16 0.0008851952    1.755    0.430
        40  -9.4774    118.4534    128.0371   1.1408210893e+02   3.3225901219e+01    0.2065837    0.1252562 -28.93 0.0008073085    2.430    0.588
        41  -9.8165    160.6870    127.6885   1.0385392835e+02   2.4502665959e+01    0.3168156    0.1824808 -62.07  0.001177342    2.531    0.605
        42  -9.6973    109.0671    122.8210   1.1532379706e+02   3.6161592504e+01    0.2068039    0.2030657 -71.83 0.0003780215    1.051    0.049
        43 -10.8575    168.2461    113.0031   9.8496849892e+01   2.5722946948e+01    0.3781216     0.306618 -79.12 0.0009541559    1.538    0.350
        44 -11.8360     19.5454    111.2207   1.3809955834e+02   5.0629393870e+01    0.2841077    0.2054028  40.44   0.00145583    1.613    0.380
        45  -9.4917    204.6692    110.7983   9.0595593998e+01   1.7708740145e+01    0.3470599    0.1554047  38.73   0.00121993    2.751    0.636
        46 -11.6121     86.1792    174.0158   1.3019892716e+02   2.8527477560e+01    0.3067453    0.2306508  54.43 0.0003998052    1.236    0.191
        47 -15.6504     10.2937    239.9262   1.5015286195e+02   2.4915482415e+01     5.413825    0.7810029 -66.09  0.009011155    6.123    0.837
        48  -9.3858    154.4965     76.4409   9.1305594593e+01   3.5927916191e+01    0.1518745    0.1502414  23.97 0.0001485687    1.010    0.010
        49 -14.5901     77.9911    241.4576   1.3908655977e+02   1.6707495989e+01     2.620704    0.8628137  42.48   0.01295024    2.413    0.586
        50 -10.3578    216.1794    249.6257   1.1579277287e+02  -5.5051122478e+00    0.1732843   0.08158031  32.35 0.0009567764    1.747    0.428
        51 -11.1612    174.2594    220.4897   1.1892517009e+02   5.0124198251e+00    0.2476075    0.2143566 -85.72  0.001603961    1.557    0.358
        52 -10.7647    171.7780    246.0932   1.2297176181e+02   1.7957493080e+00    0.2285945    0.1333592  23.09  0.001246839    2.073    0.518
        53 -16.0033      3.0786    149.2121   1.4622493993e+02   4.3363813599e+01     17.24739          nan -74.20   0.03410323   14.167    0.929
        54 -13.3202     73.4211    226.8080   1.3865143504e+02   1.9876134429e+01    0.6988838    0.2834568  64.99   0.00291593    3.128    0.680
