#   1 NUMBER                 Running object number                                     
#   2 MAG_AUTO               Kron-like elliptical aperture magnitude                    [mag]
#   3 X_IMAGE                Object position along x                                    [pixel]
#   4 Y_IMAGE                Object position along y                                    [pixel]
#   5 X_WORLD                Barycenter position along world x axis                     [deg]
#   6 Y_WORLD                Barycenter position along world y axis                     [deg]
#   7 A_WORLD                Profile RMS along major axis (world units)                 [deg]
#   8 B_WORLD                Profile RMS along minor axis (world units)                 [deg]
#   9 THETA_WORLD            Position angle (CCW/world-x)                               [deg]
#  10 FWHM_WORLD             FWHM assuming a gaussian core                              [deg]
#  11 ELONGATION             A_IMAGE/B_IMAGE                                           
#  12 ELLIPTICITY            1 - B_IMAGE/A_IMAGE                                       
         1 -14.7424     68.5183    144.7343   9.8606775837e+01   3.7391274235e+01     4.888447     2.545391  81.00  0.003452879    4.524    0.779
         2 -13.7050    228.7956     22.4314   3.4025014525e+01   2.6696749220e+01    0.9560915    0.8245447  53.51  0.003375232    1.530    0.346
         3 -13.7174    202.5928     44.3504   4.1588578861e+01   2.9601797357e+01     1.180808     1.066147   2.50  0.003908259    1.516    0.340
         4 -13.9258    211.8327     38.6603   3.9189470787e+01   2.8304118109e+01     1.282269     1.045367 -36.55   0.00485364    1.361    0.265
         5 -12.0024    248.6635      3.4842   2.8887804117e+01   2.4849894554e+01    0.4093476    0.2568512 -64.12  0.002189538    1.239    0.193
         6  -9.8472    111.7534    204.6958   9.6935328073e+01   1.6256385047e+01    0.3698257    0.2114886  77.84  0.001346195    3.437    0.709
         7 -13.6459     45.0641    217.4699   1.1380681227e+02   2.2850427092e+01     1.471713     1.130339   3.39 0.0005597793    1.977    0.494
         8 -13.7206      6.1958    186.8383   1.2007792781e+02   3.3771128939e+01     1.760909    0.9389147  81.81  0.009007625    1.702    0.413
         9 -13.8252     82.4722    219.9440   1.0572797260e+02   1.7401612153e+01      2.43286    0.5643823  37.46  0.003176877    3.459    0.711
        10 -16.4576     34.3642    185.9794   1.1338558506e+02   3.1303936546e+01     12.75516     5.202333  66.24   0.04750418    3.416    0.707
        11 -15.1371      6.8657    246.7208   1.2330762064e+02   2.0897059875e+01     2.116174     1.391252  22.04   0.01384184    2.093    0.522
        12 -11.4754    194.5036    197.9996   7.7312264511e+01   3.6388788364e+00    0.4281729    0.3386311 -76.44  0.002237661    2.049    0.512
        13 -11.1005    192.4099    193.6203   7.6922442124e+01   4.7860505100e+00    0.6160531    0.3608529 -62.23  0.002522209    2.994    0.666
        14 -10.3059    207.6057    194.1860   7.4002211840e+01   2.1925693182e+00    0.1897891    0.1154504 -29.38 0.0003557452    1.637    0.389
        15  -9.1054    149.3112    187.6514   8.5226565976e+01   1.3512254343e+01    0.1470802    0.1154421  77.06 0.0007045561    1.715    0.417
        16  -9.5751     99.2341    181.0769   9.6354574533e+01   2.3694154323e+01    0.2103819    0.1971879 -33.55 0.0005201571    1.189    0.159
        17 -12.1438     59.0449    175.9461   1.0602110462e+02   3.0838272971e+01    0.4613756    0.3267351 -26.98  0.002278024    2.016    0.504
        18 -11.9096     64.3279    170.7131   1.0391359023e+02   3.1436756534e+01    0.3335315    0.2826568 -29.67 0.0007131678    1.443    0.307
        19 -11.1186    113.9812    173.5008   9.1275619292e+01   2.3003237559e+01    0.3495266    0.1439666  36.92  0.001271554    2.381    0.580
        20 -13.4905     61.4692    157.3272   1.0271913941e+02   3.5166994624e+01    0.5552756     0.342154 -40.56  0.002089313    1.920    0.479
        21 -11.9739     74.3980    161.5210   9.9780123717e+01   3.2324251897e+01      0.41456    0.3372298 -54.59 0.0004152986    1.226    0.185
        22 -12.7751     81.4063    155.5474   9.6815034211e+01   3.2775387919e+01     1.097048    0.7471551 -40.55 0.0007780088    1.650    0.394
        23 -13.2366     30.1804    202.3459   1.1582937223e+02   2.7921136741e+01    0.5327274    0.4463278 -45.77  0.001256643    1.529    0.346
        24 -10.1953    230.5874    168.3677   6.4760793548e+01   3.0048691250e+00    0.2665461    0.1065253 -50.80 0.0009603307    3.397    0.706
        25  -9.9083     48.6917    169.9384   1.0796794293e+02   3.3604113844e+01    0.1966861     0.159233 -82.90 0.0005421541    1.125    0.111
        26  -9.6402    174.8544    149.1588   7.1586420947e+01   1.6836003825e+01     0.227866    0.2067905 -81.40  0.000728393    1.269    0.212
        27  -8.5368    150.2592    149.2700   7.7259021175e+01   2.1753305891e+01    0.1453851    0.1194063  -8.23 0.0001797806    1.458    0.314
        28 -10.5196    133.7059    145.3071   8.0503909101e+01   2.5959184659e+01    0.9367615    0.2174428 -54.25  0.002033886    6.468    0.845
        29 -11.2487     54.6664    146.6814   1.0300339293e+02   3.8726867121e+01    0.4343292    0.1779831 -64.52  0.001702545    2.249    0.555
        30 -15.3557      9.6551    208.2253   1.2071633216e+02   2.8626710821e+01     1.987586     1.367692  83.21   0.01287192    1.191    0.160
        31 -10.3779     29.3165    142.9610   1.0987401896e+02   4.2415801189e+01     0.358861    0.2305733   1.11  0.001796282    2.192    0.544
        32  -8.9010    200.1674    143.4306   6.5128830117e+01   1.2997101954e+01    0.1819217    0.1401487  60.86 0.0004418798    1.558    0.358
        33  -9.8930    145.2537    141.9526   7.6843894864e+01   2.4405418239e+01    0.2183717    0.1943769 -48.24 0.0004253875    1.116    0.104
        34 -10.2468     96.6883    141.6663   8.9800538336e+01   3.3747041274e+01    0.3119897     0.280757  20.06 0.0008817732    1.207    0.171
        35  -9.8025     99.9744    138.5188   8.8194602771e+01   3.3947862031e+01    0.3594213    0.2611696  -7.76  0.001558495    2.000    0.500
        36 -12.3147     84.7306    139.9967   9.2932609140e+01   3.6148316660e+01    0.3133702    0.2795268 -49.60 0.0004483821    1.109    0.098
        37 -12.1209     69.2842    130.5773   9.5712653668e+01   4.0848015088e+01    0.9005728    0.5561805  89.78  0.002093053    2.434    0.589
        38 -11.0621     19.7029    132.0367   1.1129697445e+02   4.5974670781e+01     0.346703    0.2017765 -57.41  0.001100717    1.487    0.328
        39 -10.8715    107.0946    130.8526   8.4455424427e+01   3.4518012129e+01     0.478842    0.3453235  32.46  0.001683571    1.465    0.317
        40  -9.9546    135.7009    129.8205   7.6427730471e+01   2.9112447590e+01    0.3291914    0.1331808 -41.48  0.001091105    2.638    0.621
        41  -9.7404     95.5166    126.5682   8.6853066667e+01   3.7649073886e+01    0.3143908    0.2520977  -3.30  0.001392083    1.562    0.360
        42  -9.6358    115.4071    124.8180   8.0683296988e+01   3.4362447632e+01    0.2226956    0.1414877 -38.12 0.0004642075    1.696    0.411
        43 -14.2385     11.2717    232.9525   1.2180739047e+02   2.3210751383e+01    0.9284474    0.6022002  78.67  0.003880824    1.260    0.206
        44  -9.8712    105.9249    119.1490   8.2019834380e+01   3.7520442112e+01    0.2195233     0.211698 -22.95 0.0003212709    1.056    0.053
        45 -13.2014     56.8648    239.3127   1.1315697804e+02   1.6791393885e+01    0.5257728    0.4012468  73.41  0.000798011    1.170    0.145
        46  -9.6607    135.0000    112.0381   7.2190335092e+01   3.3221356957e+01    0.2605261   0.08786673 -45.35 0.0007194371    2.945    0.660
        47 -10.7329     35.1815    111.5418   1.0312998831e+02   4.9688548876e+01    0.3856567    0.2125154  51.44  0.001625444    2.308    0.567
        48 -10.0692    205.2486    110.5915   5.6806046695e+01   1.8214836487e+01    0.2990537    0.2483201  33.25  0.001077882    1.407    0.289
        49 -11.5548    241.4878     98.9809   4.8737813865e+01   1.3057955659e+01    0.3560445    0.1145715 -38.63  0.001359285    2.727    0.633
        50  -9.8313     41.4832     92.0567   9.6838501345e+01   5.3705996857e+01    0.1966596    0.1770052   4.29 0.0004926979    1.184    0.155
        51 -11.3286     53.0214     92.0131   9.2577807963e+01   5.2366546013e+01    0.5536436    0.1871969 -55.61  0.002020646    2.707    0.631
        52  -9.0215    161.4829     83.4664   5.8361077065e+01   3.2969547167e+01     0.147291     0.142445 -88.11 9.219952e-05    1.009    0.009
        53 -10.6575    243.4967     77.9673   4.4094963025e+01   1.6034146248e+01    0.1992334    0.1102693 -40.45 0.0006516484    1.576    0.365
        54  -8.9505     45.7409     69.0140   8.9107272322e+01   5.8304370183e+01    0.1674751    0.1061333 -49.17 0.0004311028    1.469    0.319
        55  -9.2500     34.0226     62.5116   9.2047202502e+01   6.0958013454e+01    0.1729798    0.1171349  34.75  0.000962968    1.679    0.404
        56  -9.7068     29.4694     60.0037   9.3272826204e+01   6.1922488489e+01    0.2945836    0.1499735  40.17  0.001414667    2.484    0.597
        57 -11.5317     13.2670     60.1399   1.0047725690e+02   6.3220888645e+01    0.2770836    0.2377414 -68.36 0.0004691045    1.331    0.249
        58 -10.0037    172.9363    242.3126   8.9130923536e+01  -6.3268840337e-01    0.1899687    0.1734556 -45.91 0.0006317702    1.361    0.265
        59 -12.5597    219.6049     31.0148   3.6683380016e+01   2.7594256808e+01    0.5210935    0.3938823  49.75  0.001193221    1.682    0.405
        60 -15.1431     32.9290    249.4042   1.1861892635e+02   1.7638853720e+01      9.76772     2.765143  24.62   0.01358715   19.939    0.950
        61 -11.6913    185.5658    215.4142   8.2240950796e+01   1.9753139566e+00     0.353664    0.2607623 -29.37    0.0020072    1.374    0.272
        62  -9.3632     35.5404     56.0546   8.9404038586e+01   6.2088155546e+01    0.1820782     0.155526   1.58 0.0004223001    1.141    0.123
        63 -10.1466     19.0318     55.8274   9.6710285546e+01   6.3683421027e+01     0.406291    0.1331201  38.49  0.001551882    4.295    0.767
        64 -11.1737     11.6127     52.5919   9.9213594579e+01   6.4879022205e+01    0.2154244    0.1959877 -34.55  0.000788281    1.173    0.147
        65  -9.9658      3.3371     49.5554   1.0229100985e+02   6.5990171562e+01    0.1942955     0.105954  18.66 0.0008745714    2.018    0.504
        66  -9.7348    131.7246     38.9765   5.1684432203e+01   4.7061130774e+01    0.2441499    0.1824943 -87.37 0.0007051321    1.626    0.385
        67  -8.9954    131.7162     31.0515   4.9178148147e+01   4.8065285747e+01    0.1702847     0.165981  69.82 0.0002633969    1.084    0.077
        68  -9.4669    189.4972     15.0920   3.6128551626e+01   3.6182556644e+01    0.1736371    0.1193055 -37.96  0.000810342    1.541    0.351
