#   1 NUMBER                 Running object number                                     
#   2 MAG_AUTO               Kron-like elliptical aperture magnitude                    [mag]
#   3 X_IMAGE                Object position along x                                    [pixel]
#   4 Y_IMAGE                Object position along y                                    [pixel]
#   5 X_WORLD                Barycenter position along world x axis                     [deg]
#   6 Y_WORLD                Barycenter position along world y axis                     [deg]
#   7 A_WORLD                Profile RMS along major axis (world units)                 [deg]
#   8 B_WORLD                Profile RMS along minor axis (world units)                 [deg]
#   9 THETA_WORLD            Position angle (CCW/world-x)                               [deg]
#  10 FWHM_WORLD             FWHM assuming a gaussian core                              [deg]
#  11 ELONGATION             A_IMAGE/B_IMAGE                                           
#  12 ELLIPTICITY            1 - B_IMAGE/A_IMAGE                                       
         1 -16.1272     35.3031    197.0478   1.1511199124e+02   2.9110350698e+01     6.455975     2.046641  74.24   0.02008672    5.986    0.833
         2 -15.4595    216.1487     67.7627   4.9021123370e+01   2.3156988318e+01     2.729153     1.954881 -48.45   0.01144842    1.298    0.230
         3 -14.7142    156.4843     67.6609   5.8415865015e+01   3.6820469161e+01     2.695218    0.7880546 -38.20  0.008457965    3.090    0.676
         4 -15.8174    191.2646     81.8118   5.6254920122e+01   2.6401957030e+01      1.97523      1.75104 -58.83  0.008199918    1.161    0.139
         5 -15.7730    181.9624     62.2244   5.2287599058e+01   3.1604453531e+01     2.459534     1.496379  89.25  0.006634953    2.405    0.584
         6 -15.3248     32.6941     48.3222   9.3819452096e+01   6.5784588678e+01     1.867414     1.251859 -52.71  0.008969091    1.315    0.240
         7 -14.3867     20.1442     49.9508   1.0114679839e+02   6.6612854305e+01     1.078927    0.5079382 -55.13  0.004045136    1.744    0.427
         8 -14.3458    239.9788     12.2809   3.3113633971e+01   2.4944637181e+01     1.264914    0.5030865 -38.19  0.005042994    1.861    0.463
         9 -12.5877    234.9827      3.0899   3.1211539032e+01   2.6878378853e+01    0.5442277     0.281807 -68.48  0.002554565    1.872    0.466
        10 -14.1597    247.5546     47.3242   4.0787881115e+01   1.9523048768e+01     1.300628    0.4923407 -39.42  0.006089671    1.991    0.498
        11 -14.0401    246.2316     33.3909   3.7650806128e+01   2.1414506693e+01    0.9193639    0.6904011 -41.97  0.004661871    1.056    0.053
        12 -15.1825    206.9913     26.6420   3.9154345426e+01   3.0505070797e+01     1.620584     1.241746 -86.01  0.005115785    1.335    0.251
        13 -12.7135     25.1984     21.2107   8.6848915645e+01   7.2519084312e+01    0.4350873    0.2547843 -49.13  0.002287708    1.559    0.359
        14 -14.6856      9.3527      6.4590   9.0576941092e+01   7.7048658963e+01    0.9194811    0.6836107 -29.69  0.003868668    1.146    0.128
        15 -13.0157     25.0426      9.5159   8.0132880776e+01   7.4724691146e+01      0.71591    0.3621492 -29.56  0.003404783    2.114    0.527
        16 -12.6733    205.1297      2.2084   3.2684445509e+01   3.3486476931e+01    0.8599994    0.3207885  82.91  0.003600142    2.829    0.647
        17 -11.6404    215.2662      1.9968   3.2011973645e+01   3.1212710134e+01    0.3859597     0.265685 -86.27  0.002102463    1.423    0.297
        18 -12.9083     53.8492      6.7562   6.1688541589e+01   7.0262527379e+01    0.6215417    0.3718867 -22.03  0.003150973    1.697    0.411
        19 -11.6967    249.2156      2.2298   3.0334568789e+01   2.4104521114e+01    0.2913889    0.1928389 -78.79  0.001657386    1.497    0.332
        20 -12.8014    143.1935    226.5090   9.4685034505e+01   1.0053961069e+01     0.691511    0.4328628  -5.49  0.003731436    2.423    0.587
        21 -13.0656    243.2873    245.1123   7.9820566590e+01  -4.4572401210e+00    0.4705275    0.2721312 -30.08  0.003474186    1.868    0.465
        22 -12.8585    246.4114    237.8396   7.8324562969e+01  -4.0830066966e+00     0.666178    0.3541255  12.46  0.004548818    1.618    0.382
        23 -11.5117     85.9709    249.5188   1.0817824681e+02   1.3808520454e+01    0.1561495    0.1356998  60.64 0.0009565839    1.214    0.176
        24 -12.3702     60.7830    248.9234   1.1296473172e+02   1.6772639052e+01    0.3258612    0.2237095  75.90  0.002063294    1.531    0.347
        25 -10.8340     26.1510    249.8262   1.1952082454e+02   2.0191073481e+01    0.1271528    0.1097986  40.02 0.0005670992    1.321    0.243
        26 -11.6442     15.2821    250.3536   1.2152585262e+02   2.1118873616e+01    0.2712727    0.1077901  27.29   0.00154186    2.412    0.585
        27 -12.5829      3.6742    248.6864   1.2357527419e+02   2.2421368145e+01    0.4449805     0.221639  42.69  0.003123532    1.396    0.284
        28 -12.6175      2.2910    239.9928   1.2363376636e+02   2.4011783879e+01    0.3965614    0.1411324  82.11  0.002204007    2.715    0.632
        29 -12.1238     87.4197    225.8876   1.0594528136e+02   1.7511766739e+01    0.2670137    0.1652922  64.61  0.001466425    1.798    0.444
        30 -12.7597    170.5827    245.9206   9.1936685761e+01   3.8387817014e+00    0.3771652    0.3243859  -3.84  0.001944749    1.249    0.199
        31 -14.1358     14.7271    213.6448   1.2042434478e+02   2.7749078061e+01    0.5688731    0.2682885 -70.82  0.003301776    2.263    0.558
        32 -12.8106      5.9840    208.2379   1.2206296968e+02   2.9566470986e+01    0.4180866    0.1961693  33.55  0.001452086    1.821    0.451
        33 -14.6055     11.1295    206.3501   1.2091200191e+02   2.9500821111e+01    0.8099973    0.5948628  20.53  0.004032032    1.638    0.390
        34 -13.1531     24.4452    208.0957   1.1813035845e+02   2.7937809275e+01    0.3185238    0.2734538 -38.87 0.0008407262    1.677    0.404
        35 -14.0506    247.6331    198.6090   7.2063063751e+01  -6.7993681275e-02     1.701436     0.626421 -23.28  0.008117546    2.920    0.658
        36 -12.6192    172.4457    185.0578   8.2781481523e+01   1.2291776003e+01    0.5082154    0.4564479  52.97  0.002232565    1.390    0.280
        37 -10.7425    147.7569    197.9621   8.9880222736e+01   1.3950089950e+01    0.2395585    0.1475384  45.89  0.001290078    1.639    0.390
        38 -15.5881    198.6391    124.5859   6.5617054448e+01   1.7828132973e+01     2.077371     1.997744  70.98  0.008427429    1.267    0.211
        39 -14.4629    210.4477    168.6298   7.2724743428e+01   8.9030187397e+00     1.410566    0.7287519 -39.57  0.007236976    1.950    0.487
        40 -15.2579    196.3223    151.9571   7.1961796900e+01   1.3757299769e+01     1.781255     1.172354 -36.89   0.00758092    1.465    0.317
        41 -14.4942    234.0160    123.0678   5.9646691076e+01   1.1745706903e+01     1.689317      1.09218  49.82  0.007585009    1.858    0.462
        42 -13.9019    219.0773    113.8467   5.9802759364e+01   1.5728511140e+01    0.8693792    0.7443208  62.78  0.003646767    1.470    0.320
        43 -15.5572    239.9248    171.1869   6.8416986472e+01   4.2535042404e+00     1.651099     1.101924 -26.64  0.008058383    1.307    0.235
        44 -14.4247    248.3539    147.2632   6.2604526831e+01   6.1766556516e+00     1.656452    0.4422488 -32.79  0.006581776    3.156    0.683
        45 -14.3277    221.3949    146.1465   6.6449308618e+01   1.0473913232e+01     1.500465    0.7861227  48.25  0.007491227    2.281    0.562
        46 -11.7231     54.4763    180.3857   1.0924941268e+02   3.0578099365e+01    0.3126183    0.2356613 -25.30  0.001686443    1.957    0.489
        47 -11.2572    142.4510    170.9583   8.6661598519e+01   1.9628249019e+01    0.3330989    0.2550097 -60.18  0.001546625    1.551    0.355
        48 -11.8196     60.6796    174.4296   1.0709989502e+02   3.1155647916e+01    0.2570782    0.2287514 -33.22  0.001082999    1.429    0.300
        49 -11.4328    170.5633    178.2904   8.1982689567e+01   1.3701467961e+01     0.368894    0.2742766 -34.21   0.00206916    1.382    0.277
        50 -12.6202    112.1984    162.4020   9.2336314492e+01   2.6376455940e+01    0.7483042     0.417245  50.59  0.002639958    1.885    0.469
        51 -12.9233      8.2797    168.2266   1.1999228284e+02   3.7888547768e+01    0.2273818    0.1912386  48.14 0.0008057986    1.196    0.164
        52 -11.3419     71.5769    164.4855   1.0311978787e+02   3.2009290849e+01     0.226788    0.2198785  70.10 0.0005413283    1.122    0.109
        53 -13.4086     57.9602    160.8802   1.0632610121e+02   3.4608381339e+01     0.471359    0.2868051 -43.72  0.001494267    2.100    0.524
        54 -12.8653    164.6292    187.6154   8.4778897610e+01   1.3092172691e+01    0.6468108    0.5229717  28.75  0.002466928    1.116    0.104
        55 -12.2584     78.9205    157.9877   1.0028509582e+02   3.2490935622e+01    0.4026124    0.3266338 -14.97  0.001257311    1.657    0.396
        56  -9.6148    123.2716    151.6750   8.7675092785e+01   2.6796626139e+01    0.1397467    0.1108568  78.90 0.0003569385    1.577    0.366
        57 -13.3715     68.1518    143.9004   1.0124155331e+02   3.7356337276e+01    0.6845537    0.4222414  66.36  0.002287764    1.851    0.460
        58 -12.1747     82.4364    142.1338   9.6852689383e+01   3.5718012315e+01    0.2753287    0.2408908 -57.81 0.0005297047    1.178    0.151
        59 -12.3617     72.3592    137.1959   9.8961877122e+01   3.8408074565e+01    0.3438126    0.3126388  21.66  0.001352369    1.242    0.195
        60 -11.1343     79.8112    132.4730   9.5933447483e+01   3.8461615313e+01    0.2915716    0.2177515  79.72  0.001190571    1.501    0.334
        61 -10.4893    106.8545    131.8441   8.8038870197e+01   3.4111659093e+01    0.2280374    0.2058296  -9.13  0.001086011    1.277    0.217
        62  -9.8604     94.3401    128.3000   9.0851743090e+01   3.7124522927e+01    0.1479201    0.1173095 -15.64 0.0007036005    1.667    0.400
        63 -11.8893      8.0511    125.6853   1.1756443204e+02   4.8145538513e+01    0.1779126    0.1572523  69.42 0.0008498547    1.110    0.099
        64 -11.6933     68.1958    122.2936   9.7657566262e+01   4.2720626171e+01    0.3726713    0.1604831 -49.02  0.001415812    2.438    0.590
        65  -9.6366    105.2677    120.2623   8.5967680809e+01   3.7092775808e+01    0.1401567    0.1178847 -13.72            0    1.459    0.314
        66 -12.7904      3.2453    110.9934   1.1805027064e+02   5.2163874132e+01    0.3706395    0.2238109 -72.80  0.002024965    1.409    0.290
        67 -12.9664    231.0799     92.6533   5.3196292599e+01   1.6639712820e+01    0.8633404    0.4111451 -44.41  0.003650688    1.997    0.499
        68 -12.7390      5.3241     98.8678   1.1627702605e+02   5.5153117396e+01    0.3269231    0.1820457 -74.01  0.001455492    1.491    0.329
        69 -12.7380    202.5085    204.4206   8.0373469492e+01   5.0394893889e+00    0.5879586    0.4764334 -31.03  0.002733563    1.408    0.290
        70 -13.9927    208.3469    242.1440   8.4934941193e+01  -2.8481508831e-01    0.8451054    0.5214198 -18.26  0.005941753    1.623    0.384
        71 -14.2814    238.4210    221.4794   7.7120722352e+01  -1.5232859112e+00    0.8860512    0.6623682   6.79  0.005106829    1.085    0.078
        72 -13.9105    225.2271    217.5860   7.8611289067e+01   4.7246374089e-01    0.8727174    0.5060504 -20.36  0.004274406    1.618    0.382
        73 -12.2924     12.9063     94.5879   1.1292539453e+02   5.5801191573e+01    0.2784444    0.2327889  35.70  0.001194206    1.337    0.252
        74 -13.2579     13.9938     88.2702   1.1168195510e+02   5.7367349929e+01    0.4951316    0.4081557 -23.61  0.002422938    1.426    0.299
        75 -13.1294      7.5234     48.4743   1.0783863422e+02   6.7829631715e+01     1.115615    0.3626732 -47.71  0.004589031    2.559    0.609
        76 -12.1214      1.5027     65.9943   1.1412477591e+02   6.3753513908e+01    0.4264099    0.1837729 -75.47  0.001411004    1.921    0.480
        77 -13.0244      2.4613     59.6220   1.1269724640e+02   6.5315348225e+01    0.7910841     0.427739 -25.70  0.003987947    2.141    0.533
        78 -14.1317    203.7291    225.9573   8.3447073613e+01   2.1433704052e+00    0.7691534      0.63704  64.90  0.005135565    2.458    0.593
        79 -15.1832    210.4630    215.9472   8.0806288397e+01   2.5115016678e+00     1.207818    0.8270394 -25.01   0.00647947    1.440    0.306
        80 -14.9550    187.9677    237.1291   8.7735760438e+01   2.7584800225e+00      1.16087    0.7508773 -34.64  0.005901371    1.766    0.434
        81 -13.9965    183.2041    224.7868   8.6895451706e+01   4.9300087309e+00    0.6964075    0.5521547  17.51  0.003473558    1.035    0.034
        82 -13.7052    170.1052    237.1559   9.0933008477e+01   5.0129821423e+00    0.6603323    0.5127991 -10.89  0.003110481    1.343    0.255
        83 -11.8212    221.3104    246.5989   8.3429818954e+01  -2.2371739715e+00    0.3290671      0.22635  16.84  0.001757803    1.099    0.090
        84 -12.2882    161.5139     43.0516   4.9670701424e+01   3.9428856936e+01    0.3760019    0.2685401 -47.17  0.001405968    1.345    0.257
        85 -11.2885     30.8163    247.1610   1.1855255975e+02   2.0181570843e+01    0.1277119    0.1123795  40.46 0.0004148885    1.320    0.242
        86 -12.5286    223.7889     26.4548   3.7675061180e+01   2.6801283097e+01    0.4106284    0.3577206   2.69  0.001341669    1.427    0.299
        87 -10.5645    129.5900     36.8661   5.3412117045e+01   4.8435963018e+01    0.2148889    0.1276616 -44.09 0.0005214757    1.691    0.409
        88 -10.6179     20.7001    238.9520   1.2015415744e+02   2.2549703608e+01    0.1449299     0.106419  62.83 0.0004289554    1.112    0.101
        89 -11.9339     14.1078    239.3538   1.2141557815e+02   2.3086883481e+01    0.2165066    0.1219554  18.86  0.001349441    2.243    0.554
        90 -12.5970    155.1581    228.4200   9.2608601175e+01   8.1630325962e+00    0.5628307    0.3679055  46.43  0.002762352    1.633    0.388
        91 -12.3514     10.6167    231.7668   1.2185194350e+02   2.4737212318e+01    0.1907877    0.1091088  73.45   0.00130127    1.502    0.334
        92 -12.0397     83.9838    229.4765   1.0696803544e+02   1.7318226969e+01    0.3031059    0.1505132  85.67  0.001395576    3.598    0.722
        93 -12.5807      5.4971    228.2016   1.2273978197e+02   2.5826541204e+01    0.2166877    0.1631663  12.82  0.001057861    1.820    0.451
