#   1 NUMBER                 Running object number                                     
#   2 MAG_AUTO               Kron-like elliptical aperture magnitude                    [mag]
#   3 X_IMAGE                Object position along x                                    [pixel]
#   4 Y_IMAGE                Object position along y                                    [pixel]
#   5 X_WORLD                Barycenter position along world x axis                     [deg]
#   6 Y_WORLD                Barycenter position along world y axis                     [deg]
#   7 A_WORLD                Profile RMS along major axis (world units)                 [deg]
#   8 B_WORLD                Profile RMS along minor axis (world units)                 [deg]
#   9 THETA_WORLD            Position angle (CCW/world-x)                               [deg]
#  10 FWHM_WORLD             FWHM assuming a gaussian core                              [deg]
#  11 ELONGATION             A_IMAGE/B_IMAGE                                           
#  12 ELLIPTICITY            1 - B_IMAGE/A_IMAGE                                       
         1 -13.3802    226.5596      6.1333   3.3854260994e+01   2.8099010403e+01     1.843376     1.250355  43.13  0.008552383    1.993    0.498
         2 -13.2251    194.4907     41.4242   4.5905428817e+01   3.1453303126e+01     1.139221    0.9836413 -52.45   0.00350963    1.130    0.115
         3 -13.6252    202.7437     32.6500   4.2535160422e+01   3.0589837280e+01     1.185221     1.029928  -9.87  0.001299826    1.402    0.287
         4 -11.8793     47.4463      2.3208   6.6950882949e+01   6.8671140650e+01    0.5044915    0.1704574  45.26  0.002238319    2.877    0.652
         5 -10.3291     35.2218      8.4075   7.5682159635e+01   6.9752029564e+01    0.1540377    0.1039362  36.54  0.000954437    1.676    0.403
         6 -11.1442    193.8013    196.0470   8.3467550122e+01   4.2626582198e+00     1.008434    0.5787358 -65.04  0.003264731    5.321    0.812
         7 -10.9683    140.1030    249.7421   1.0297777141e+02   4.0569864511e+00     0.522664    0.2412076  39.61  0.002541773    1.747    0.427
         8 -11.1310    139.7645    244.9728   1.0244294030e+02   4.8772073533e+00    0.2535155    0.2160084  -3.95  0.001569393    1.396    0.283
         9 -18.6683     15.1905    188.4994   1.2263862298e+02   3.2638300255e+01       16.321     4.545396 -79.34   0.06470433    3.397    0.706
        10  -9.8461    120.1287    194.2055   9.9433273186e+01   1.7595807903e+01    0.2404891     0.210687  80.75 0.0003875698    1.232    0.188
        11 -15.2477     71.6142    148.2547   1.0412085515e+02   3.5872443755e+01     9.442785     4.633538  75.15   0.01211602    6.705    0.851
        12 -10.5030    203.8210    200.2481   8.2235383148e+01   1.8413251246e+00    0.2757561    0.1549558  33.17  0.001341943    1.665    0.399
        13 -10.2109    149.1593    187.6337   9.1597077592e+01   1.3865013256e+01    0.3302407    0.2624935  52.48  0.001011382    1.325    0.246
        14  -9.1359     92.5373    184.6237   1.0449048208e+02   2.4159633776e+01    0.2574597    0.1572967  40.58 0.0006980732    1.563    0.360
        15 -10.8309    108.2687    211.3473   1.0462913847e+02   1.5963210578e+01    0.2688953    0.2416026  36.92  0.001675894    1.121    0.108
        16 -10.5459     98.8737    180.9185   1.0239237708e+02   2.4011421821e+01    0.3748588    0.2739731  15.85  0.001455637    1.760    0.432
        17 -10.1276    189.1318    177.1476   8.0707986838e+01   8.5000102720e+00      0.47057    0.3683138 -57.78  0.002417982    1.640    0.390
        18  -8.5461    149.0797    176.7013   8.9554802527e+01   1.6136796739e+01    0.2002138    0.1791544  33.72 0.0003785804    1.066    0.062
        19 -10.1110    238.8119    175.6117   7.0733308037e+01   1.9924271683e-02    0.2678813    0.0923319 -34.42  0.001030614    2.694    0.629
        20  -9.9909     53.6715    163.6826   1.1119625531e+02   3.4415627217e+01    0.2047386    0.1955595 -39.07 0.0006378588    1.244    0.196
        21 -11.3565     47.8024    172.1969   1.1370793757e+02   3.3071612454e+01    0.5209715    0.3847682 -44.50  0.002101617    1.604    0.376
        22  -9.9950     51.4972    171.4890   1.1272198948e+02   3.2811283153e+01     0.268005    0.2109214  74.21 0.0007077145    1.199    0.166
        23  -9.6308     84.2038    173.9093   1.0493359028e+02   2.7888736295e+01     0.223642    0.2058202  15.23 0.0003659535    1.269    0.212
        24  -9.2291    143.4612    179.4823   9.1404438837e+01   1.6596372630e+01    0.1456011    0.1379814  22.75 0.0001255831    1.019    0.019
        25  -8.9899    147.0034    172.4875   8.9217542355e+01   1.7417518709e+01     0.224533    0.1418001  39.04  0.001010649    1.525    0.344
        26  -9.4051     82.1930    194.9718   1.0835314688e+02   2.3376482892e+01    0.3930068    0.2890271   1.53   0.00200995    2.133    0.531
        27  -9.9049    137.6124    169.3567   9.0850971538e+01   1.9862089761e+01    0.3365324    0.2866874  36.24  0.001311873    1.139    0.122
        28 -10.3389     52.3622    166.7877   1.1192654650e+02   3.3826757644e+01    0.3243885    0.2130589 -52.16  0.001336107    1.574    0.365
        29  -9.1676    231.3188    168.6825   7.0642616651e+01   2.3936402137e+00     0.125409    0.1100766 -65.57 0.0003950028    1.658    0.397
        30  -9.2600    187.9771    162.9966   7.7967004198e+01   1.1403080063e+01     0.221519    0.1869583 -76.59 0.0006239428    1.657    0.397
        31 -10.5867     53.2563    157.0496   1.1041162631e+02   3.6067262925e+01    0.3318163     0.228351  80.41  0.001114262    1.555    0.357
        32 -11.5278     92.6711    151.9247   9.9028138058e+01   3.1831561205e+01    0.7184067    0.5557268 -16.11  0.003526381    1.714    0.417
        33  -9.5119    186.9947    151.5072   7.5628079902e+01   1.3834264670e+01    0.2263129    0.1466177  41.30 0.0006849157    1.561    0.359
        34 -10.6954    133.7128    145.1028   8.6727662150e+01   2.6046951811e+01     1.187315    0.3115216 -53.98  0.002822969    5.514    0.819
        35  -9.1153    112.6550    151.0793   9.3511845487e+01   2.8634311924e+01     0.253302    0.2032382  54.69 0.0005253456    1.310    0.236
        36  -9.2624    174.7713    148.9749   7.7727104367e+01   1.6837312893e+01    0.2794622    0.2148897 -59.79 0.0009721805    1.570    0.363
        37 -10.4626    105.1437    138.1003   9.2817095402e+01   3.3062267915e+01    0.5785105    0.3472248 -28.51  0.002258833    2.370    0.578
        38 -11.6673     92.6488    137.9603   9.6291771944e+01   3.5224519883e+01    0.2909381    0.2643131 -40.12 0.0004417566    1.117    0.105
        39 -11.2130    112.4656    205.9178   1.0294537057e+02   1.6407427055e+01    0.3535486     0.287268  57.79 0.0009545988    1.183    0.154
        40 -10.1723    105.9544    130.7242   9.0946428160e+01   3.4681104989e+01    0.3745457    0.3252431 -73.68  0.001188693    1.241    0.195
        41 -10.4163    135.6505    129.1077   8.2468736933e+01   2.9283065117e+01    0.5103217    0.1474475 -49.38    0.0014225    3.690    0.729
        42 -11.2222    119.1827    123.4426   8.5500564536e+01   3.3900314636e+01    0.7248948    0.4526391 -22.17   0.00277272    2.360    0.576
        43  -9.0079    161.0070    127.8023   7.5832201503e+01   2.4168085464e+01    0.2333768    0.1751542 -62.13  0.001008468    1.610    0.379
        44  -8.4856     95.9718    127.9913   9.3186334067e+01   3.7086425563e+01    0.1781894    0.1649836 -52.15            0    1.033    0.032
        45 -10.2668    100.5220    125.1640   9.1216669147e+01   3.6977406788e+01     0.317718    0.2498298 -26.50 0.0009144852    1.424    0.298
        46 -10.1943    113.3384    129.1767   8.8513187957e+01   3.3686354941e+01    0.3714166    0.3028572 -16.99 0.0009131572    1.426    0.299
        47  -9.3378    109.0459    118.3510   8.7099444089e+01   3.7033986726e+01    0.2438763    0.2024672 -34.60 0.0003902202    1.208    0.172
        48  -9.9636    231.3133    113.6762   5.8404711094e+01   1.1774613288e+01    0.2658711    0.2432014 -32.97   0.00080539    1.032    0.031
        49  -9.0505    167.5775    112.5464   7.0389072695e+01   2.5865080773e+01    0.3606051    0.2485944 -80.68  0.001381368    2.519    0.603
        50  -9.2798    134.6022    112.3031   7.8433459590e+01   3.3241269783e+01    0.3161174    0.1496862 -48.25  0.001139179    2.163    0.538
        51 -11.4325    117.7571    108.6597   8.2079646149e+01   3.7555727528e+01    0.6900109    0.6506216  83.71  0.003407927    1.190    0.160
        52  -7.8929    143.3504    110.3159   7.5625186237e+01   3.1768211850e+01    0.1658633    0.1251959   3.80 0.0007047176    1.731    0.422
        53  -9.3652    205.6053    110.1091   6.1970720157e+01   1.7797486587e+01    0.2657034    0.2178453  40.09 0.0006451714    1.298    0.229
        54 -12.5690    108.5373    202.5685   1.0335420211e+02   1.7730982324e+01    0.8917129    0.5973657 -27.25 0.0009937026    2.280    0.561
        55  -8.8932     93.6764    205.4344   1.0709013949e+02   1.9425495200e+01    0.2437433    0.1985705   6.29  0.000763747    1.649    0.394
        56 -10.7390     51.9521     89.7108   9.8225895084e+01   5.2601936289e+01    0.3655814    0.2630329  62.98 0.0006334221    1.982    0.495
        57  -8.8500     79.4314    192.1841   1.0863456387e+02   2.4390810471e+01      0.23514    0.1611663  52.40 0.0005374149    1.376    0.273
        58  -8.4729    156.9915     82.0325   6.4310829619e+01   3.4254692939e+01    0.1847588    0.1823538  11.61 0.0004606333    1.003    0.003
        59  -8.6364    184.6121     77.1379   5.7241929527e+01   2.8468827114e+01    0.2078603    0.1428062 -22.46 0.0009357796    1.652    0.395
        60  -8.8086     92.8985    249.1337   1.1212033253e+02   1.1091818081e+01    0.2213983    0.1313478  37.34  0.001224684    1.481    0.325
        61 -12.9725    182.9169     50.7221   5.0195457546e+01   3.3005354761e+01    0.9414707    0.9111578 -46.60 0.0008930585    1.071    0.066
        62  -8.5174    168.0388    247.9878   9.7261254158e+01   6.4140300546e-02    0.1445067    0.1183088  26.71            0    1.019    0.019
        63  -8.9002     96.4004    201.7643   1.0599544713e+02   1.9793617670e+01    0.1786007    0.1221613 -51.42 0.0005531187    1.610    0.379
        64 -10.2900     30.3092    194.9660   1.1992828728e+02   2.9765827123e+01     0.327243    0.1670957  54.19  0.001307708    1.802    0.445
        65  -9.0990    189.6790     15.0257   3.9516510748e+01   3.5737520493e+01    0.1769359    0.1649217 -68.34 0.0006102178    1.100    0.091
        66 -12.2102    185.3537    210.5959   8.7869966099e+01   3.2240440284e+00     0.868067     0.541765   9.26  0.004125261    2.036    0.509
