#   1 NUMBER                 Running object number                                     
#   2 MAG_AUTO               Kron-like elliptical aperture magnitude                    [mag]
#   3 X_IMAGE                Object position along x                                    [pixel]
#   4 Y_IMAGE                Object position along y                                    [pixel]
#   5 X_WORLD                Barycenter position along world x axis                     [deg]
#   6 Y_WORLD                Barycenter position along world y axis                     [deg]
#   7 A_WORLD                Profile RMS along major axis (world units)                 [deg]
#   8 B_WORLD                Profile RMS along minor axis (world units)                 [deg]
#   9 THETA_WORLD            Position angle (CCW/world-x)                               [deg]
#  10 FWHM_WORLD             FWHM assuming a gaussian core                              [deg]
#  11 ELONGATION             A_IMAGE/B_IMAGE                                           
#  12 ELLIPTICITY            1 - B_IMAGE/A_IMAGE                                       
         1 -14.8361     42.1597     42.5381   8.6140742661e+01   6.4190851388e+01     1.069936    0.5285748   8.93  0.003628289    3.098    0.677
         2 -13.1117     21.8112     21.2960   8.7299219665e+01   7.0009721297e+01    0.9778454    0.4351924 -20.14  0.004386765    2.921    0.658
         3 -14.1709      7.5318     21.4060   9.5189813480e+01   7.1171746235e+01     1.340757    0.6143513 -31.55  0.007447631    1.826    0.452
         4 -12.7781     75.4860     13.6218   6.0256524077e+01   6.3035369022e+01    0.4001218    0.2502577  37.32 0.0008215953    1.393    0.282
         5 -13.1330     82.5202     12.6557   5.7592468354e+01   6.1741557333e+01    0.4684877    0.2769191   6.75  0.001592833    2.019    0.505
         6 -12.1933     88.5049     11.7681   5.5447406244e+01   6.0596098212e+01    0.3983319    0.3063884 -82.38  0.002201503    2.067    0.516
         7 -11.7999    124.0366     10.4188   4.6569308017e+01   5.2731637866e+01      0.24304    0.2005043  50.42 0.0003321727    1.061    0.057
         8 -10.7681     28.0673      8.7119   7.7880661289e+01   7.1177868668e+01    0.1679654    0.1248484   6.09  0.001149814    1.113    0.101
         9 -12.0235     79.3408      5.8550   5.5528133345e+01   6.3030258428e+01    0.2194889    0.1672748  56.53  0.001342078    1.379    0.275
        10 -10.2974    188.0776      5.4644   3.6048614864e+01   3.7693034734e+01    0.1774102    0.1106653  75.10 1.435184e-05    1.415    0.293
        11 -10.7877    137.9756      5.5173   4.2443181857e+01   4.9815766595e+01     0.202448    0.1143607  66.78 0.0006607434    1.546    0.353
        12 -12.0737     95.0926      3.2383   5.0105268767e+01   5.9940052333e+01    0.2706283    0.1803986  45.24  0.001290161    1.253    0.202
        13 -11.0398    242.1980     10.1589   3.2550342281e+01   2.5077791711e+01     0.169612    0.1074443 -60.14  0.001036182    1.327    0.247
        14 -11.0276     32.8004      3.5548   7.2697155608e+01   7.1216723978e+01    0.3106156   0.09123062  33.77  0.001304413    3.342    0.701
        15 -12.5844     89.4141      1.7603   5.0911417566e+01   6.1282029995e+01    0.3742778    0.1616475  63.98  0.001657725    2.450    0.592
        16 -11.3351     73.4546      1.4350   5.5293382571e+01   6.4585796941e+01     0.225963    0.1054897  52.85 0.0005985979    1.905    0.475
        17 -11.6215    189.7949    104.1282   6.2009259498e+01   2.3050896295e+01    0.3882439    0.2123652 -26.59  0.001503713    2.215    0.549
        18 -11.8660    210.4550    151.9357   6.9412802398e+01   9.7003700886e+00    0.3446319    0.1988428 -31.92  0.001420646    1.688    0.408
        19 -11.4992    194.5520     96.0639   5.9033986716e+01   2.3454122321e+01    0.3460825    0.2534541  23.29  0.001604881    1.792    0.442
        20 -10.5173    113.6372     96.3193   7.8248429876e+01   4.1663587328e+01    0.1578906    0.1247682  86.52 0.0007041448    1.773    0.436
        21 -12.6413    177.1006     92.3270   6.1419495385e+01   2.8172192014e+01    0.6669099    0.4842252  -6.93  0.002956375    1.888    0.470
        22 -12.8307     30.9004     88.3736   1.0429803739e+02   5.5662408303e+01    0.2844789    0.1644746 -53.17  0.001482178    1.412    0.292
        23 -15.0630    136.9411     79.6866   6.6884359393e+01   3.9957712706e+01      1.24377     1.070061 -50.29  0.006383413    1.214    0.177
        24 -12.8263    160.1398     71.9379   5.9175502959e+01   3.5853252098e+01    0.4027281    0.2312697  55.58 0.0004145142    1.735    0.424
        25 -13.9313    166.9564     78.2945   5.9595065334e+01   3.3111533643e+01     0.831302     0.484725 -61.42  0.003205311    2.423    0.587
        26 -12.7968     40.7910     81.9378   9.9068359859e+01   5.6227591442e+01    0.3923248    0.2293089  22.17  0.001988142    1.930    0.482
        27 -12.5033     27.6417     81.1056   1.0390979698e+02   5.7613901566e+01    0.2044268    0.1825637  32.80   0.00097317    1.346    0.257
        28 -14.3890     59.8146     71.7440   8.8895758713e+01   5.6213692599e+01    0.7404861    0.5476391  -3.48  0.002809923    1.495    0.331
        29 -13.3811     96.1434     71.0312   7.5809781307e+01   5.0337528180e+01    0.5485319    0.4671461 -78.90   0.00150577    1.591    0.371
        30 -13.8012      8.7954     63.7987   1.0755333631e+02   6.2743130167e+01    0.4804453    0.2642938 -49.34  0.002751171    1.384    0.277
        31 -11.3972    169.8648     63.0423   5.4637272910e+01   3.4952946986e+01    0.2333922    0.1954554 -71.93  0.000577656    1.290    0.225
        32 -12.9913      5.4644     84.3312   1.1291719659e+02   5.8298808101e+01    0.4251215    0.1738275 -52.59   0.00211619    1.823    0.452
        33 -13.6390     84.0360     60.0233   7.6083041232e+01   5.4676969504e+01    0.4443253    0.3719504   8.93  0.002478586    1.172    0.146
        34 -15.2629     42.2466     47.6495   8.8009485761e+01   6.3242623034e+01     1.614073     0.674876 -31.21  0.004813041    2.730    0.634
        35 -11.0468    246.9219    183.3586   6.9364775953e+01  -1.8544083549e+00    0.1787609    0.1453479  -2.01 0.0004561339    1.081    0.075
        36 -13.7700     52.6299     34.8193   7.8439496294e+01   6.4116598390e+01    0.6537071    0.4239359  -1.02  0.003506992    1.697    0.411
        37 -12.5810    133.8389     54.0657   5.9501338366e+01   4.5079334833e+01    0.5311027    0.3314367  73.15  0.002102376    2.163    0.538
        38 -13.0707    153.0553     53.2869   5.5017593022e+01   4.0563805622e+01    0.5090388    0.2929876  26.46  0.001685556    2.733    0.634
        39 -11.8084     54.0025     53.4936   8.5116483825e+01   6.0658859562e+01     0.193718    0.1264157  26.74  0.001018992    1.582    0.368
        40 -12.5459     20.8700     53.0180   9.9415919378e+01   6.4248322153e+01    0.2107524    0.1719484  -2.96  0.001401545    1.266    0.210
        41 -11.9399    145.5339     50.7106   5.5776445744e+01   4.2777905775e+01     0.279827    0.2659443  49.52 0.0007987901    1.012    0.012
        42 -13.5266      3.7418     47.3609   1.0574995985e+02   6.6471202429e+01    0.5555212    0.4137487  85.78    0.0029449    1.979    0.495
        43 -13.1424    203.2232    171.7607   7.5098046646e+01   7.4005847381e+00    0.5316199    0.3026521 -34.21  0.002439278    1.714    0.417
        44 -11.2604     18.0098     19.9757   8.8760424289e+01   7.0578848933e+01    0.2468685    0.1564973 -30.94 0.0005888959    1.266    0.210
        45 -12.4337      2.3147     38.2449   1.0386896447e+02   6.8365337949e+01    0.3799272    0.2246418 -63.71   0.00185202    1.701    0.412
        46 -13.8772    239.3885    158.9010   6.5680625478e+01   3.2733615490e+00     0.942091    0.5699667 -18.16  0.004151074    1.825    0.452
        47 -13.5183     58.1019     45.3181   8.0384809064e+01   6.1565981975e+01    0.3276195    0.2532017  19.00   0.00193203    1.255    0.203
        48 -12.4941    125.0014     56.8316   6.2612988350e+01   4.6705793885e+01    0.2851226    0.2764758  11.78 0.0004824059    1.031    0.030
        49 -10.9879    116.2930     45.3215   6.0902640296e+01   5.0456875274e+01    0.1469483     0.105511  18.49  0.000223259    1.611    0.379
        50 -11.2320    182.0915     43.3068   4.6959235243e+01   3.4842473428e+01     0.207286    0.1917777 -18.20 0.0001882021    1.223    0.182
        51 -11.2468    156.9860     43.8851   5.1354367441e+01   4.0938863074e+01    0.2629747    0.1925954  60.02 0.0005585639    1.290    0.225
        52 -10.4303    122.1496     43.8417   5.8876479225e+01   4.9329408592e+01    0.2018457    0.1609484  22.48 0.0009805514    1.321    0.243
        53 -11.6897    217.9995     38.2783   4.0992579976e+01   2.7018531750e+01    0.2255045    0.1803563 -43.07 0.0002288678    1.211    0.174
        54 -12.8724     35.5572     34.4584   8.5996241885e+01   6.6380162454e+01     0.440158    0.3814552 -13.67  0.001947456    1.148    0.129
        55 -12.4770     43.1892     32.1306   8.1475623620e+01   6.5842087134e+01    0.5079404     0.214933  23.75  0.002061838    2.783    0.641
        56 -11.6875    174.7320     56.5691   5.1893800157e+01   3.4760194608e+01    0.2534967    0.2400941 -81.90 0.0004633092    1.023    0.023
        57 -10.2735    140.2781     35.3346   5.1885278983e+01   4.6150966561e+01    0.1430536    0.1029687  26.46 0.0002074497    1.609    0.378
        58 -12.3851     79.0100     30.7229   6.6506685637e+01   6.0295985927e+01      0.27548    0.1928664  42.99   0.00118056    1.388    0.279
        59 -14.5486     70.1401     54.9661   7.9286406182e+01   5.7986009873e+01    0.6670577    0.4756292  44.12  0.002270077    1.599    0.374
        60 -11.9903     83.8130     22.9745   6.1643930768e+01   6.0348465475e+01    0.2995903     0.261641  22.22  0.000721077    1.038    0.037
        61 -10.4359    241.8010     22.5890   3.5185794974e+01   2.3757180827e+01    0.1627612      0.10203 -86.28 0.0004329206    1.551    0.355
        62 -11.3687     63.5663     18.1560   6.6579243810e+01   6.4716755004e+01    0.3402683    0.1966715  52.40  0.001744885    2.086    0.521
        63 -14.5706    247.7006    143.1167   6.0973751172e+01   4.4777565246e+00     2.018395    0.5965123 -36.50  0.007282238    2.957    0.662
        64 -10.8298    138.5159    152.5025   8.5548541020e+01   2.3907839457e+01    0.1514522    0.1497143   0.22 7.934507e-05    1.001    0.001
        65 -13.4340     48.9587    141.6678   1.0810268726e+02   4.0845066245e+01    0.7095913    0.4614264  28.43  0.003679617    1.739    0.425
        66 -11.3711      4.0000    139.9974   1.2036297984e+02   4.5137909331e+01    0.2128408   0.05685116 -75.10 0.0008074907    2.978    0.664
        67 -10.8370    189.8473    136.4513   6.9984453869e+01   1.6779310495e+01    0.3003203    0.2180314 -40.74  0.001196083    1.322    0.243
        68 -11.4830     33.7908    135.8057   1.1161142013e+02   4.3856212466e+01    0.1882955    0.1435429  75.12  0.001077473    1.362    0.266
        69 -13.1139    201.4561    138.9990   6.8235648487e+01   1.3897388329e+01    0.6867799    0.2886843  43.84  0.002589322    2.506    0.601
        70 -13.9626    204.8166    123.7644   6.4000556096e+01   1.6086943555e+01    0.9117684     0.447311 -34.64  0.003660565    1.996    0.499
        71 -13.9484    218.0723    122.6448   6.1332210547e+01   1.3559757186e+01     1.445695    0.7037979 -51.95  0.005608928    2.481    0.597
        72 -11.1412     28.6523    126.3283   1.1178473418e+02   4.6659337723e+01    0.1373057   0.09037872  69.37 0.0007049544    1.757    0.431
        73 -12.1401    228.9753    156.4957   6.6982721879e+01   5.4811973624e+00    0.2772522    0.1797276 -21.54  0.001049983    1.571    0.364
        74 -11.7803    198.6989    107.8470   6.1254836220e+01   2.0370330152e+01    0.2487999    0.1915325 -18.61  0.001212155    1.453    0.312
