#   1 NUMBER                 Running object number                                     
#   2 MAG_AUTO               Kron-like elliptical aperture magnitude                    [mag]
#   3 X_IMAGE                Object position along x                                    [pixel]
#   4 Y_IMAGE                Object position along y                                    [pixel]
#   5 X_WORLD                Barycenter position along world x axis                     [deg]
#   6 Y_WORLD                Barycenter position along world y axis                     [deg]
#   7 A_WORLD                Profile RMS along major axis (world units)                 [deg]
#   8 B_WORLD                Profile RMS along minor axis (world units)                 [deg]
#   9 THETA_WORLD            Position angle (CCW/world-x)                               [deg]
#  10 FWHM_WORLD             FWHM assuming a gaussian core                              [deg]
#  11 ELONGATION             A_IMAGE/B_IMAGE                                           
#  12 ELLIPTICITY            1 - B_IMAGE/A_IMAGE                                       
         1 -13.6927    222.7069     27.4675   3.9362180968e+01   2.7196458688e+01     1.162682    0.8300914  39.68  0.006570009    1.818    0.450
         2 -11.5660      2.4303      5.8875   8.9868951714e+01   7.3373596832e+01    0.7041431    0.1267141 -44.80  0.002673348    4.327    0.769
         3 -12.8923    247.8439      4.5981   3.2250929628e+01   2.4384633527e+01    0.5689448    0.3819332 -56.85  0.003437259    1.235    0.190
         4 -11.3769     50.6805    249.8238   1.2013905756e+02   1.6409990638e+01    0.4192294    0.1476208  40.98  0.002191797    2.288    0.563
         5 -14.4895    123.6248    230.4438   1.0434723876e+02   1.0151735629e+01     3.865875     0.815935  38.09   0.01282377    4.055    0.753
         6 -14.2700    120.7148    247.6212   1.0702491612e+02   7.5947228368e+00     2.678214    0.6219425  35.91  0.009426138    4.012    0.751
         7 -14.0014     90.3383    247.3774   1.1274608142e+02   1.1874580653e+01      2.06988    0.4876294  37.03  0.007960116    3.633    0.725
         8 -15.6741      7.0496    238.9004   1.2693675570e+02   2.2971433014e+01     10.64165     1.845217 -77.67   0.04070799    5.228    0.809
         9 -13.6313     10.0995    206.6212   1.2464647008e+02   2.9050397540e+01    0.9334304    0.7139163  35.59  0.004170459    1.558    0.358
        10 -11.3642     51.0550    183.4875   1.1414536189e+02   2.9973803735e+01    0.3263884    0.2468343 -42.92  0.001061823    1.624    0.384
        11 -11.4173     57.9164    176.8664   1.1177147273e+02   3.0694497340e+01    0.2796632    0.2268379 -51.38 0.0004754997    1.338    0.252
        12  -8.7513    231.3628    170.7818   7.2032084144e+01   2.8094168566e+00    0.1939733     0.112477 -26.26 0.0005695291    1.601    0.375
        13 -10.6486     69.4017    166.4158   1.0756256852e+02   3.1714611832e+01    0.2430523    0.2211181 -57.41 0.0005642814    1.143    0.125
        14 -12.9303     55.3814    163.1850   1.1058867645e+02   3.4242860589e+01    0.5067528    0.2872356 -43.77   0.00142437    2.058    0.514
        15 -11.9170     76.8372    158.6589   1.0446659030e+02   3.2571434268e+01    0.7228767    0.5349209  73.28  0.001600501    1.531    0.347
        16 -11.4327     35.0113    158.9404   1.1509501018e+02   3.7470298567e+01    0.5251285    0.2508295  72.53  0.002160791    2.982    0.665
        17 -12.5685     67.9874    144.0845   1.0432251106e+02   3.7328851994e+01    0.7345443    0.5128225  70.34  0.003147314    1.741    0.426
        18 -12.4620     57.4250    132.2104   1.0515071358e+02   4.1588809155e+01     1.473421    0.5220672 -73.44  0.003839076    5.772    0.827
        19 -10.5068     44.4807    144.4739   1.1074401099e+02   4.0020111986e+01    0.3899078    0.1292263 -74.67  0.001221835    4.048    0.753
        20 -11.7058     80.8649    143.5068   1.0070784210e+02   3.5686301641e+01    0.3198178    0.2417839 -51.50 0.0005277913    1.233    0.189
        21  -9.1650     96.2016    141.8069   9.6203138523e+01   3.3739623126e+01    0.2026262     0.170135 -23.31 0.0003534825    1.350    0.259
        22 -10.7313     34.5612    139.7086   1.1272721125e+02   4.2183103717e+01    0.2459758     0.166935  -2.50  0.001298108    2.172    0.540
        23 -10.3627    106.6059    131.9304   9.1204172558e+01   3.4351879564e+01    0.3652838    0.3274532 -26.42  0.001204852    1.149    0.130
        24 -10.3736     92.9915    129.2738   9.4384085652e+01   3.7289071183e+01    0.2779625    0.2488403 -23.50 0.0003863178    1.185    0.156
        25 -14.1605     28.0976    204.1172   1.2097848449e+02   2.7876007604e+01     1.409813    0.7838532  78.15  0.004219383    1.700    0.412
        26  -9.2936    104.3620    120.8718   8.9184458937e+01   3.7364266960e+01    0.2137723    0.1786708 -42.21 0.0004642249    1.120    0.107
        27  -9.7858     93.1774    145.2879   9.7726466532e+01   3.3382263144e+01    0.2781597    0.2329943 -63.51 0.0008835001    1.140    0.123
        28 -12.2694     27.6315    112.9047   1.1059383582e+02   4.9363105557e+01    0.6578146    0.2676218  43.46  0.002807948    3.073    0.675
        29 -10.6188     52.6174    106.7353   1.0151524830e+02   4.8400767810e+01    0.2604576     0.167352 -66.00 0.0009474216    1.504    0.335
        30 -10.4782     52.7643     89.6391   9.7375102164e+01   5.2427154768e+01    0.2685774    0.2294581 -30.99 0.0008869604    1.104    0.094
        31 -15.1872     35.9673    193.7880   1.1849661936e+02   2.9312252601e+01      7.98798      3.00339  73.97   0.02496731    5.709    0.825
        32 -10.1620     13.3126     60.0009   1.0448144547e+02   6.2632639935e+01    0.1850349    0.1277978 -50.44 0.0005944183    1.128    0.113
        33 -11.4053    202.9044     45.4525   4.6151636009e+01   2.9442722689e+01     0.466251    0.2345963 -48.20  0.002068046    1.983    0.496
        34 -10.3947      1.8468     46.1344   1.0563268239e+02   6.6189206317e+01    0.3194644   0.04903887 -58.05  0.001120734    3.902    0.744
        35 -12.5398    208.6275     39.7611   4.3946958308e+01   2.8864121663e+01     0.554535    0.4810284  76.46  0.003370843    1.158    0.136
        36 -10.1854     63.0645    238.4574   1.1702798987e+02   1.7015263916e+01    0.2068262     0.135109  79.61 0.0006260733    1.504    0.335
        37  -9.7056    189.7684     15.3762   3.9760655879e+01   3.6070678412e+01    0.1850175    0.1075084  60.77 0.0009458016    1.625    0.385
        38 -12.8958     19.7246    212.1039   1.2317857800e+02   2.7023962642e+01    0.4483269     0.374535  55.40 0.0008961006    1.255    0.203
