#   1 NUMBER                 Running object number                                     
#   2 MAG_AUTO               Kron-like elliptical aperture magnitude                    [mag]
#   3 X_IMAGE                Object position along x                                    [pixel]
#   4 Y_IMAGE                Object position along y                                    [pixel]
#   5 X_WORLD                Barycenter position along world x axis                     [deg]
#   6 Y_WORLD                Barycenter position along world y axis                     [deg]
#   7 A_WORLD                Profile RMS along major axis (world units)                 [deg]
#   8 B_WORLD                Profile RMS along minor axis (world units)                 [deg]
#   9 THETA_WORLD            Position angle (CCW/world-x)                               [deg]
#  10 FWHM_WORLD             FWHM assuming a gaussian core                              [deg]
#  11 ELONGATION             A_IMAGE/B_IMAGE                                           
#  12 ELLIPTICITY            1 - B_IMAGE/A_IMAGE                                       
         1 -14.0912     68.4965    144.7590   9.2382791222e+01   3.7287595083e+01     4.598246     2.460286  80.78  0.002989782    4.323    0.769
         2 -13.4007    223.4160     31.3193   3.0372083232e+01   2.6810837424e+01     1.915172     1.248155  26.38  0.009584195    3.319    0.699
         3 -13.4011    209.4596     43.3225   3.4302073871e+01   2.8180656783e+01     1.625321     1.072856  47.05  0.008100039    1.956    0.489
         4 -11.4204    248.2386     10.1316   2.4484652071e+01   2.4457334257e+01    0.4059366    0.2741354 -60.94  0.002943616    1.109    0.099
         5 -11.6310    247.8201      3.9525   2.3368385380e+01   2.5177347023e+01      0.40784    0.3979773 -69.98   0.00347329    1.495    0.331
         6 -10.2216      2.0692      4.4481   8.0171426186e+01   7.5618492509e+01    0.4613597     0.101746 -43.99  0.001840937    3.986    0.749
         7  -9.2342     61.1732      3.3808   4.8297691873e+01   6.6507423619e+01    0.1735758    0.1093297  63.53 0.0009466588    1.728    0.421
         8 -10.4573    193.5021    195.8588   7.0327496373e+01   5.1713856891e+00    0.6064638    0.3271208 -61.98  0.001998323    5.284    0.811
         9 -10.1161    139.6162    249.6015   9.0257298142e+01   3.5492134613e+00    0.2473412    0.1624317  44.71  0.001407108    1.599    0.375
        10 -10.6957    102.1099    250.1062   9.8406602165e+01   8.5008766274e+00    0.4499165      0.14496  32.31   0.00184217    2.550    0.608
        11 -11.2298    101.4187    244.4067   9.7929779446e+01   9.6448161303e+00    0.4813963    0.2210437 -62.96  0.002259865    2.704    0.630
        12 -15.6005      8.8110    207.8024   1.1589835593e+02   2.8143553094e+01     9.802867      2.48311 -79.18   0.01998387    3.760    0.734
        13 -12.7744     15.9136    248.7569   1.1652784901e+02   1.8838269078e+01    0.3128769    0.2365875  71.08 0.0006787683    1.135    0.119
        14 -15.9107      7.4007    245.6978   1.1807556241e+02   2.0240918854e+01     8.732162     2.850431  16.76   0.01600957    8.012    0.875
        15  -9.1051     99.3649    180.8794   8.9746550397e+01   2.3554566186e+01    0.2469144    0.1956102  43.24 0.0006707237    1.232    0.189
        16 -11.3353     60.1062    171.6848   9.9211443681e+01   3.1489250737e+01    0.4999811    0.3229365 -26.08  0.002218495    2.174    0.540
        17 -11.1602     65.1396    167.0117   9.7090638936e+01   3.2017342361e+01    0.3548194    0.2822161 -29.89 0.0007317407    1.465    0.318
        18  -9.1444    110.1335    172.5297   8.5406298720e+01   2.3789404535e+01    0.3257182    0.1851572 -38.74  0.001338441    1.999    0.500
        19 -11.9041     82.9674    151.8402   8.9257975319e+01   3.3309886764e+01      1.18492     0.624846 -56.57  0.004851941    1.847    0.459
        20 -12.8120     62.2153    153.9514   9.5918381993e+01   3.5767077609e+01    0.5290233    0.3800708 -37.93  0.001418738    1.542    0.352
        21 -12.2194     75.2368    158.0187   9.2678532628e+01   3.2901054487e+01      1.11671    0.6158639  57.01 0.0007305679    2.330    0.571
        22 -10.9869    119.9530    245.1703   9.3938904629e+01   6.9926894063e+00    0.3194901    0.1880406 -53.16  0.001049091    1.987    0.497
        23  -8.5200    110.8009    167.7430   8.4336968018e+01   2.4814072930e+01    0.2055143    0.1769523  77.19 0.0006030338    1.357    0.263
        24 -11.2179     34.3438    158.3748   1.0497873288e+02   3.7872402622e+01    0.8326752    0.3432657  59.77  0.002847129    3.556    0.719
        25 -10.4865     56.1178    146.8000   9.6635605231e+01   3.8421074953e+01    0.6769825    0.3104387 -35.44  0.002292407    3.302    0.697
        26  -8.8615     48.1371    145.8274   9.9002240253e+01   3.9648449763e+01    0.2038294    0.1655423 -35.43 0.0007068595    1.333    0.250
        27  -9.4964     28.6522    143.0873   1.0480422343e+02   4.2406462573e+01    0.2455647     0.212964   3.45  0.001074629    1.331    0.249
        28 -11.6408     85.1924    137.7130   8.5762244078e+01   3.6542476726e+01    0.3273169    0.2899868 -43.47 0.0004355705    1.116    0.104
        29 -10.0534     98.4354    138.4683   8.1886301131e+01   3.4102747240e+01    0.6072848    0.3791179 -15.03  0.002206813    2.742    0.635
        30 -10.2203    107.1880    130.1141   7.7383903053e+01   3.4547749021e+01    0.5099134    0.3519161  17.51  0.002181097    1.796    0.443
        31  -9.4688    135.8512    129.9841   6.9456230109e+01   2.8947362675e+01    0.3924211    0.1075033 -46.44  0.001106798    3.586    0.721
        32  -9.8171    133.6182    143.9265   7.3296857912e+01   2.6241070926e+01     1.041523    0.2514522 -54.15  0.002124135    7.471    0.866
        33 -11.0685    239.8560    168.5701   5.6840343573e+01   3.0200888023e+00    0.2584604    0.1856322 -34.40 0.0008415174    1.180    0.152
        34  -8.4416     96.8698    124.4852   7.9147574930e+01   3.7817043329e+01    0.2144757    0.1545303  33.48  0.000303763    1.418    0.295
        35  -8.2601    115.6390    123.7133   7.3385760057e+01   3.4433690687e+01     0.161719    0.1237833  -2.71 0.0007022684    1.686    0.407
        36 -10.0226    232.0115    170.5084   5.8473871637e+01   3.8145462293e+00    0.2399454     0.154211 -65.21  0.001040369    3.514    0.715
        37  -8.6943    162.2905    119.8445   6.0671348364e+01   2.5637405834e+01    0.2428693    0.1822636 -60.45  0.001151163    1.508    0.337
        38  -9.2096    106.0188    118.2755   7.4828058420e+01   3.7586986054e+01    0.2383788    0.2158829 -43.57 0.0003184399    1.089    0.082
        39  -8.8243    158.9098    114.9186   6.0194247814e+01   2.7346516067e+01    0.2321788    0.1816052 -77.85 0.0006459242    1.658    0.397
        40  -9.9370    231.1371    113.7216   4.7109867495e+01   1.3374866391e+01    0.2468488    0.2324473 -72.35 0.0008337917    1.201    0.168
        41  -9.9462     35.0468    111.4261   9.7579392172e+01   5.0053555724e+01     0.427233    0.2199451  48.19  0.001547048    2.400    0.583
        42  -8.5330     75.5099    110.9709   8.2807819716e+01   4.4817735353e+01    0.2198767    0.1469114 -53.50 -8.715965e-05    1.457    0.314
        43  -9.3004    205.3174    110.2593   5.0234915713e+01   1.8702426009e+01    0.2614308    0.1964737  44.22  0.001101392    1.508    0.337
        44 -12.8603     32.5869    196.1804   1.0935313779e+02   2.8601866663e+01    0.8785017    0.5798377 -11.95  0.002540657    2.357    0.576
        45  -9.8464    241.1921    101.6219   4.3273085596e+01   1.3576407737e+01    0.1548743    0.1172971  41.79 0.0009481236    1.670    0.401
        46  -9.3223     60.0550    100.1741   8.5641463393e+01   4.9830743920e+01    0.2728191    0.1984684  49.75 0.0008210928    1.596    0.373
        47 -10.2718     53.1963     90.7120   8.5809453850e+01   5.3065775115e+01    0.3064595    0.1831434 -43.88 0.0007456155    1.574    0.365
        48  -8.6091    161.4884     84.4525   5.1716585145e+01   3.2582438047e+01    0.1441084    0.1396623 -67.64 0.0001527472    1.012    0.012
        49 -14.2245     42.6668    186.8102   1.0585097396e+02   2.9791579626e+01     2.761872     1.630595  67.57   0.01317579    1.856    0.461
        50  -9.0636     36.2719     63.5061   8.5102794977e+01   6.1362563646e+01     0.217946    0.1811215  38.38 0.0006721024    1.404    0.288
        51 -10.3372      1.7017     61.6463   1.0155405378e+02   6.4650611769e+01    0.3612004   0.08960551 -63.98  0.001335177    3.207    0.688
        52 -10.8366     13.2060     59.9655   9.5316708792e+01   6.4329411719e+01    0.2757256    0.2511176  55.26 0.0005342478    1.424    0.298
        53  -8.1628    124.3323    187.6483   8.4433795243e+01   1.7958249181e+01    0.1507997    0.1137817  68.87 0.0007046809    1.779    0.438
        54 -12.2631    200.4141     49.2014   3.6661438355e+01   2.9329912049e+01    0.6533983    0.5474485  17.45  0.001984883    1.715    0.417
        55  -9.2296     87.0716    206.0950   9.6666592826e+01   1.9535783558e+01    0.3133093    0.1730865 -63.47  0.001162116    1.960    0.490
        56  -9.7528     38.6284     57.5950   8.2020784092e+01   6.2308738234e+01    0.2620066     0.212926  38.71  0.000693592    1.431    0.301
        57 -10.1851     19.4470     55.5400   9.0831244311e+01   6.4790363370e+01    0.4299015    0.1704709  34.27  0.001839609    2.825    0.646
        58 -10.3359      5.5084     49.9904   9.6564362417e+01   6.7005717377e+01    0.2703296    0.1716668   7.89  0.001128782    1.626    0.385
        59 -10.0480      1.7635     49.0175   9.8346039325e+01   6.7426643021e+01    0.3029494    0.1722545 -71.73  0.001577248    2.028    0.507
        60 -14.2322     55.7031    234.2813   1.0714530248e+02   1.7485725496e+01     2.440999     1.254006 -86.70  0.006972816    2.412    0.585
        61  -8.9624    197.8466     24.0209   3.1018322721e+01   3.3016505819e+01    0.2006963    0.1733976  -1.22 0.0009759654    1.631    0.387
        62  -9.4885      2.2471     21.9817   8.8724910247e+01   7.2727209372e+01     0.153253   0.08754233 -47.86  0.000888349    1.599    0.375
        63  -8.4895    189.4051     14.8392   2.9637394536e+01   3.5872270958e+01    0.1483979    0.1185461 -17.39 0.0005660346    1.626    0.385
        64  -9.4645    116.0156    186.9212   8.6411950698e+01   1.9481832552e+01    0.2359993    0.1758434  67.97  0.001122162    1.743    0.426
        65  -8.5568    145.5054    183.5197   7.8504436067e+01   1.5306900889e+01    0.1444658    0.1366691  10.66 0.0004080123    1.048    0.045
        66  -9.8364    123.8591    202.1109   8.6972631349e+01   1.4890209105e+01    0.2131916    0.1893512  65.17 0.0008681653    1.303    0.232
