#   1 NUMBER                 Running object number                                     
#   2 MAG_AUTO               Kron-like elliptical aperture magnitude                    [mag]
#   3 X_IMAGE                Object position along x                                    [pixel]
#   4 Y_IMAGE                Object position along y                                    [pixel]
#   5 X_WORLD                Barycenter position along world x axis                     [deg]
#   6 Y_WORLD                Barycenter position along world y axis                     [deg]
#   7 A_WORLD                Profile RMS along major axis (world units)                 [deg]
#   8 B_WORLD                Profile RMS along minor axis (world units)                 [deg]
#   9 THETA_WORLD            Position angle (CCW/world-x)                               [deg]
#  10 FWHM_WORLD             FWHM assuming a gaussian core                              [deg]
#  11 ELONGATION             A_IMAGE/B_IMAGE                                           
#  12 ELLIPTICITY            1 - B_IMAGE/A_IMAGE                                       
         1 -10.5905      4.5145     34.9979   1.0546611445e+02   6.8115777005e+01     0.988174    0.4272052 -38.98  0.004844726    1.800    0.444
         2  -9.3832    224.4947     28.1272   4.2080679573e+01   2.5963365226e+01    0.5187907    0.2217705 -38.18   0.00231837    2.081    0.519
         3 -10.9674    218.8223     25.1793   4.1947479490e+01   2.7645002126e+01    0.3686234    0.2857507  79.80 0.0006041766    1.237    0.192
         4  -8.6323    126.6653     13.8672   5.1995977474e+01   5.1623757030e+01    0.4382277    0.1649754 -37.32    0.0016153    2.882    0.653
         5  -9.4812    140.3485     18.6410   5.1028234564e+01   4.7809431588e+01    0.7278609    0.3769657 -67.43  0.002530386    3.898    0.743
         6 -10.6805    135.7299      9.0843   4.8551073523e+01   4.9884542956e+01      1.09439    0.5882466  24.06  0.004489766    2.471    0.595
         7 -10.3325    141.6223     13.2305   4.8941340508e+01   4.8045593546e+01     0.510658    0.2954617  68.39  0.001198835    1.662    0.398
         8 -10.0836    191.0471     22.9348   4.4557459876e+01   3.4639520655e+01    0.9104497     0.465221 -68.34  0.003662007    2.672    0.626
         9 -10.5257    183.2438     10.2523   4.1982912142e+01   3.7941954962e+01     0.711825    0.3850433 -50.61  0.002020702    1.942    0.485
        10 -11.5024    186.0500      3.5091   3.9796910130e+01   3.7897905302e+01    0.4384747    0.2973955  64.84   0.00159295    1.344    0.256
        11  -8.9105    152.0807     17.6788   4.8636224353e+01   4.4995839686e+01    0.4999497    0.3072192 -12.96   0.00140486    1.955    0.489
        12  -9.3165    159.0072     14.5332   4.6523236604e+01   4.3583191171e+01     0.593383    0.3373187  48.59  0.002837423    1.692    0.409
        13  99.0000     77.4997     25.0133   6.9764092680e+01   6.0978739897e+01    0.4669755    0.2712218 -31.88  0.002391702    1.701    0.412
        14  -9.9901    211.4084     18.9999   4.1177284640e+01   3.0123390103e+01    0.5821116    0.4210641 -47.85  0.003311069    1.304    0.233
        15 -10.1688    209.5936     11.5082   3.9474536678e+01   3.1379552266e+01    0.3396785    0.2496215 -62.64 0.0007498697    1.273    0.215
        16  -9.9771    205.1451      8.8924   3.9250156640e+01   3.2718158618e+01    0.3412286    0.2291469  85.17 0.0002788645    1.394    0.283
        17  -8.9919     17.4102      8.8619   8.8391341423e+01   7.1738268384e+01    0.4016413    0.1708026 -28.16  0.001453948    2.193    0.544
        18  -9.1645     13.0729      9.2501   9.0956227934e+01   7.2068885697e+01    0.3072911    0.1695772 -29.72  0.001099752    1.430    0.301
        19 -10.1563      6.7184      8.0574   9.3968940426e+01   7.2762936199e+01    0.7746205    0.2625591 -44.00   0.00396571    2.274    0.560
        20  -8.6895      1.8289      2.6372   9.4237134874e+01   7.3960534137e+01    0.2175466    0.1565227 -35.76 0.0009412228    1.244    0.196
        21 -10.1329     16.0923     18.2920   9.3454915103e+01   7.0360875340e+01    0.4472796    0.2215569 -48.75  0.001028668    1.903    0.475
        22 -10.3194     23.2382     17.1447   8.9255756002e+01   6.9897606025e+01    0.5346673    0.3391859  31.18  0.002801391    1.856    0.461
        23  -9.1308    197.1484     18.8751   4.2713348701e+01   3.3592540829e+01    0.3883379    0.2356491 -66.08  0.001820175    1.797    0.444
        24 -10.3550     88.5991     16.3698   6.2439918578e+01   5.9879002411e+01    0.5508155    0.3729658  49.45  0.001167916    1.433    0.302
        25 -11.0428     92.2999     12.2954   5.9606928404e+01   5.9551057109e+01     1.373321    0.6170271  -4.94  0.003384614    3.570    0.720
        26 -11.7104    101.3726     13.7935   5.7787216169e+01   5.7450293403e+01    0.3559288    0.2596709   9.03  0.000341966    1.413    0.292
        27 -10.3807    100.3088      9.7218   5.6372377753e+01   5.8087924885e+01    0.3159804    0.2566541 -59.57 0.0002219123    1.668    0.400
        28 -10.3358    236.9210     13.6196   3.7528432538e+01   2.4844960878e+01    0.5691046    0.4549738 -10.53    0.0035049    1.664    0.399
        29  -9.5273    233.0545      6.1196   3.6143748168e+01   2.6523115906e+01    0.3050632    0.2539646  62.32  0.001405207    1.357    0.263
        30  -9.7783    234.8221      1.5274   3.4983532352e+01   2.6607557857e+01    0.2092188    0.1429602 -86.56 0.0005120618    1.318    0.241
        31  -9.4791     63.9793     17.3154   7.1172436390e+01   6.4378599173e+01    0.4157211     0.273926  -1.31  0.001817446    1.541    0.351
        32  -8.5160     66.8875     11.8463   6.7523579933e+01   6.4537448005e+01    0.2417273    0.1711887  15.86 0.0005002287    1.286    0.222
        33  -8.2599     42.4625     10.4220   7.6714164772e+01   6.8587827032e+01    0.1992597    0.1040219 -34.08 0.0005136073    1.821    0.451
        34  -8.9728     33.8101     12.4780   8.1780173499e+01   6.9437306745e+01     0.299514    0.1670197  26.92  0.001112227    1.785    0.440
        35 -10.1030     40.2494     15.0812   8.0022987974e+01   6.8254068182e+01    0.4008657    0.3181399 -41.89  0.001490644    1.628    0.386
        36 -10.2783     50.9697     18.4596   7.6914900087e+01   6.6287491104e+01    0.3511826    0.2821925   0.10   0.00161422    1.027    0.027
        37 -10.2982     46.5577     17.4999   7.8357286239e+01   6.7056314164e+01    0.3260538    0.2341732   7.03  0.001601214    1.263    0.208
        38  -8.8179    247.4401     17.3204   3.7502024301e+01   2.2126737009e+01    0.3285437    0.1492149 -49.95  0.001622382    1.902    0.474
        39  -8.5672    121.7191     17.1655   5.4263352279e+01   5.2464422355e+01    0.2776185    0.2212141  24.66  0.001049958    1.249    0.199
        40  -9.6216    204.4851     12.4613   4.0228778659e+01   3.2504010632e+01    0.2814696    0.2522829 -58.19 0.0006992285    1.104    0.094
        41  -9.3268    109.8952     15.6223   5.6390160801e+01   5.5361429987e+01    0.2498442    0.2171215  18.17 0.0003083335    1.092    0.084
        42  -8.7683    113.3281     12.3403   5.4291072748e+01   5.4908009401e+01    0.3600318     0.152568  47.95  0.001431367    2.033    0.508
        43  -9.5013    193.7286     12.8692   4.1491252488e+01   3.5081787294e+01    0.4776639    0.3949958  51.67  0.002377989    1.291    0.225
        44  -8.6401    195.4902      5.4753   3.9333823643e+01   3.5397370780e+01    0.2867061    0.2795407 -17.67  0.001736743    1.219    0.180
        45  -8.3157    229.0466     12.0775   3.7834243467e+01   2.6784263102e+01    0.2300875    0.1587454 -87.76  0.001156184    1.358    0.264
        46  -8.6615    172.2325     11.4948   4.3719610003e+01   4.0567442843e+01    0.3127138    0.2140084  31.21  0.001405871    1.777    0.437
        47  -9.1035     81.0439     11.6944   6.2684987661e+01   6.1904033927e+01    0.3123332    0.2127031  56.42  0.001260958    1.643    0.391
        48  -7.9754     85.4866     11.2487   6.1124774524e+01   6.1064227567e+01    0.1978016    0.1415961 -50.86  0.001061597    2.011    0.503
        49  -8.5862     84.2413      5.8750   5.9084157076e+01   6.1848880717e+01    0.4207124    0.2848611 -50.48   0.00223394    2.200    0.545
        50  -8.4704     73.9689     11.4976   6.4892182173e+01   6.3284798625e+01    0.2160726    0.1956768  59.89 0.0009199063    1.467    0.318
        51  -8.8435     60.5242     11.4616   6.9706096321e+01   6.5680842950e+01    0.3083457     0.231032  70.84  0.001392184    2.575    0.612
        52  -8.7164    150.1869     10.7276   4.6672875796e+01   4.6162207014e+01    0.2645626    0.1889042 -50.02 0.0003802807    1.561    0.359
        53  -8.9225    146.3521      5.3997   4.5521975191e+01   4.7599751560e+01     0.390233    0.2097254  55.01 0.0009739237    1.614    0.380
        54  -8.8610    150.9059      1.7044   4.3633810663e+01   4.6785955807e+01    0.2504788    0.1971848  48.26   0.00146533    1.206    0.171
        55  -7.4187     23.7030      2.7062   8.1838593090e+01   7.1959867544e+01    0.1453158    0.1200717 -20.12  0.000903004    1.327    0.246
        56  -9.5599    250.3213      7.9210   3.5261531779e+01   2.2570970370e+01    0.2464828    0.1460368 -38.38 0.0006281495    1.532    0.347
        57  -8.4393     48.1410      9.6727   7.3841377875e+01   6.7863950489e+01    0.1951948    0.1535767 -28.87   0.00127844    1.401    0.286
        58  -8.0603    128.5790      9.2845   4.9945388575e+01   5.1600437773e+01    0.1696973    0.1270092   4.68 0.0004792995    1.495    0.331
        59  -9.1396    240.2612      7.7947   3.5966311186e+01   2.4749895625e+01    0.2082321    0.1443889 -81.76 0.0005699756    1.310    0.237
        60 -10.5017    244.0778      4.4339   3.4956004987e+01   2.4280713505e+01    0.4476134    0.2185995 -57.39  0.002187715    1.845    0.458
        61  -8.6210    248.4567      1.9381   3.4124309925e+01   2.3607523658e+01    0.1985742    0.1496325  81.98 0.0001135198    1.283    0.220
        62  -8.9963    225.1060      7.7966   3.7170085401e+01   2.8144360245e+01    0.2685695    0.1621106 -64.53 0.0007564124    1.571    0.363
        63  -8.6049    223.5326      2.5722   3.6080755515e+01   2.9044635454e+01      0.31328    0.1801766 -20.32  0.001629045    2.143    0.533
        64  -8.1889    227.1774      2.3903   3.5752022973e+01   2.8232797272e+01    0.2323455    0.1425431 -51.32 0.0006732392    1.456    0.313
        65  -9.9175    112.9229      4.3390   5.1245771221e+01   5.5730297356e+01    0.3983587    0.3134477  -3.81  0.001134246    1.350    0.259
        66  -8.9847    108.0405      6.0048   5.2985351704e+01   5.6704256260e+01    0.2161706    0.2069875  54.66  0.000344883    1.162    0.140
        67 -11.5414     65.5515      5.4985   6.4937051568e+01   6.5467798115e+01    0.9824978    0.3090933  45.95  0.004131856    2.795    0.642
        68 -10.0871     32.3024      6.2252   7.9334887254e+01   7.0476955962e+01    0.2549357    0.2137879   0.05 0.0004363072    1.217    0.178
        69  -8.5781     34.0480      1.6650   7.6048097497e+01   7.0826586764e+01     0.159217    0.1172209  15.27 0.0003806262    1.190    0.160
        70  -8.8362    168.5838      5.2185   4.2332220190e+01   4.2076856282e+01    0.2590064    0.1956396  49.87 0.0006919768    1.310    0.236
        71  -7.8402     40.4775      6.2720   7.5487870214e+01   6.9391613475e+01    0.1523071    0.1014167 -34.07 0.0009338656    1.605    0.377
        72  -8.1118    130.2320      2.4012   4.7158537872e+01   5.1796861477e+01    0.2068521    0.1608526 -37.95 0.0005845413    1.453    0.312
        73  -8.4627    218.1033      3.3499   3.6707775628e+01   3.0218396575e+01    0.2263276     0.160923 -47.96 0.0004334705    1.311    0.238
        74  -8.4103    121.1457      4.0765   4.9462049434e+01   5.3830487931e+01    0.2349981    0.1652755  44.32 0.0009200885    1.260    0.207
        75  -8.3589    210.5397      2.5920   3.7173853446e+01   3.2065823229e+01    0.2166354    0.1688777  78.41 0.0003489303    1.177    0.150
        76  -8.7453    203.3870      2.8033   3.7873690645e+01   3.3747666730e+01    0.2889356    0.1919501 -88.96  0.001028239    1.409    0.290
        77  -8.6816     14.8288      3.1429   8.6907314732e+01   7.2818148496e+01    0.2007038    0.1342773   8.64  0.001010987    1.379    0.275
        78  -7.8612     77.9695      2.2339   5.9277392054e+01   6.3440375335e+01    0.1740761    0.1376158  28.85  0.000423079    1.057    0.054
        79  -9.8980     25.4760      9.5794   8.4488649519e+01   7.0813210174e+01    0.4282977    0.2914395 -38.52  0.001985265    1.523    0.344
        80 -10.4012    188.7402     82.1876   6.1522578377e+01   2.6537184047e+01    0.3571582     0.256931  51.73 0.0003036861    1.427    0.299
        81  -8.1670    110.4929    249.7018   1.1150295036e+02   8.9283202860e+00     0.227986     0.155823  82.68   0.00141194    1.782    0.439
        82  -8.1388      3.1802    250.2970   1.3000586897e+02   2.1963335514e+01    0.1352308     0.108804  55.79 0.0007499412    1.378    0.275
        83 -10.3202    195.7958     82.0063   6.0182392245e+01   2.4873662927e+01    0.3192142    0.2637011  59.50 -0.0006383859    1.261    0.207
        84  -8.4070     11.3952     82.6814   1.1388809952e+02   5.7554829721e+01    0.2921165    0.1584947 -37.08  0.001598054    1.846    0.458
        85  -7.9688    135.5373     82.5110   7.3380530104e+01   3.9193878010e+01    0.1543589    0.1501916 -15.82 6.386167e-05    1.005    0.005
        86  -8.6839    126.1271     81.4408   7.5538571341e+01   4.1513116671e+01    0.3819527    0.2533922  20.84 0.0009204582    2.031    0.508
        87  -8.3893    169.5000     81.5145   6.5150529262e+01   3.1324968138e+01    0.1534811    0.1506513 -48.18 4.722647e-05    1.013    0.013
        88  -7.7260     21.5035     81.4815   1.1009772546e+02   5.7166886620e+01      0.12841     0.101536 -54.06 0.0008103302    1.018    0.017
        89  -8.2023     81.0705     79.0748   8.8458942255e+01   5.0739981415e+01     0.220468    0.1813726  82.40  0.001126469    1.707    0.414
        90  -9.0871     75.7510     78.2798   9.0009831312e+01   5.1759865435e+01    0.2862706     0.234674  42.35  0.001194341    1.375    0.273
        91  -7.7442    156.1024     78.0665   6.7056274206e+01   3.5200453036e+01    0.3390024    0.1938422  27.36   0.00120498    2.685    0.628
        92  -8.5402    199.7425     75.9347   5.7852877287e+01   2.4956567723e+01    0.3279386    0.2265342 -39.48  0.001212317    1.374    0.272
        93  -7.5241    107.6744     77.3245   7.9494978302e+01   4.6235556620e+01    0.1496496    0.1221486 -83.29 0.0006327057    1.691    0.408
        94  -9.4088     31.6908     77.0707   1.0543806417e+02   5.7360670313e+01    0.3787992    0.1940096  11.10  0.001324474    2.611    0.617
        95  -8.8838    232.0235     75.1820   5.2711671627e+01   1.7622331688e+01    0.3869789     0.224109 -17.11  0.001563147    2.386    0.581
        96  -8.8846     10.7881     75.5811   1.1277923087e+02   5.9201984911e+01    0.3377362    0.1743468 -31.80  0.001448998    2.080    0.519
        97  -9.3314    249.7598     73.3517   4.9972792993e+01   1.4110118800e+01    0.3377332    0.1961581 -32.28  0.001305012    1.586    0.369
        98  -8.3822     87.0890     75.3469   8.5315046834e+01   5.0513753241e+01     0.200742    0.1843644  10.22 0.0005765765    1.109    0.098
        99  -9.5962     19.5061     74.3343   1.0931762415e+02   5.8929128347e+01    0.4818549    0.3579948  50.30  0.002978083    1.756    0.430
       100  -8.4242     20.7718     68.8468   1.0759897900e+02   6.0062369376e+01    0.1811694    0.1339204 -44.57 0.0003989462    1.112    0.101
       101  -9.6245    243.1324     71.8015   5.0433213520e+01   1.5734859384e+01    0.3382416    0.2653813  24.26  0.001145594    1.702    0.412
       102  -8.7830    211.3530     70.4144   5.4511107806e+01   2.3093552609e+01    0.4605507    0.2888999 -43.68  0.001562314    1.496    0.331
       103  -8.0361    189.1094     73.4789   5.9039204777e+01   2.7939384469e+01    0.2204938    0.1489785  58.43 0.0006182934    1.518    0.341
       104  -9.1207    148.5371     72.4451   6.7080205544e+01   3.8041343671e+01    0.2877608    0.2693487   9.72 0.0005826687    1.099    0.090
       105 -10.3151    128.6705     71.0372   7.1569317600e+01   4.2946043017e+01    0.2845173    0.2696084  12.88 0.0003012982    1.039    0.038
       106  -9.0443    133.6878     68.9668   6.9601146756e+01   4.2175245781e+01     0.598015    0.2222888  54.23  0.001955146    2.955    0.662
       107  -9.6571    113.3860     70.4396   7.5593272491e+01   4.6410024269e+01     0.446032    0.3901043 -44.14  0.002042604    1.175    0.149
       108  -7.6380     72.3304     72.6658   8.9472036567e+01   5.3485530267e+01    0.1368601    0.1133682  89.41 0.0007052119    1.727    0.421
       109  -9.5725     58.4784     71.4245   9.4042160967e+01   5.5708428779e+01    0.4347251    0.3457677  20.51  0.002503331    1.376    0.273
       110  -8.9199     57.3117     66.3648   9.2927524265e+01   5.6933985220e+01    0.2519301    0.2110009 -33.55  0.000714563    1.029    0.028
       111  -9.6625     28.9855     71.5547   1.0511600238e+02   5.8826019559e+01    0.2462484    0.1530069 -53.76 0.0003337115    1.296    0.228
       112  -8.3348    160.6049     70.6377   6.3822208757e+01   3.5430175754e+01    0.2883051     0.202243 -68.05 0.0005972456    1.898    0.473
       113  -8.2812    123.9315     70.3778   7.2622682346e+01   4.4133092340e+01    0.2105482    0.1903768  43.06 0.0004376011    1.123    0.109
       114  -9.7018     93.4657     69.9432   8.1500121148e+01   5.0467946351e+01     0.312544    0.2069956 -35.01  0.001483758    1.452    0.311
       115 -10.5778    100.6196     63.4508   7.7056737896e+01   5.0346736730e+01    0.7431462    0.6964436 -43.72  0.003135727    1.161    0.139
       116  -8.4595    106.2492     63.9635   7.5520001528e+01   4.9114792742e+01    0.2408488    0.2083045 -30.19 0.0009377587    1.118    0.106
       117  -8.2474    204.1484     68.8327   5.5219149110e+01   2.5057373286e+01    0.2140616    0.1874827 -69.84 0.0003184443    1.161    0.139
       118  -8.2495    192.2444     69.4713   5.7370831553e+01   2.7836501749e+01    0.2738956    0.1363396  51.25   0.00109328    2.040    0.510
       119  -7.7628    221.7525     68.3110   5.2437594255e+01   2.1003929683e+01    0.1906467    0.1247228  52.87 0.0004705024    1.642    0.391
       120  -8.0962    169.1629     67.6659   6.1153483307e+01   3.3827653307e+01    0.3044104    0.1463482  64.96  0.001086419    2.530    0.605
       121  -8.9579    148.8627     66.7652   6.5231075477e+01   3.8963805759e+01    0.3717944    0.2666499  27.67  0.001312632    1.639    0.390
       122  -7.7123    152.9562     64.7371   6.3673069390e+01   3.8314168211e+01    0.2265019    0.1369255  42.68 0.0005471159    1.715    0.417
       123  -8.7671      9.2426     63.5216   1.1086657862e+02   6.1962064824e+01    0.2988219    0.1809031 -89.01   0.00158422    2.291    0.564
       124  -9.3391     14.5655     66.2657   1.0940067913e+02   6.1047517937e+01    0.3766598    0.1852446  -3.97 0.0006627365    2.842    0.648
       125  -8.7031     19.3086     63.3405   1.0684212435e+02   6.1370897709e+01    0.2404339    0.1324906 -48.94  0.001329801    1.401    0.286
       126  -8.2502      3.3302     66.8838   1.1385598846e+02   6.1529584143e+01    0.1848633     0.130822 -83.63  0.001166297    1.523    0.343
       127  -8.1952    173.5323     66.0724   5.9821459379e+01   3.3009405391e+01    0.2311977     0.147294 -34.92  0.001019883    1.558    0.358
       128  -8.0166     89.0414     65.6880   8.1516561542e+01   5.2117325153e+01    0.2027269    0.1828066   9.86 0.0006503905    1.097    0.089
       129 -10.5517     48.8284     65.4958   9.5865169192e+01   5.8164052994e+01     0.327989    0.2742652   6.02  0.002008288    1.280    0.219
       130  -8.5788     39.3045     66.4093   9.9798510167e+01   5.9003260444e+01    0.2098837    0.1268003  15.45 0.0007799021    1.965    0.491
       131  -9.5660    233.4909     63.6999   4.9714810891e+01   1.9050760379e+01     0.436877    0.2857114  21.94  0.001592764    2.596    0.615
       132  -8.4385    208.3503     64.8750   5.3513166710e+01   2.4675447474e+01    0.2361414    0.2222183  43.71 0.0004102981    1.164    0.141
       133  -8.3499    211.6176     63.3011   5.2611427462e+01   2.4141457690e+01    0.3040783    0.1885377 -72.02 0.0009960952    2.166    0.538
       134  -9.1146    144.1207     64.0453   6.5466289762e+01   4.0575259227e+01    0.3090495    0.2425336 -43.96 0.0006495771    1.309    0.236
       135 -10.2317    121.8656     64.0730   7.1100338365e+01   4.5744915262e+01    0.2599219    0.2519735  42.76            0    1.088    0.081
       136  -8.5539    127.0093     64.5169   6.9873275464e+01   4.4506678369e+01    0.3570535    0.2328237  73.17  0.001120564    2.340    0.573
       137  -8.2271     67.8888     64.5037   8.8438876074e+01   5.5843757439e+01    0.3340902    0.1886507  13.91  0.001400885    2.597    0.615
       138  -8.4736    201.9650     64.0574   5.4281924477e+01   2.6336320020e+01    0.2135827    0.2124067 -55.04 0.0004242518    1.074    0.069
       139  -9.9867     25.5205     60.3115   1.0356272932e+02   6.1556031451e+01    0.4586702     0.394989 -76.01  0.002673568    1.390    0.280
       140  -8.8910     28.7996     54.0751   1.0042567602e+02   6.2589219551e+01    0.3234827    0.1544374 -38.09 0.0009265361    1.841    0.457
       141  -8.0148    161.2377     62.7142   6.1271927787e+01   3.6612076894e+01     0.207615    0.1763763  14.57  0.001040667    1.337    0.252
       142  -9.8819    242.3229     60.1045   4.7770934795e+01   1.7642987071e+01    0.4983199    0.2296363 -34.04  0.001460243    1.968    0.492
       143  -9.0611     81.0954     61.7974   8.2859355620e+01   5.4271184975e+01    0.6643196    0.2433232  36.08  0.002413011    3.011    0.668
       144  -8.8857     40.5541     61.6949   9.7937497575e+01   5.9878913958e+01    0.2239098    0.1974283 -49.64 0.0006239539    1.170    0.146
       145  -8.0257     60.0246     61.4754   9.0342391102e+01   5.7579423173e+01    0.1949024    0.1323628  25.06  0.001025136    1.600    0.375
       146  -8.3273    188.9136     60.0417   5.5300151455e+01   3.0155614317e+01    0.3497697     0.191212  61.22  0.001307366    1.855    0.461
       147  -8.6911    134.1470     58.8668   6.6173307342e+01   4.3825399763e+01    0.4517514    0.1998636 -52.06  0.001446286    3.458    0.711
       148  -7.5270    149.6442     59.1579   6.2642193523e+01   4.0049827911e+01    0.1957653    0.1783427  79.13 0.0002733454    1.179    0.152
       149  -9.3276      5.6201     58.1256   1.1110566240e+02   6.3319959588e+01    0.3178965     0.138838 -35.60  0.001233109    2.144    0.534
       150 -10.0719      9.1782     52.7447   1.0833652937e+02   6.4270719888e+01    0.3163125    0.2774402  71.17  0.001927764    1.554    0.356
       151  -7.8782      2.6892     53.6901   1.1129486189e+02   6.4406513442e+01    0.1595539   0.09528814 -28.46 0.0004150723    1.630    0.387
       152  -8.4161    250.2873     57.9474   4.6362060085e+01   1.6255644104e+01    0.1963348    0.1560116 -39.98  0.001161538    1.134    0.118
       153  -9.4057    235.3673     56.9860   4.7856733200e+01   1.9618447640e+01    0.3588121    0.2222727 -68.62  0.001126334    1.900    0.474
       154  -8.1411    175.3223     58.3547   5.7205145471e+01   3.3800273628e+01    0.2365273    0.1747727  25.25 0.0008925579    1.686    0.407
       155  -8.6822    159.3661     57.7122   6.0111539373e+01   3.7883134413e+01    0.2717799    0.2155872  66.01  0.001002817    1.302    0.232
       156  -9.4278    156.0511     56.3537   6.0372805941e+01   3.8920316533e+01    0.3206328    0.2916825 -79.68 0.0005906514    1.191    0.160
       157  -8.3613     89.1904     57.6874   7.8690279407e+01   5.3605569116e+01     0.210362    0.1755956 -34.45 0.0009190488    1.160    0.138
       158  -9.2222     62.8073     55.3818   8.7218189154e+01   5.8394335001e+01    0.4192268     0.317979 -78.82  0.001907862    2.295    0.564
       159  -8.8290    192.5577     56.7342   5.3770444174e+01   2.9760663148e+01    0.3240621    0.2322312 -76.13 0.0004450322    1.664    0.399
       160  -9.0944    188.2131     52.0271   5.3146059302e+01   3.1538400079e+01    0.3158134    0.2048053 -62.38  0.000567502    1.812    0.448
       161  -8.8727    141.6647     55.0061   6.3098105482e+01   4.2660042535e+01    0.3992868    0.2610231  33.05  0.001769381    1.731    0.422
       162  -9.6469    113.2998     55.0907   7.0383689308e+01   4.9194124797e+01    0.4032505    0.3410453  24.98 0.0007279348    1.172    0.147
       163  -9.9120    119.8423     50.6982   6.7036752189e+01   4.8464607722e+01    0.5455906    0.3531238 -27.08 0.0007728835    1.596    0.373
       164  -8.0438    207.3025     55.3867   5.1154632806e+01   2.6363031728e+01    0.2371262    0.1931666  34.37 0.0007909709    1.458    0.314
       165  -9.5068    205.6168     51.0361   5.0238143024e+01   2.7403342372e+01    0.4384989    0.2933502  23.74  0.001669634    2.261    0.558
       166  -9.2907     41.7278     54.4042   9.5184687258e+01   6.1255661274e+01    0.4171546    0.1900822 -47.77  0.001497435    1.837    0.456
       167  -8.5050     40.0000     43.9598   9.2315251124e+01   6.3484507781e+01    0.2373342    0.1546331 -43.01 0.0008585425    1.328    0.247
       168  -9.1229     43.6758     48.1904   9.2275254589e+01   6.2262746146e+01    0.3220934     0.262537  63.53   0.00109571    1.961    0.490
       169  -8.4073    219.3020     54.2334   4.9200550440e+01   2.3682100556e+01    0.2734857    0.1848546  78.98 0.0009437458    1.626    0.385
       170  -8.1357    124.9777     54.3172   6.6951237961e+01   4.6710338413e+01     0.209929      0.18721  34.08  0.000469693    1.088    0.081
       171 -10.0587    193.2623     49.3815   5.1607242845e+01   3.0668489202e+01    0.5948464     0.343559 -57.51  0.002559054    2.007    0.502
       172  -8.4913    197.4934     48.5173   5.0731840735e+01   2.9747221305e+01    0.2614616    0.2027732 -71.15 0.0007063986    1.364    0.267
       173  -8.8255    170.8803     51.1787   5.5874600427e+01   3.6004334891e+01    0.6007535    0.3098127 -75.44  0.001568001    5.876    0.830
       174  -7.7403     88.7145     46.3240   7.4658752368e+01   5.5680821161e+01    0.2128621    0.1417112  46.61 0.0006884146    1.601    0.375
       175  -8.8129     94.9931     51.4907   7.4565983568e+01   5.3598791256e+01    0.3420448     0.264578 -10.34  0.001268971    1.337    0.252
       176  -8.3653     92.6635     48.3312   7.4134985286e+01   5.4588128650e+01    0.2486017    0.2242096 -71.43 0.0006758712    1.475    0.322
       177  -8.9318    182.0703     51.7047   5.4067358097e+01   3.3119047834e+01    0.3104148    0.2124475  30.09  0.001409032    1.868    0.465
       178  -8.0176    127.5832     51.1325   6.5183617973e+01   4.6619360595e+01    0.4282305    0.2535245  71.67  0.001675203    2.549    0.608
       179  -7.9349    100.8053     52.3871   7.3084593701e+01   5.2284240085e+01    0.2046759    0.1285929  34.69 0.0006126058    1.635    0.388
       180  -8.0918     72.3993     51.6070   8.2300500935e+01   5.7634663897e+01    0.1746713    0.1627722 -78.60 0.0006841106    1.466    0.318
       181  -9.2556    244.9052     49.8606   4.5085134756e+01   1.8536214893e+01    0.3703853     0.230535  43.01  0.001420822    2.133    0.531
       182  -8.7140     84.9068     51.1988   7.7762338039e+01   5.5556331804e+01    0.1957966    0.1910701  32.07 0.0005142076    1.222    0.182
       183  -9.2362    237.2911     48.7170   4.5653496510e+01   2.0360058998e+01    0.2800803    0.2399561 -11.53  0.001657791    1.419    0.295
       184 -10.0109    222.6101     48.8631   4.7421473488e+01   2.3675302196e+01    0.6758873    0.5141166 -15.83  0.003612705    1.579    0.367
       185  -9.1061    224.0000     40.0393   4.5057876026e+01   2.4555999337e+01    0.4035338    0.1889734 -37.79  0.001809373    1.925    0.481
       186  -8.7381    225.2911     36.3803   4.4011260860e+01   2.4737030415e+01    0.3532836    0.2687493  73.69  0.001406098    1.316    0.240
       187  -9.1778    213.1749     49.0645   4.8683050692e+01   2.5867952133e+01    0.3521866    0.3057517  83.89  0.001296567    1.144    0.126
       188  -8.8961     80.6957     49.1996   7.8457511509e+01   5.6660426907e+01    0.3405586     0.239325  -1.71  0.001709293    1.648    0.393
       189  -8.0806     67.9459     50.0524   8.3364277884e+01   5.8625653907e+01    0.2193052    0.1501605 -10.09 0.0006458167    1.642    0.391
       190  -7.7049    134.5017     49.4699   6.2918591180e+01   4.5246284479e+01     0.148394    0.1395004  25.18 0.0007458512    1.029    0.028
       191  -9.5968    137.5146     44.2646   6.0442194902e+01   4.5297545424e+01    0.5917163    0.4188035  11.67  0.001897491    1.788    0.441
       192  -8.4959    143.3387     38.3026   5.7147980568e+01   4.4708217133e+01    0.2783448     0.180307   4.43  0.001199918    2.166    0.538
       193  -8.4031    224.1964     56.9201   4.9238353511e+01   2.2155454714e+01    0.2403121    0.1928761  -9.08  0.000755812    1.539    0.350
       194  -8.3792     74.3304     48.5565   8.0465205393e+01   5.7865599779e+01    0.2634062    0.1310425  44.48  0.001157394    2.248    0.555
       195  -8.6746     19.8695     47.1047   1.0213960284e+02   6.4732849952e+01    0.2216674    0.1932887 -77.25 0.0008846148    1.496    0.332
       196  -8.6858    181.0911     47.1525   5.2906480003e+01   3.4023064290e+01    0.2895124    0.1658657  63.19  0.001274691    1.722    0.419
       197  -9.8303    174.1685     45.0899   5.3461817089e+01   3.6055379798e+01     0.351892    0.3087416 -28.58 0.0009725416    1.190    0.160
       198  -9.8517    152.0849     40.5733   5.6120183327e+01   4.2231746811e+01    0.5994264    0.2668205 -33.47  0.002220419    2.255    0.557
       199  -9.0164    231.7218     41.4272   4.4528401039e+01   2.2600270948e+01    0.2971424    0.2019526 -87.07    0.0011578    1.585    0.369
       200  -9.1145    233.9422     44.8723   4.5110135925e+01   2.1635118812e+01    0.3064292    0.2396822 -26.45 0.0008901263    1.376    0.273
       201  -8.7298    237.9832     42.9936   4.4222518157e+01   2.0986710918e+01     0.255767    0.1922957  66.74 0.0007645069    1.403    0.287
       202  -8.2035    164.5781     46.3305   5.5552713710e+01   3.8294619510e+01    0.2202599    0.1617278 -63.43 0.0005951956    1.585    0.369
       203  -8.1405    111.9866     46.6905   6.7735877930e+01   5.0846577016e+01    0.2734124    0.1331842  56.42  0.001077007    2.320    0.569
       204 -10.3656     32.7368     43.2343   9.5203972640e+01   6.4382184148e+01    0.5609339    0.3719082   3.89  0.001840802    1.649    0.393
       205  -8.9665    246.8679     44.5022   4.3645587868e+01   1.8844570898e+01    0.2986427    0.1771141 -29.90 0.0009597238    1.688    0.407
       206  -9.7847    249.3031     39.5718   4.2284369059e+01   1.8978400015e+01    0.6420327    0.2592012 -52.93  0.002722716    2.473    0.596
       207  -8.4883      8.6227     44.3371   1.0632204739e+02   6.6034882358e+01    0.3489445    0.1099115 -42.74  0.001606294    2.382    0.580
       208  -8.6736    187.9939     43.9998   5.0900082264e+01   3.2736330690e+01    0.2020627    0.1871022  48.80  -0.01509786    1.139    0.122
       209  -9.1365    185.2968     41.6488   5.0643408824e+01   3.3732622862e+01    0.4173574    0.2782431 -61.17  0.001549872    1.681    0.405
       210  -7.6978     95.3716     43.7815   7.1552856656e+01   5.4793890847e+01    0.1859384    0.1265703 -20.30 0.0002847719    1.511    0.338
       211  -9.5318     68.4348     26.9519   7.3847583333e+01   6.2319764640e+01     0.478754    0.2858324  10.35  0.001501717    2.091    0.522
       212  -8.9713     67.0600     42.0293   8.0630190148e+01   6.0180938002e+01    0.3126293     0.287329 -12.20  0.001972837    1.149    0.130
       213  -9.8139     64.1641     38.0151   8.0130031577e+01   6.1310057212e+01    0.9151434    0.3873023  24.74  0.003338718    3.630    0.725
       214  -8.9196     59.5978     32.3409   7.9567822120e+01   6.2931827432e+01    0.4673947    0.2034908 -44.02  0.002049198    2.473    0.596
       215  -8.2643     63.8161     32.8153   7.8115330340e+01   6.2201447887e+01    0.2569673    0.2146759 -47.15 0.0007506331    1.519    0.342
       216  -9.4506     52.0302     37.0492   8.4587079347e+01   6.3245989109e+01    0.4859031     0.282064 -24.34  0.001414559    1.715    0.417
       217  -8.3045     56.3303     36.4408   8.2581105234e+01   6.2747237130e+01    0.2674493    0.1953783  23.63 0.0006444109    1.375    0.273
       218  -9.6794    123.9464     26.9773   5.7411628988e+01   5.0836239320e+01    0.3783117    0.2044978 -26.21  0.001713533    1.943    0.485
       219  -8.6469    120.0144     38.7110   6.2676708008e+01   5.0224548927e+01    0.2178352    0.1944774  30.45 0.0005199212    1.050    0.048
       220 -10.0347    128.2802     40.0093   6.1109537595e+01   4.8113779346e+01    0.3966722    0.2981091 -15.53  0.001290711    1.429    0.300
       221 -10.3354    124.4794     36.1021   6.0621121767e+01   4.9546610742e+01    0.3769187    0.3292609 -11.21 0.0009839666    1.169    0.144
       222  -9.9660    128.2658     31.2172   5.7967916698e+01   4.9289064651e+01    0.3171151      0.23066  41.73 0.0003230551    1.301    0.231
       223  -8.4468    107.0433     40.8284   6.6949106622e+01   5.2814781043e+01     0.379691    0.2907654 -49.59 0.0009495423    1.562    0.360
       224  -9.4801    112.6853     36.0959   6.3610588545e+01   5.2251860683e+01    0.6482884    0.2943147  43.59  0.002657097    2.114    0.527
       225  -7.7877     85.0444     42.4848   7.4396868193e+01   5.6998627799e+01    0.1975341    0.1301102  37.49  0.000563153    1.504    0.335
       226  -8.1176    241.9411     40.6838   4.3269019819e+01   2.0422423360e+01    0.1841199    0.1502913 -86.61 0.0009341575    1.207    0.171
       227  -8.2836     78.6483     41.1165   7.6051700691e+01   5.8383968321e+01    0.2248581    0.1889437  42.24  0.001096463    1.336    0.251
       228  -8.8977     19.8858     40.2030   9.9930632731e+01   6.6096698982e+01    0.3074171    0.1961858  31.07  0.001842098    1.928    0.481
       229  -9.0476     12.7441     35.9464   1.0184391937e+02   6.7434860403e+01    0.4348728    0.2475634 -74.90  0.002078598    3.177    0.685
       230  -7.9527    249.6696    249.6864   8.6146727387e+01  -1.1548701436e+01    0.1182141   0.06715202   8.01  0.000704448    1.676    0.403
       231 -10.3019     12.0828     30.0123   1.0012023752e+02   6.8599809798e+01    0.4151555    0.1897538  29.24  0.002001741    2.608    0.617
       232 -10.4094      8.9251     26.3715   1.0038296830e+02   6.9481332650e+01     0.375269    0.2477426 -45.99  0.001222436    1.240    0.193
       233  -9.0976    156.1467     43.8652   5.6384016305e+01   4.0760038369e+01    0.4773407    0.2259526  44.98  0.001622264    2.188    0.543
       234  -9.2545     99.8747     37.8085   6.7874279941e+01   5.4781563695e+01    0.3765702    0.2890089  -5.89  0.001451501    1.341    0.254
       235  -9.3942    102.8331     33.8822   6.5479803250e+01   5.4713971190e+01    0.2752174    0.2277733  -5.24 0.0003154998    1.187    0.158
       236  -7.8218     90.1834     40.5745   7.1958110483e+01   5.6321253280e+01    0.2010961    0.1201752  32.28 0.0007529884    1.723    0.420
       237  -9.3886    216.0604     39.0170   4.5735012746e+01   2.6554363691e+01    0.3045322    0.2638153 -68.99 0.0004581956    1.065    0.061
       238 -10.9489    211.9478     34.3623   4.5036586965e+01   2.8139974702e+01    0.4393178    0.3201002 -44.04 0.0008267825    1.297    0.229
       239  -8.3801     26.8193     38.8511   9.6296466232e+01   6.5773951823e+01     0.212625    0.1529664 -38.06  0.000739907    1.117    0.105
       240  -9.7048     24.8002     33.3117   9.5200089306e+01   6.6984218573e+01    0.3588469    0.3124867   7.67  0.001569366    1.309    0.236
       241  -9.2118     21.0000     31.0305   9.6147270384e+01   6.7730137618e+01    0.3219685    0.1269978 -47.18  0.001010908    2.020    0.505
       242  -8.8848    236.3606     35.8827   4.2717552500e+01   2.2284449075e+01    0.3129313    0.2057353  88.91 0.0009757763    1.608    0.378
       243  -9.1757    192.4065     36.6598   4.8185927938e+01   3.2620264636e+01    0.3683833    0.2203986  58.54  0.001535341    1.616    0.381
       244  -8.7812    163.3611     42.0696   5.4452478714e+01   3.9198692548e+01    0.4294649    0.1925089  61.20  0.001324137    2.162    0.537
       245  -7.8989    232.4749     36.5298   4.3273119536e+01   2.3074245508e+01    0.2158481    0.1294516 -18.17  0.000709135    2.171    0.539
       246  -9.4944     91.0687     34.6511   6.9323340056e+01   5.7034671789e+01    0.4269724    0.3445086 -72.91  0.001956707    1.959    0.490
       247  -8.7254    175.2068     26.6196   4.7783658313e+01   3.8178340428e+01     0.395458    0.2562455 -46.92  0.001954125    1.598    0.374
       248  -8.0273    178.8913     23.4232   4.6313413924e+01   3.7621812213e+01    0.2360357    0.1901623 -38.38 0.0006937123    1.282    0.220
       249  -8.0357    157.5263     34.5275   5.3134199234e+01   4.1668825773e+01    0.2032432    0.1262182  50.47 0.0009412981    1.533    0.348
       250  -8.7876    168.9343     27.3906   4.8972432654e+01   3.9670033918e+01    0.5324804    0.2464442  40.40   0.00204598    2.691    0.628
       251  -9.0071    169.2903     23.2182   4.7648647336e+01   4.0063526940e+01    0.4697106    0.2088716  58.60  0.001651655    2.005    0.501
       252 -10.0553    153.8415     32.8813   5.3280433965e+01   4.2802640133e+01    0.3405991    0.2663616 -31.94 0.0003359797    1.337    0.252
       253  -8.5660    161.4842     30.2768   5.1086935785e+01   4.1203478443e+01    0.5489789    0.1833795  57.09  0.001985256    2.595    0.615
       254  -8.8479    156.3646     29.1722   5.1624726377e+01   4.2626449754e+01    0.4770549    0.2031603  59.26  0.001600434    2.117    0.528
       255  -8.2085     82.9707     34.8457   7.2042487871e+01   5.8570423037e+01    0.2168035    0.1694758   5.06 0.0008681269    1.241    0.195
       256  -8.7956     33.5716     34.3604   9.1542602650e+01   6.5941300523e+01    0.2507537    0.2338274 -73.92  0.001045854    1.614    0.380
       257  -8.6708     69.8610     32.2993   7.5612541767e+01   6.1290242185e+01    0.2588972    0.2347012 -25.54  0.001635585    1.244    0.196
       258  -8.7980     39.6165     32.4596   8.8059566988e+01   6.5604058354e+01     0.249682    0.1731388 -16.72 0.0006021758    1.312    0.238
       259  -9.0762    134.1933     32.1217   5.6971375292e+01   4.7750255248e+01    0.2436303    0.2103746  68.83 0.0006706354    1.205    0.170
       260  -8.6512     55.1018     31.1996   8.0897685552e+01   6.3781353164e+01     0.232199    0.1502949 -20.82  0.001277918    1.451    0.311
       261  -8.6062     52.3864     28.3451   8.0793122105e+01   6.4622141868e+01    0.3749374    0.1867381  29.43   0.00111226    2.094    0.522
       262  -8.6350     51.6712     24.5587   7.9421140250e+01   6.5304004330e+01      0.29331     0.259174   2.44  0.001429909    1.185    0.156
       263  -8.0550     47.1500     30.8100   8.4071506148e+01   6.4944884035e+01    0.1790367    0.1473013 -26.32  0.000598533    1.150    0.131
       264  -8.5838     11.8620    249.1714   1.2860393546e+02   2.1312856283e+01    0.1279097    0.1072939  78.44  0.001091669    1.334    0.251
       265  -8.2337    242.9960    245.6698   8.6634925568e+01  -1.0233930225e+01    0.1941326   0.06919502  22.41 0.0007052101    4.372    0.771
       266  -8.9314    185.8204     28.2020   4.6724711612e+01   3.5322761481e+01    0.4810413    0.2638325 -58.10  0.002095978    2.130    0.531
       267  -8.5062     97.5328     29.6246   6.5326801729e+01   5.6411159374e+01     0.235766    0.2046496  38.86 0.0007154198    1.138    0.121
       268  -9.1355     84.2145     29.5170   6.9426387220e+01   5.9100254209e+01    0.2512228    0.1852444 -10.76 0.0005610457    1.329    0.247
       269  -9.7256    114.7133     26.9408   5.9610064971e+01   5.2985412243e+01    0.2742853    0.2151016  43.90  0.000528193    1.173    0.148
       270  -8.0373    113.5410     22.6059   5.8234312243e+01   5.3767271214e+01    0.2800789    0.1638643  19.99 0.0009231673    2.167    0.539
       271  -8.9725    105.2169     26.3416   6.1844911166e+01   5.5185006821e+01    0.3729788    0.2204577  -0.13   0.00143183    2.250    0.556
       272  -8.9352    103.6499     20.8069   6.0051139484e+01   5.6188576691e+01    0.3221059    0.2447204   5.09  0.001119037    1.353    0.261
       273  -8.7346    234.9250     25.9342   4.0529919600e+01   2.3852659096e+01    0.2688542    0.1625877 -39.73  0.001122275    1.499    0.333
       274  -9.8600    239.0446     24.4176   3.9800399080e+01   2.3118302125e+01    0.3629657    0.2129707 -57.83 0.0004242594    1.582    0.368
       275  -7.9263     29.6489     24.8535   8.9491150827e+01   6.7993568355e+01    0.3119232    0.1629502  -7.05  0.001167987    2.622    0.619
       276  -9.1033    214.2535    244.9025   9.1552265955e+01  -6.1327874074e+00    0.3337564    0.1650343  42.70   0.00178859    1.989    0.497
       277  -8.8705    143.5271     22.4599   5.1740456265e+01   4.6610043589e+01     0.342262     0.250567  38.03  0.001147704    1.375    0.273
       278  -8.5964    194.2912    242.8005   9.4876746466e+01  -2.8821873968e+00    0.2572761    0.1384348  29.92  0.001166856    1.601    0.376
       279  -8.8028    227.3078    240.5891   8.8545636235e+01  -7.4793306770e+00     0.269976     0.137154 -34.57  0.001518365    2.159    0.537
       280 -10.0496    136.9718     25.3335   5.4007715435e+01   4.7897264849e+01    0.4089151    0.2835507 -67.75 0.0005771465    1.946    0.486
       281  -8.2102      1.9815    241.4781   1.2984936492e+02   2.3626383586e+01     0.151329   0.04336361  54.67 0.0008091488    2.454    0.592
       282 -10.2580    133.0270     19.5297   5.2756806189e+01   4.9506141528e+01    0.3718551    0.2968969  37.29 0.0003360863    1.202    0.168
       283 -10.1364    129.6755     19.2927   5.3354585464e+01   5.0342143375e+01    0.3537243     0.243587  75.67  0.001468922    1.642    0.391
       284  -8.8394    248.0151    238.9949   8.4695026821e+01  -1.0145028913e+01     0.152314    0.1430004  27.37  0.001141354    1.704    0.413
       285  -9.7076    171.5380    233.8516   9.7857553004e+01   1.9730915620e+00    0.3000779     0.251629 -39.60  0.001982679    1.416    0.294
       286  -7.7708    185.4876    235.5274   9.5434609058e+01  -4.9928710576e-01    0.1251981    0.1019736  25.67 0.0008099217    1.002    0.002
       287  -8.6799    153.1436     23.7798   5.0444322633e+01   4.4065301501e+01    0.4106576    0.2809512 -62.31  0.001669113    1.770    0.435
       288  -8.0465    152.8280    234.1207   1.0153488575e+02   4.9419289346e+00    0.1980876    0.1713958 -34.55  0.001315143    1.373    0.272
       289  -7.5804    102.5062    229.4627   1.1087387851e+02   1.3627117672e+01    0.1256656    0.1011226  58.04 0.0002427715    1.050    0.048
       290  -8.2580    157.0150     22.5380   4.9384286857e+01   4.3233103841e+01    0.3459145    0.2129132 -75.98  0.001206683    2.239    0.553
       291  -8.2420     89.6776     24.9731   6.5780271335e+01   5.8629505424e+01    0.3169989    0.1599316  36.01  0.001432074    1.972    0.493
       292  -8.3199    219.8648    228.6557   8.7928346218e+01  -4.8711208602e+00    0.2478651   0.09298164  31.72 0.0009900093    2.517    0.603
       293  -8.7506     80.1922     21.5780   6.7359077832e+01   6.0919459328e+01    0.3744971    0.3174447 -63.30  0.002191274    1.780    0.438
       294  -8.4185     39.8605     24.9128   8.4747327858e+01   6.6825036592e+01    0.2895655     0.153335  39.88  0.001511013    2.317    0.568
       295  -8.1849    239.5005    215.9769   8.2215120764e+01  -6.1200710933e+00     0.174482    0.1088565 -27.33 0.0007761428    1.550    0.355
       296  -8.5034    206.5136     20.0967   4.1979803761e+01   3.1173973769e+01    0.2630154    0.1811957 -39.50  0.001432238    1.417    0.294
       297  -8.5978    240.1156    203.3058   7.9792007097e+01  -4.4963175128e+00    0.2026731    0.1449875 -12.04 0.0003740557    1.258    0.205
       298  -9.2810     28.5861    199.7973   1.2282032934e+02   2.9118914398e+01    0.2892855    0.2175598 -59.63   0.00151931    1.571    0.364
       299  -8.2354     95.6976     23.4115   6.3326975909e+01   5.7586666092e+01    0.2158124    0.1587457 -36.03  0.001180077    1.498    0.332
       300  -8.3815    245.9156     23.2000   3.8924082881e+01   2.1762225228e+01    0.1936978    0.1380851 -62.23 0.0002758079    1.230    0.187
       301  -8.0742     33.7283    193.2578   1.2126980372e+02   2.9972738714e+01    0.1454163    0.1290996 -71.79 0.0008257476    1.324    0.245
       302  -8.5014    177.4500    190.9035   8.9541162635e+01   8.1303993078e+00    0.2140422    0.1839303  44.47  0.000527097    1.188    0.158
       303  -8.0234    130.0608    190.5070   9.9761076467e+01   1.6777524409e+01    0.1999764     0.128902  39.83 0.0003300257    1.451    0.311
       304  -7.6592    141.4941    189.5088   9.7048660732e+01   1.4953535709e+01    0.1399066     0.129564  45.71 0.0008105751    1.012    0.011
       305  -7.8262    137.7549    170.2376   9.4424086837e+01   1.9646616934e+01    0.2335648    0.1130391 -39.58 0.0008896308    2.458    0.593
       306  -7.7670     66.4458    161.4614   1.1033690908e+02   3.3320796996e+01    0.1348251    0.1189887 -86.61  9.51709e-05    1.016    0.016
       307  -8.5242      7.1582    151.2035   1.2359530038e+02   4.1819859339e+01    0.1694543    0.1372823 -71.76 0.0005981657    1.188    0.158
       308  -7.4439     39.3778    136.2802   1.1379813860e+02   4.2556367484e+01    0.1302179   0.09101442 -38.41 0.0007009168    1.711    0.416
       309  -8.5638     13.3998    133.0724   1.2031573820e+02   4.5587662173e+01    0.1956386    0.1649072  65.20 0.0005606605    1.259    0.206
       310  -9.6864     66.1655    131.3387   1.0558020900e+02   4.0637372669e+01     0.513525    0.3032955  25.14   0.00235021    2.087    0.521
       311  -8.5659     25.3030    128.3963   1.1656908874e+02   4.5763820645e+01    0.2421145    0.1203488 -61.77 0.0007165434    1.627    0.385
       312  -8.2931     71.1351     20.2844   6.9902653409e+01   6.2754825414e+01    0.2183848    0.1626154 -51.33  0.001202471    1.975    0.494
       313  -8.5012    231.9830     20.2547   3.9478524902e+01   2.5191980407e+01    0.2464911     0.175541 -71.66 0.0004247597    1.307    0.235
       314  -7.7724     39.5129    126.5690   1.1233990728e+02   4.4897796473e+01    0.1320389    0.1119541 -77.39 0.0001001458    1.037    0.036
       315  -8.3074     30.0898    124.3495   1.1468250119e+02   4.6323737986e+01    0.2369639    0.1399518 -61.92 0.0006250921    1.393    0.282
       316  -9.7400     69.3220    122.8149   1.0305234661e+02   4.2293462369e+01    0.2404085     0.226079 -78.04  0.000300442    1.059    0.055
       317  -8.3160      2.2159     20.2726   1.0161615603e+02   7.0992542389e+01    0.1828295    0.1196544  -3.15  0.001244293    1.546    0.353
       318  -9.3632    170.9916     17.5406   4.5687903800e+01   4.0257996084e+01    0.6133517    0.1720793  55.82  0.002163839    2.971    0.663
       319  -7.5306     10.0000    122.0054   1.1999055119e+02   4.8439580172e+01    0.2082176   0.05608601 -72.31 0.0007974639    2.908    0.656
       320  -8.2585    201.9216    121.3200   6.9236976942e+01   1.6326600291e+01    0.2053065    0.1905084  38.07 0.0003252322    1.128    0.113
       321  -7.1684    125.6389    118.6766   8.6136677842e+01   3.3597857871e+01    0.1627387    0.1239844  -4.67 0.0007042352    1.780    0.438
       322  -8.5985     33.9720     16.4892   8.3642657980e+01   6.8834339931e+01    0.2222377    0.1798531   3.31 0.0006830006    1.156    0.135
       323  -8.6862     30.4430     15.9705   8.5107234121e+01   6.9320353326e+01    0.1708262    0.1480288 -15.69 0.0005764516    1.265    0.209
       324  -9.1630    242.6690    115.6680   6.0806709982e+01   8.8182292860e+00    0.2695068    0.2295921  27.71  0.001431179    1.304    0.233
       325  -9.3178      6.5505    113.1353   1.1991270002e+02   5.0748215924e+01    0.3521637    0.2251462 -75.82  0.001812907    1.238    0.193
       326  -9.4167     12.0439    114.9853   1.1856657644e+02   4.9963148601e+01    0.2464272    0.2056252 -62.65 0.0004490274    1.128    0.114
       327  -8.8853     15.5112    112.5002   1.1723289042e+02   5.0316072212e+01    0.2307592    0.1645689 -84.45 0.0006936984    1.265    0.209
       328  -8.1216     22.5663    113.6610   1.1531719700e+02   4.9519125334e+01    0.2477591   0.09448099 -64.05 0.0007999583    1.999    0.500
       329  -7.5155    105.6166    111.7144   8.9912558820e+01   3.9096453312e+01    0.1563584    0.1196093  -6.80 0.0007011322    1.738    0.425
       330  -8.0088     73.1685     16.8374   6.7623502353e+01   6.2817040773e+01    0.1841736    0.1336964   6.01  0.001062183    1.306    0.234
       331  -7.6247     65.4688    110.4929   1.0165118631e+02   4.5802611358e+01     0.142561    0.1258661 -53.80 3.897151e-05    1.029    0.028
       332  -7.9426     44.0619    105.2780   1.0728233182e+02   4.9591440996e+01    0.1777659    0.1597484 -63.71 0.0003591762    1.058    0.055
       333  -8.9705    113.7130     15.8967   5.5589604131e+01   5.4461430803e+01    0.2292315    0.2248923 -49.12  0.000391933    1.191    0.160
       334  -8.9449     19.0197    105.0244   1.1509610148e+02   5.1842498662e+01    0.2113132    0.1170491 -44.28 0.0009355445    1.765    0.434
       335  -8.0895    246.0132    104.2352   5.7654685995e+01   1.0028450023e+01    0.1651028     0.118654  53.30 0.0004804723    1.590    0.371
       336  -8.6340    119.7978    102.9734   8.3585639272e+01   3.8314982209e+01    0.2905092    0.2256844  49.56 0.0007094402    1.362    0.266
       337  -8.8561     25.4749    103.0264   1.1276044087e+02   5.1829007324e+01    0.2099999    0.1965467  22.50 0.0005957255    1.308    0.235
       338  -9.6718      8.8002    100.6367   1.1760850004e+02   5.3546599698e+01    0.3471297    0.2012801  39.61  0.001995078    2.073    0.518
       339  -8.0491     56.1522    100.1728   1.0232424950e+02   4.9456218032e+01     0.181266    0.1566414  87.25 0.0004191046    1.306    0.235
       340  -7.8344    243.3112     99.6622   5.6980627261e+01   1.1312951369e+01    0.1443025    0.1001654 -60.15 0.0007045153    1.688    0.408
       341  -8.6618    203.0282     98.1632   6.3160688617e+01   2.0331810893e+01    0.3680858    0.2800677  -3.46  0.001729389    1.655    0.396
       342  -7.8534     16.4974     99.3995   1.1500920404e+02   5.3348076706e+01    0.1248353    0.1000268 -62.33 9.768506e-05    1.033    0.032
       343  -8.4370    231.2261     97.0391   5.8160288095e+01   1.4260609339e+01    0.2055831    0.1657636 -37.18 0.0003501175    1.116    0.104
       344  -8.4988    161.0596     21.9653   4.8542048925e+01   4.2279147986e+01    0.4476649    0.3189653 -85.85  0.002263951    1.600    0.375
       345  -9.4062     72.1452     95.3654   9.5960128721e+01   4.8462870609e+01    0.3898349    0.3662623  86.39   0.00142607    1.200    0.167
       346  -8.7679     38.7033     94.6586   1.0688452450e+02   5.2655393510e+01    0.3157344    0.1424436 -44.11  0.001407947    2.090    0.522
       347  -8.5295    212.3766     94.1771   6.0493245835e+01   1.8899194619e+01    0.3165751    0.2134185 -54.12  0.001204014    1.599    0.375
       348  -8.7059    208.9133     91.4811   6.0391519906e+01   2.0156706197e+01    0.2841929    0.1974682  71.64  0.001271041    1.758    0.431
       349  -7.8346    165.0905     93.9757   6.9667159933e+01   3.0043598185e+01    0.1927036    0.1813641  48.94 0.0009920553    1.085    0.078
       350  -9.0314    249.4775     92.9225   5.4543611455e+01   1.1146361043e+01    0.2154003    0.1198227 -35.70 0.0006962624    1.558    0.358
       351  -7.7016    174.7368     92.9605   6.7294980141e+01   2.7942730544e+01    0.2034369    0.1333857 -36.20 0.0008756844    1.496    0.332
       352  -7.3753    237.3251     92.2662   5.6097541135e+01   1.3751868866e+01    0.1343552    0.1076927  12.57  0.000298712    1.567    0.362
       353  -7.5523    145.9340     92.7952   7.3819625382e+01   3.4764098883e+01    0.1999853     0.125309  46.68 0.0003892278    1.619    0.382
       354  -8.8864     99.9593     91.0500   8.5988167254e+01   4.4829847355e+01     0.303217    0.2024556 -40.18 0.0006551546    1.436    0.304
       355  -9.6248     19.6021     90.5449   1.1249740528e+02   5.5208451891e+01    0.3667783    0.2752026 -78.68  0.001796452    1.285    0.222
       356  -9.5668    242.4290     88.1739   5.4399302641e+01   1.3340019400e+01    0.5697498    0.1889427 -30.12  0.001898356    3.308    0.698
       357  -7.8973    136.5823     90.1958   7.5417997184e+01   3.7421108129e+01    0.2200906    0.1484596 -29.75 0.0005296054    1.586    0.370
       358  -9.3578     56.1033     89.6447   9.9853842686e+01   5.1932666827e+01    0.3418471    0.2211034  48.95  0.001531591    1.930    0.482
       359  -9.6023    189.3516     88.1835   6.3050846376e+01   2.5328832491e+01    0.4597424    0.3151054 -83.74            0    2.214    0.548
       360  -8.6127     27.4223     88.4453   1.0943802336e+02   5.5107848013e+01    0.2524894    0.1934818  74.59   0.00100646    1.617    0.381
       361  -8.6320      2.0822     88.3439   1.1796792378e+02   5.6758724804e+01    0.2307657    0.1623192 -62.30  0.001506363    1.082    0.076
       362  -7.9775      6.0220     87.9643   1.1660671576e+02   5.6644452190e+01    0.2059955    0.1068944 -46.36 0.0006673158    1.686    0.407
       363  -7.8227     83.1975     87.3764   9.0199957034e+01   4.8575694740e+01    0.1951486    0.1358166  47.77 0.0008047602    1.652    0.395
       364  -7.7897     48.6758     87.3249   1.0183582659e+02   5.3335501577e+01    0.1894392    0.1312764 -71.77 0.0007104196    1.574    0.365
       365  -8.0175     49.5696     84.2273   1.0076006129e+02   5.3946923706e+01    0.2447875    0.1391595 -48.19 0.0006196667    1.493    0.330
       366  -8.1438    102.6728     86.2318   8.3747208974e+01   4.5363425622e+01    0.1960299    0.1830267  39.74 0.0004129826    1.137    0.121
       367  -9.3373     87.2881     83.1275   8.7635816472e+01   4.8824417598e+01     0.421264    0.2840119 -66.58  0.001545744    1.970    0.493
       368 -10.5723     65.3852     83.5368   9.5073736699e+01   5.2120866747e+01    0.4787056     0.377826 -16.38 0.0008086107    1.385    0.278
       369  -7.4038    231.6893     84.3143   5.4992214877e+01   1.6246087098e+01    0.1465595    0.1023358 -62.67 0.0003452728    1.633    0.388
       370  -8.3414    146.1753     83.1417   7.0910449036e+01   3.6610728965e+01    0.3165731    0.2057748 -45.33  0.000862046    1.557    0.358
       371  -7.7679    195.5316     77.4950   5.9003754831e+01   2.5706620779e+01    0.2196702    0.1336282 -44.74 0.0001120681    1.602    0.376
