#   1 NUMBER                 Running object number                                     
#   2 MAG_AUTO               Kron-like elliptical aperture magnitude                    [mag]
#   3 X_IMAGE                Object position along x                                    [pixel]
#   4 Y_IMAGE                Object position along y                                    [pixel]
#   5 X_WORLD                Barycenter position along world x axis                     [deg]
#   6 Y_WORLD                Barycenter position along world y axis                     [deg]
#   7 A_WORLD                Profile RMS along major axis (world units)                 [deg]
#   8 B_WORLD                Profile RMS along minor axis (world units)                 [deg]
#   9 THETA_WORLD            Position angle (CCW/world-x)                               [deg]
#  10 FWHM_WORLD             FWHM assuming a gaussian core                              [deg]
#  11 ELONGATION             A_IMAGE/B_IMAGE                                           
#  12 ELLIPTICITY            1 - B_IMAGE/A_IMAGE                                       
         1  -9.1330      9.0276      9.5058   8.8740711446e+01   7.6819916498e+01    0.2417696    0.1224977  40.55  0.001010248    2.465    0.594
         2 -11.2750     13.8853     15.0645   8.6610875893e+01   7.5258850613e+01    0.4611966    0.2810726 -89.55  0.001044511    2.544    0.607
         3 -10.5182     39.6278     15.5746   6.6284118914e+01   7.2117804247e+01    0.6294435    0.2133322 -52.36  0.002045238    4.106    0.756
         4 -11.7294    235.0750     14.7513   2.1402525026e+01   2.4991860404e+01    0.3639261    0.2306666  46.04 0.0008996335    2.024    0.506
         5 -11.1850     85.5601     11.6782   4.1655632713e+01   6.2886516957e+01     0.330311    0.2589599  34.98 0.0008178193    1.251    0.201
         6 -10.6635    202.0142     11.7821   2.2933663581e+01   3.2438336637e+01    0.2638843    0.1667399  73.05 0.0008214165    1.602    0.376
         7 -11.8588    194.2997     11.6869   2.3528045112e+01   3.4263706094e+01    0.3760275    0.2881357   9.45  0.001320881    1.652    0.395
         8 -11.2000    191.3273      9.7278   2.3221320726e+01   3.5162991031e+01    0.2146974    0.2057705 -79.22 0.0001768901    1.097    0.089
         9 -11.9117    125.9115     10.7485   3.1528782725e+01   5.2220818864e+01    0.4200498    0.2736842 -56.56 0.0002036965    1.709    0.415
        10 -10.9745     34.7230     12.1266   6.7690328451e+01   7.3524685731e+01    0.3306874    0.2714471  43.41 0.0009023792    1.391    0.281
        11 -11.7154     29.5736      7.9902   6.9053254177e+01   7.5048255220e+01    0.4696193      0.34186  -4.01  0.002064425    1.448    0.309
        12 -12.8338    116.7831      8.4354   3.2237196111e+01   5.4951301909e+01    0.3283163    0.3057932 -39.57  0.000494285    1.154    0.134
        13  -9.8760     97.3484     10.5154   3.7610985527e+01   5.9970555658e+01     0.234236    0.1400491 -24.24  0.001050334    1.809    0.447
        14 -10.0829    182.1072      9.8978   2.4073120542e+01   3.7407908047e+01     0.213619    0.1626288 -62.68 0.0003984967    1.239    0.193
        15 -10.5803     45.3055      9.7756   5.8912193008e+01   7.2160965750e+01    0.2380651    0.1993891  25.58 0.0004392727    1.108    0.098
        16  -9.8918     21.9708      9.3917   7.6427609970e+01   7.5733351626e+01    0.2530749    0.1219157  15.51  0.001103985    2.392    0.582
        17  -9.6546     15.9135      8.9666   8.1773187943e+01   7.6426247907e+01    0.1581821    0.1341009  -6.92 0.0005112857    1.101    0.092
        18 -10.2629    149.2170      8.0333   2.6997228241e+01   4.6137666388e+01    0.2159373    0.1401859  48.47 0.0005067004    1.596    0.373
        19 -10.0781    241.5430      6.9693   1.9241874134e+01   2.4422773316e+01    0.1626816    0.1375334 -71.04  0.000105471    1.171    0.146
        20 -11.1486    164.6243      3.3083   2.3667576078e+01   4.2472830158e+01    0.4425273    0.1898205 -66.39  0.001642698    2.907    0.656
        21 -11.5774    207.9911     12.8527   2.2764024089e+01   3.0965714180e+01    0.3835583    0.2435922 -62.32  0.001320033    1.522    0.343
        22 -10.3304    104.7720      4.0998   3.2708334949e+01   5.8643949329e+01    0.2372903    0.1908248  62.93 0.0004963209    1.122    0.108
        23 -10.7217      3.6237      7.0535   9.3217417789e+01   7.7639487803e+01    0.4294092    0.1846099 -51.65  0.002088922    1.852    0.460
        24  -9.3925    134.9923     11.0135   3.0118157178e+01   4.9710659834e+01    0.1752257    0.1577211  76.40 0.0003232433    1.027    0.026
        25 -11.9106     19.5537      2.5188   7.4307825072e+01   7.7366869259e+01    0.3787267    0.2403431  10.63  0.001111637    1.636    0.389
        26  -9.8337     12.0852      1.6943   8.1451852894e+01   7.8274246767e+01    0.2404899    0.1585959  58.46  0.001208018    2.501    0.600
        27 -10.1521     59.7402      3.1745   4.6589372067e+01   7.0137649651e+01    0.2405382    0.1815348  60.76 0.0006650547    1.407    0.289
        28 -10.4542    149.7417      2.4129   2.4931835536e+01   4.6501659584e+01    0.2802805    0.1306005  80.59  0.001142381    2.108    0.526
        29 -11.0454    122.9580      1.8286   2.8312148535e+01   5.3869882953e+01    0.2309464    0.1923416  73.26 0.0007468607    1.090    0.083
        30 -10.1030    115.5785      1.3194   2.9323031126e+01   5.5943767924e+01    0.3747435    0.1025559  65.33    0.0008262    2.906    0.656
        31  -9.4277     80.7183      1.3061   3.7433471810e+01   6.5272248638e+01    0.1378113    0.1081498 -64.94 0.0001944422    1.558    0.358
        32  -9.6963     28.4187      1.3082   6.5305289323e+01   7.6415157459e+01    0.2253931    0.1124083  34.53 0.0007092149    1.949    0.487
        33  -9.7120     39.4987    206.9456   1.0251907021e+02   2.7416522419e+01    0.1551372    0.1102413  89.89 0.0006695316    1.559    0.359
        34 -10.1996    110.0434    250.5759   9.0201100114e+01   1.2454759609e+01    0.1758853   0.07917379  30.33 0.0006062835    1.562    0.360
        35 -11.1052     28.8815    250.5055   1.0658157967e+02   2.0928337934e+01    0.2772847   0.07528082  27.19   0.00135531    2.698    0.629
        36 -12.0644     18.4856    248.4649   1.0857002789e+02   2.2148229796e+01    0.2600674    0.2252117 -24.17  0.002181426    1.749    0.428
        37 -12.0828      4.2860    233.2050   1.1108931781e+02   2.5775089288e+01    0.3380584    0.2224321  42.20  0.001379885    1.072    0.067
        38 -11.9980      2.8967    246.8679   1.1156591279e+02   2.3658891342e+01    0.5898969    0.2823975  41.23  0.003493069    1.350    0.259
        39 -12.7604      5.2605    240.1102   1.1100526498e+02   2.4558844814e+01    0.6123567    0.3440577   7.11  0.003832661    2.454    0.592
        40  -9.4994    193.9691    201.5062   6.7487702603e+01   8.3318306975e+00    0.1776109    0.0952476  29.93 0.0005327584    1.540    0.351
        41 -10.8059      4.4613    201.0701   1.1046527048e+02   3.1533835360e+01    0.1536758   0.09805934  85.00 0.0005651048    1.566    0.361
        42  -9.3014     22.4903    200.5395   1.0624458611e+02   3.0202356007e+01    0.1182993   0.08938996  47.51 2.709788e-05    1.019    0.019
        43  -9.5663      6.2829    191.9807   1.0983527219e+02   3.3176224466e+01    0.1370797   0.08999585  82.24  0.000891073    1.476    0.322
        44  -9.6363      1.1497    191.2050   1.1104122882e+02   3.3696271686e+01    0.1635882   0.06220695  78.69 0.0006482019    2.520    0.603
        45  -9.6327     13.8029    181.7587   1.0768280017e+02   3.4692379126e+01    0.1788879   0.07471544  79.11 0.0008626938    2.431    0.589
        46  -9.7630      6.7929    168.3698   1.0906551335e+02   3.8051789701e+01    0.1532322    0.1076114  10.59 0.0003565533    1.619    0.383
        47 -10.8242      5.8346    154.8246   1.0889774500e+02   4.1117764318e+01    0.2139456    0.1574021  39.42 0.0009385738    1.208    0.172
        48 -10.4811      6.4832    145.3188   1.0837142703e+02   4.3258768768e+01    0.2124939    0.1677147  47.19 0.0004065154    1.121    0.108
        49  -9.6346     52.9702    141.7364   9.3614220406e+01   4.0025561013e+01    0.1898098    0.1608016  46.20            0    1.068    0.064
        50  -9.7656    235.9764    138.2866   4.8987232051e+01   1.0350882175e+01    0.1643352    0.1342025   6.20 0.0005301529    1.101    0.092
        51  -9.6320     96.1450    133.8736   7.8908082062e+01   3.5780954629e+01    0.1964729    0.1720912 -12.76 0.0006538495    1.290    0.225
        52  -9.8279     17.0020    133.9960   1.0453154806e+02   4.5254938833e+01    0.1570358    0.1342901  76.97 0.0005715089    1.070    0.065
        53  -9.6238     61.7480    130.3965   8.9269249224e+01   4.1695502158e+01    0.1872474    0.1337707  17.64 0.0003929261    1.506    0.336
        54 -11.6904     28.4782    127.9938   1.0025670767e+02   4.5839560634e+01    0.2380544    0.2096187  45.68   0.00145868    1.080    0.074
        55  -9.3135     12.3174    129.3174   1.0579175688e+02   4.6708829575e+01    0.1283254   0.09003768 -44.32 0.0004000296    1.655    0.396
        56 -10.2501     41.5105    127.5242   9.5745015415e+01   4.4741879769e+01    0.1379203    0.1245452  59.97 -1.071291e-05    1.022    0.021
        57  -9.4846    226.4922    124.5347   4.7599993103e+01   1.3597692527e+01    0.1248278    0.1049422  -9.44 8.417997e-06    1.027    0.026
        58 -12.1104     10.6260    120.8015   1.0587749927e+02   4.8907725737e+01    0.4327957    0.4077161  15.60  0.001152437    1.188    0.158
        59 -10.6720     25.9206    122.7744   1.0067640666e+02   4.7350354000e+01    0.2464825    0.2303661  61.56  0.001553656    1.042    0.040
        60  -9.9934     86.1852    118.8366   7.9127596323e+01   4.0903040984e+01    0.2067564     0.177612 -10.41 0.0005039424    1.343    0.255
        61 -10.3370     69.1359    116.6736   8.4499423581e+01   4.4055304780e+01    0.2383902    0.1976843 -85.29 0.0006476995    1.298    0.230
        62 -10.2426      1.9670    113.9864   1.0857145977e+02   5.1051501705e+01    0.1902364    0.1640861  74.44            0    1.022    0.022
        63 -10.8961     24.9864    111.7140   9.9972819201e+01   5.0218895948e+01    0.1841514    0.1702429  47.08 0.0004418538    1.078    0.073
        64 -10.3249     15.4653    111.5102   1.0351232344e+02   5.0940390799e+01    0.1300146    0.1196332  85.02 0.0002082874    1.033    0.032
        65 -10.4626     44.2182    110.1736   9.2515150363e+01   4.8834201563e+01    0.1996332    0.1876614 -40.35 0.0004099404    1.145    0.127
        66  -9.3568     69.5090    108.3624   8.2782445522e+01   4.6052361773e+01    0.1456472    0.1364518  33.84 -2.411791e-05    1.049    0.046
        67 -10.3887     44.8490    104.9742   9.1482885305e+01   5.0095784184e+01    0.2060889    0.1948299  67.55 0.0005670153    1.018    0.018
        68 -11.3138     21.6012    104.6591   1.0056525540e+02   5.2276046253e+01    0.3379197     0.149376  56.77  0.001386336    2.458    0.593
        69 -11.1807     12.6005    103.7643   1.0400233753e+02   5.3081943206e+01    0.3645316    0.1731266  45.99 0.0009046912    2.033    0.508
        70 -10.0985     66.7914    104.2364   8.2949821255e+01   4.7475895090e+01    0.2098539    0.1745165 -19.60  0.001071968    1.398    0.285
        71 -10.1831      1.4695    104.0117   1.0829622702e+02   5.3562589973e+01    0.1947881    0.1133459 -82.39 0.0006831053    1.550    0.355
        72 -10.1497    247.0090    101.5092   3.9934554854e+01   1.3136381914e+01     0.155398    0.1165015  43.60  0.000544683    1.534    0.348
        73 -12.5694    197.1857     97.6408   4.6195990422e+01   2.2710696809e+01    0.2579198    0.2326098 -14.21 0.0004287439    1.019    0.018
        74 -12.3845     20.1653     93.0650   9.9916823763e+01   5.5367830998e+01      0.76812    0.4267687 -18.18  0.003457792    2.344    0.573
        75 -11.2005      7.0942     90.6265   1.0522623485e+02   5.6725378544e+01    0.2678679    0.1918046 -58.95  0.001513939    1.343    0.255
        76 -10.0348    132.9720     96.0160   5.9449147252e+01   3.6806853410e+01     0.184898     0.173116  33.41 0.0003896664    1.023    0.022
        77  -9.9059      4.3482     96.7050   1.0677357370e+02   5.5290816942e+01    0.1401548   0.08172446  53.18 0.0007032325    1.675    0.403
        78 -11.5965    125.1289     93.0609   6.0774111248e+01   3.9114420407e+01    0.2565435    0.2320606  30.14  0.001333319    1.076    0.071
        79 -11.5279     57.8422     90.9915   8.3646969574e+01   5.2068375905e+01    0.3521316    0.2640283 -42.71 0.0008736696    1.402    0.287
        80 -11.6194     11.2491     93.0618   1.0367491146e+02   5.5899227585e+01    0.3281465    0.2634766 -61.04 0.0003717956    1.208    0.172
        81  -9.8864     83.5610     90.2889   7.3444895472e+01   4.8145111185e+01     0.232408    0.1776569   9.56 0.0002201371    1.587    0.370
        82 -10.2830    160.0342     89.0547   5.1046490639e+01   3.2046065139e+01     0.222294    0.1816217 -77.49  0.000465955    1.600    0.375
        83  -9.7524     11.7864     88.1854   1.0300838260e+02   5.7128758591e+01    0.1885047    0.1372882 -53.04  0.001003381    1.351    0.260
        84 -10.3600     17.9089     85.6283   1.0003940289e+02   5.7443242000e+01    0.3221649    0.2412889  60.77  0.001783498    1.360    0.265
        85 -10.4147     18.7962     80.1712   9.8953993051e+01   5.8805186747e+01    0.4048771    0.1061304 -81.80  0.001132777    4.641    0.785
        86  -9.7078     30.3986     84.7739   9.4308049196e+01   5.6741503395e+01    0.1901319    0.1188865 -59.44 0.0003741721    1.497    0.332
        87 -11.1200      7.4857     83.3470   1.0446962161e+02   5.8580354535e+01    0.3806523    0.2396568 -55.82  0.001650392    1.507    0.336
        88 -11.3856     11.9066     77.3382   1.0184634422e+02   5.9928866371e+01    0.2656231    0.1781529 -71.28  0.001161407    1.347    0.258
        89 -10.0301      2.6827     83.9792   1.0664878385e+02   5.8604490715e+01    0.1864402    0.1546491 -86.85 0.0005586892    1.084    0.078
        90 -10.6041     65.8404     80.6671   7.7828177807e+01   5.3464331281e+01    0.4307592    0.2714005 -20.60  0.001719796    2.386    0.581
        91  -9.6125     43.1396     80.8059   8.7794246895e+01   5.6503946156e+01    0.1824636    0.1559786 -30.22            0    1.237    0.192
        92  -9.7581    250.4837     80.5222   3.5042638933e+01   1.5041007446e+01     0.119505   0.09804598 -24.09 0.0003704463    1.002    0.002
        93 -10.1775     86.8251     78.9803   6.9056675644e+01   5.0165359165e+01    0.4933375    0.2757197  62.98  0.001690854    3.016    0.668
        94  -9.2875     87.5130     75.4440   6.7723240219e+01   5.0831396134e+01    0.1538058    0.1475894  22.72 2.391938e-05    1.027    0.026
        95  -9.1102     80.4790     79.5471   7.1626700929e+01   5.1231850711e+01    0.1516332     0.147251  32.77 6.913733e-05    1.005    0.005
        96 -10.2992     48.0514     78.9331   8.5151854387e+01   5.6402451014e+01    0.2093848    0.2028662 -35.59 0.0003684009    1.038    0.037
        97 -11.6179      5.1155     75.4018   1.0487199363e+02   6.0720126957e+01      0.55523    0.1518589 -60.46  0.002076589    2.923    0.658
        98 -10.0845     22.3618     76.4849   9.6742717713e+01   5.9524901485e+01    0.2242049    0.1483695  75.83 0.0005862166    1.658    0.397
        99  -9.9546    177.0903     76.1911   4.4145806827e+01   3.0264028940e+01    0.2245858    0.1918977  24.37 0.0007716594    1.242    0.195
       100 -10.8501     54.0765     75.6358   8.1619384789e+01   5.6447090806e+01    0.4457751    0.2844048   2.17 0.0009467793    2.147    0.534
       101 -10.7695     15.9850     76.0036   9.9740469566e+01   6.0056809069e+01    0.2089309    0.1936383 -77.89 0.0007216756    1.009    0.009
       102 -10.3999     69.1128     74.4568   7.4722185409e+01   5.4435163160e+01    0.3122555    0.2265308  51.85 0.0008862824    1.491    0.329
       103  -9.9588    143.7242     73.9809   5.0372333398e+01   3.8464557422e+01     0.204811    0.1998597  33.12 0.0006127905    1.002    0.002
       104  -9.2160     42.3320     73.6883   8.6597662778e+01   5.8414983943e+01    0.1503613    0.1050727  60.90  0.000704377    1.675    0.403
       105 -10.0644     34.9233     73.2761   9.0076869987e+01   5.9302984479e+01    0.2604802    0.1725185  16.39  0.001198594    1.615    0.381
       106  -9.7270    105.8953     71.8254   6.0169708092e+01   4.7730088895e+01    0.2121029     0.173773  62.63 0.0005640739    1.327    0.247
       107  -9.9776     93.2955     71.5567   6.4374707252e+01   5.0513252616e+01    0.3632209    0.2076744  59.24  0.001363724    2.321    0.569
       108  -9.0513    117.5513     71.3961   5.6439575890e+01   4.5155116215e+01    0.1581859    0.1430924  22.78 0.0007955366    1.139    0.122
       109  -9.4885    181.5687     70.4841   4.1795616554e+01   3.0098511736e+01    0.1405362    0.1333456  -8.23 3.131368e-05    1.048    0.045
       110  -9.3143    157.9551     70.2455   4.6117445657e+01   3.5681730798e+01    0.1917889    0.1257323  56.21 0.0004378489    1.535    0.348
       111  -9.5591    100.3145     70.1367   6.1462466027e+01   4.9313257976e+01    0.2054402    0.1421028 -53.45 0.0009013099    1.595    0.373
       112 -12.2359      7.3652     65.3900   1.0274944513e+02   6.3212382072e+01    0.5178379    0.3445562  82.04  0.002774936    1.511    0.338
       113  -9.7743     44.9987     68.7859   8.4116139002e+01   5.9341377215e+01    0.2735453    0.1760988 -75.15  0.001252123    1.750    0.429
       114 -11.3017     80.7492     67.1534   6.7661903180e+01   5.4016372703e+01    0.2677315    0.2548014  39.67 0.0002695875    1.038    0.037
       115 -10.0380     58.8301     66.2831   7.6823692568e+01   5.8051495884e+01    0.3239727    0.1847336 -47.09  0.001397846    1.745    0.427
       116 -10.3170     51.8301     65.8924   8.0014012814e+01   5.9170174482e+01    0.2650324    0.2204662 -36.88 0.0009148865    1.216    0.178
       117 -10.3662    104.5057     64.4003   5.8127662257e+01   4.9546716047e+01    0.3020083    0.1556198 -40.77 0.0007407905    2.018    0.504
       118 -10.6514     40.0980     65.2195   8.5642937151e+01   6.0812088941e+01    0.2397304    0.1929296  41.05 0.0007080127    1.295    0.228
       119  -9.4541    130.6552     62.8303   5.0027895850e+01   4.3598102427e+01    0.2144056    0.1376696 -47.33 0.0004024044    1.676    0.403
       120  -9.7954     62.7981     62.1768   7.3695624869e+01   5.8393903286e+01     0.267819    0.1823999 -55.49  0.001112666    1.504    0.335
       121  -9.4280     33.9321     62.7865   8.8230324172e+01   6.2078227289e+01    0.1798147    0.1142886  18.59 0.0008561668    1.658    0.397
       122 -14.1826     20.2898     57.9567   9.4594913305e+01   6.4444022673e+01    0.5505936    0.4211538 -47.83  0.001172271    1.222    0.181
       123 -10.2414    145.4697     59.1079   4.5306204748e+01   4.0543544145e+01    0.2610028    0.2089764  56.16 1.239156e-05    1.224    0.183
       124  -9.8315     57.8937     58.9087   7.4922383812e+01   5.9951226149e+01     0.215606    0.1917737  -3.53  0.000342789    1.171    0.146
       125  -9.8597     48.9910     59.2149   7.9425949436e+01   6.1188963045e+01    0.2277708     0.192286  61.92  0.001205579    1.353    0.261
       126 -10.3607     10.4950     58.5444   1.0017838105e+02   6.4840180821e+01    0.3255131    0.1679477 -49.98  0.001554139    1.759    0.432
       127 -10.2831      2.9224     58.3285   1.0434244508e+02   6.5166915292e+01    0.3241393    0.1522039 -43.68  0.001507503    2.023    0.506
       128  -9.0660    130.6666     57.2613   4.8146431636e+01   4.4555662109e+01     0.152563    0.1206056 -84.61 0.0002426286    1.575    0.365
       129 -10.7313     71.3588     56.4444   6.7854753731e+01   5.8186959684e+01    0.4454405    0.2532875  43.70  0.001885091    1.756    0.430
       130 -11.9010     66.7365     52.4646   6.8455921935e+01   5.9915887807e+01    0.5067055     0.264426  36.19  0.001868794    1.905    0.475
       131  -9.2299    158.5028     56.5279   4.1829421140e+01   3.7692092668e+01    0.1454397    0.1436124  43.63 -2.548144e-05    1.021    0.020
       132  -9.8965     32.7423     55.5973   8.7052800270e+01   6.4003296116e+01    0.2536176    0.1765719 -29.34  0.001272221    1.533    0.348
       133  -9.9873     36.4971     53.9700   8.4502859108e+01   6.4014038617e+01    0.2780837    0.2012067 -50.43 0.0008023618    1.301    0.231
       134  -9.4296     38.4849     50.0017   8.2175426133e+01   6.4755920216e+01    0.3498036    0.2044402 -58.78  0.001623514    1.652    0.395
       135 -13.3974    114.5279     53.1016   5.1003380026e+01   4.9288990488e+01     0.380917    0.3624581  56.04 0.0007605451    1.033    0.032
       136 -12.9865    106.2630     50.4066   5.2474307717e+01   5.1788190618e+01    0.4423645     0.354877  59.18 0.0004510094    1.258    0.205
       137 -12.4026     86.4819     53.7050   6.0606790133e+01   5.5708820443e+01    0.4901273    0.3712144  32.24 0.0001823488    1.347    0.257
       138 -10.0099     45.3392     52.0353   7.9037193162e+01   6.3407213472e+01    0.3320877    0.1771513 -26.63  0.001250741    2.750    0.636
       139  -9.8111    181.8948     52.1411   3.6569780029e+01   3.2604240635e+01    0.2188427    0.1785163 -60.36 0.0004773441    1.281    0.219
       140  -9.6669    149.1093     52.4989   4.2388736077e+01   4.0659353625e+01    0.2215217    0.1462862  61.08 0.0007157074    1.504    0.335
       141 -10.3224     13.6345     50.4379   9.7006936403e+01   6.6753391735e+01    0.3684967    0.1789441 -48.51  0.001701982    1.848    0.459
       142 -10.9332      9.3678     47.5638   9.9093753340e+01   6.7679874848e+01    0.2901967    0.2668943   0.55  0.001849672    1.173    0.148
       143  -9.9082    232.4977     49.9843   2.9946035168e+01   2.1839412510e+01    0.1939459    0.1081032 -27.32 0.0005983638    1.575    0.365
       144 -10.3265    138.5080     49.9930   4.3800403511e+01   4.3747722695e+01     0.259224    0.2416175 -25.37 0.0004488824    1.117    0.105
       145  -9.9947    137.4458     46.4914   4.2820366309e+01   4.4557930859e+01    0.5717162    0.1521045  60.05  0.001606602    3.837    0.739
       146  -8.9644    189.3139     49.2981   3.4705327547e+01   3.1225313249e+01    0.1381048    0.1042347  25.69 0.0002315046    1.606    0.377
       147 -10.2718     74.6383     47.7424   6.3077593255e+01   5.9400643607e+01      0.32999    0.2253369  65.00  0.001218618    2.009    0.502
       148 -10.5877    155.6152     46.6315   3.9220361868e+01   3.9863259545e+01    0.4280171    0.2380885  45.10 0.0005961328    1.903    0.475
       149 -12.3660    119.5076     47.2351   4.7444805334e+01   4.9044364284e+01    0.3540696    0.3286192 -83.92 0.0002581399    1.154    0.133
       150 -10.4905     68.6397     46.4358   6.5215209133e+01   6.0853114097e+01    0.2850888    0.2260333  26.47  0.001063163    1.279    0.218
       151 -10.7518     79.2288     45.3031   6.0140652700e+01   5.8939006819e+01    0.2568175    0.2418957  63.20  0.000349357    1.146    0.128
       152  -9.4849     30.8132     44.8907   8.5089638605e+01   6.6829583380e+01    0.4387223    0.1232254 -49.12  0.001499535    3.094    0.677
       153  -9.9821     26.1612     44.8988   8.7970048392e+01   6.7265499728e+01     0.336822    0.2834504  54.83  0.001930896    1.358    0.264
       154 -11.2677     16.6568     43.0285   9.3530008008e+01   6.8439218782e+01      0.52818    0.2709664 -61.14  0.001507537    1.699    0.411
       155 -11.2040      4.8227     41.5897   1.0098429023e+02   6.9343098949e+01    0.4177098     0.202837 -49.23   0.00201649    1.782    0.439
       156  -9.1717    221.2769     43.2888   2.9409872954e+01   2.4866047682e+01    0.1183779   0.09488445  16.65 0.0001562092    1.517    0.341
       157 -10.8844    184.4336     40.6855   3.2901519895e+01   3.3470012356e+01    0.3301967     0.271083 -49.33  0.001852777    1.172    0.147
       158  -9.8138     94.9510     43.0000   5.3239948015e+01   5.5825359986e+01    0.2524739   0.08441935  50.79 0.0005800263    2.859    0.650
       159 -10.3077     37.1077     42.1540   8.0329866869e+01   6.6787949464e+01    0.3366746    0.1738389  34.34  0.001490432    1.957    0.489
       160 -10.5272    140.4776     40.5954   4.0104220449e+01   4.4634824679e+01    0.3684201    0.2283898 -70.72   0.00147065    2.300    0.565
       161 -10.5837    170.6463     40.0552   3.4646949586e+01   3.6940760514e+01    0.2445515    0.1883319 -83.61            0    1.423    0.297
       162  -9.8543     44.0272     40.0276   7.5399902591e+01   6.6373949718e+01    0.2088337    0.1966356   2.49 0.0004152743    1.041    0.040
       163 -12.7930    121.6302     37.2804   4.3103708490e+01   5.0054375889e+01    0.4671148    0.3697411 -53.09 0.0008555856    1.375    0.273
       164  -9.8307     51.1986     47.1931   7.4171825047e+01   6.3699236299e+01    0.1995146    0.1756712  73.01  0.001073687    1.370    0.270
       165  -9.5185     21.2334     37.4029   8.8963068734e+01   6.9498845389e+01    0.1797862    0.1201693  30.46 0.0004537032    1.583    0.368
       166  -9.0170     97.7467     36.6717   4.9631478073e+01   5.6233863583e+01    0.1506005    0.1165589  13.75 0.0002099603    1.552    0.356
       167 -11.4672    206.0401     32.4712   2.8135908113e+01   2.9384140440e+01    0.2785583    0.1972078 -46.30 -2.453931e-05    1.290    0.225
       168 -10.2115     49.8705     33.4851   6.9205812473e+01   6.6907324944e+01    0.2402094    0.1926784 -41.95 0.0002641556    1.239    0.193
       169  -9.9494     40.9020     34.5578   7.5024254326e+01   6.8030452112e+01    0.1992941    0.1345438  27.35 0.0005766028    1.486    0.327
       170 -10.8321     28.3438     33.3619   8.2732786316e+01   6.9816349004e+01    0.2650979    0.1747386 -30.89 0.0005878031    1.542    0.351
       171 -11.6040    136.0994     29.2007   3.6846773512e+01   4.7334042111e+01    0.4278765    0.4194706 -15.25 0.0004378884    1.089    0.082
       172  -9.3587    132.2831     26.3139   3.6504751993e+01   4.8722525961e+01     0.151379    0.1101769  31.37 0.0004129972    1.576    0.365
       173  -9.9009    187.8736     30.9780   2.9666929434e+01   3.3791366370e+01    0.2857899    0.1751846 -11.45  0.001339823    1.970    0.492
       174 -11.0111    144.5141     30.7066   3.5824019162e+01   4.4899336392e+01      0.45505    0.2643717 -22.31  0.001140157    1.902    0.474
       175 -12.6206     10.1986     29.5700   9.4643880073e+01   7.2092620479e+01    0.4373611    0.2372374  30.64  0.002175407    2.001    0.500
       176  -9.6620    129.0759     31.4948   3.9151879110e+01   4.8907141769e+01    0.2251433      0.14172  60.81 0.0008398176    1.494    0.331
       177  -9.3877     59.0000     30.9319   6.3012626937e+01   6.5812311746e+01    0.2254025   0.08176336 -43.84 0.0003934348    2.812    0.644
       178 -10.1036     43.9275     31.0805   7.1614170222e+01   6.8346608359e+01    0.2098463    0.1929998  -7.84 0.0004891021    1.011    0.011
       179 -11.2763     38.8295     30.4736   7.4543862518e+01   6.9209665578e+01    0.2403085    0.2171542 -25.49 0.0003157739    1.038    0.037
       180  -9.5794    152.4831     29.5114   3.4047628355e+01   4.2939409163e+01    0.2755892    0.1398277  83.23  0.001025669    2.552    0.608
       181  -9.3937     54.3683     29.2292   6.4649067449e+01   6.6996567945e+01    0.1870672    0.1349371 -52.24 0.0003221082    1.550    0.355
       182 -10.6191    102.5223     22.4830   4.1885974377e+01   5.7141376539e+01    0.3013791    0.2507477 -35.88   0.00156465    1.280    0.219
       183  -9.3564    103.9841     18.8027   3.9805679779e+01   5.7235158725e+01    0.2365317    0.1669512  30.77 0.0003381784    1.570    0.363
       184 -11.0690     68.9022     26.0670   5.5746108949e+01   6.4699996490e+01    0.3662191      0.35656 -19.57  0.001389123    1.104    0.094
       185  -9.8912     94.3059     27.3140   4.6577482107e+01   5.8556466908e+01    0.2476694    0.1454257  53.56 0.0004143741    1.584    0.369
       186 -10.7444     91.1286     26.8673   4.7417011609e+01   5.9412599350e+01    0.3069538    0.2250133  40.43 0.0003138273    1.323    0.244
       187 -10.2216     81.0853     26.6796   5.0946409346e+01   6.1859482505e+01    0.2333882    0.2043339 -46.41 0.0004709918    1.257    0.205
       188  -9.7253     75.7946     26.2453   5.2844705055e+01   6.3148752856e+01    0.2060754    0.1646817  18.99 0.0008726701    1.342    0.255
       189 -10.1563     58.9929     24.2072   5.9593456425e+01   6.7067744204e+01    0.3482731    0.1806049 -39.73  0.001494687    1.979    0.495
       190 -10.1731    190.0096     23.8826   2.7392059781e+01   3.4059441677e+01    0.3826406    0.1747321 -64.40  0.001471662    2.917    0.657
       191 -10.0271     99.7000     28.3083   4.5342347583e+01   5.7049491943e+01    0.2755092    0.1324096  57.16 0.0008131508    1.966    0.491
       192  -9.6831     34.2493     23.8002   7.4488458163e+01   7.1254654647e+01    0.1896425    0.1449057 -10.20 0.0003645917    1.363    0.266
       193  -9.7745    125.1630     23.2001   3.6729676391e+01   5.1025679940e+01    0.2076821    0.1691462 -65.04 0.0005323212    1.334    0.250
       194 -12.7307     10.4083    243.3570   1.1004672693e+02   2.3625897522e+01    0.5600907    0.2392944  82.59  0.003482629    2.536    0.606
       195 -11.3300     16.7290     21.0522   8.6659343590e+01   7.3693587066e+01    0.6113173    0.2897276  23.11  0.002861192    2.126    0.530
       196 -10.0515    188.6669    248.3221   7.4942892572e+01   3.5146603200e+00   0.09744278   0.07070502  36.94 0.0004363402    1.703    0.413
       197 -11.1630      2.2249     20.7446   9.8783401421e+01   7.4508605101e+01     0.345504    0.2565288 -64.82 0.0009902635    1.207    0.171
       198 -10.3089      6.6995     20.0114   9.4756055712e+01   7.4529660307e+01     0.201924    0.1704935 -37.30  0.000749349    1.045    0.043
       199  -9.5404    109.0779     22.3354   4.0073790178e+01   5.5438960823e+01    0.2037271    0.1355015  74.15 0.0004216182    1.615    0.381
       200  -9.6799     74.5754     21.5410   5.0933018204e+01   6.4178700037e+01    0.2116133    0.1821818 -81.25 0.0005117297    1.483    0.326
       201 -10.8306     74.8472     17.8753   4.8866967678e+01   6.4668787810e+01    0.3479371    0.2531481  36.40  0.001269103    1.332    0.249
       202  -9.2597     84.3020     21.3231   4.7083756902e+01   6.1908519278e+01    0.1542573    0.1092924  23.06 0.0005708132    1.634    0.388
       203  -9.0623     27.2753     21.2923   7.8377812141e+01   7.2642713122e+01    0.1369003   0.09266257 -24.76   0.00028126    1.521    0.343
       204 -10.7112    214.4881     19.7182   2.4051605796e+01   2.8843807672e+01    0.2575759    0.1443355 -49.42   0.00134629    1.618    0.382
       205 -10.0602    132.2084     19.8098   3.4009989615e+01   4.9523498655e+01     0.335088    0.2161004  -1.42  0.001468405    2.045    0.511
       206 -10.0977     62.3045     19.6215   5.5420303361e+01   6.7184363088e+01     0.312442    0.2153477 -70.00  0.001333386    2.573    0.611
       207 -10.3967     60.3689     15.8120   5.4203250832e+01   6.8206260725e+01    0.2829826    0.2463389  29.81 0.0008570147    1.063    0.059
       208  -9.3967     37.6530     18.3212   6.9229466632e+01   7.1895665587e+01    0.2700019    0.1756147  47.21  0.001023455    1.831    0.454
       209  -9.5133    230.1534    247.3932   6.7856073536e+01  -8.9352093140e-01    0.1275108   0.07130967  28.12 0.0004347994    1.528    0.346
       210 -11.0847    125.0052     17.1823   3.4328162409e+01   5.1778511100e+01    0.2953127    0.2224935  36.91 0.0003627495    1.419    0.295
       211  -9.5289     88.8333     18.7708   4.4248893138e+01   6.1146474058e+01    0.1907674    0.1701595 -70.30  0.000305735    1.293    0.227
       212 -10.5250     68.8062     17.8873   5.1421742224e+01   6.6049734576e+01    0.3362295     0.227688  62.63  0.001061268    1.712    0.416
       213 -11.0097    238.1618     16.8372   2.1699435955e+01   2.4178156051e+01    0.2047463    0.1735681 -35.48 0.0002515044    1.093    0.085
       214  -9.4613    224.5212    247.5088   6.8770500900e+01  -3.2172294123e-01     0.104154   0.06832573  11.00  0.000810193    1.016    0.016
       215 -10.3341    202.9678     16.7273   2.4194348418e+01   3.1737529743e+01    0.1826622     0.157205 -69.31 0.0004665049    1.088    0.081
       216 -11.1018    161.4181     15.6350   2.8084618759e+01   4.2143420673e+01    0.4646028    0.1388068  65.28  0.001200454    2.895    0.655
       217 -10.2966     82.9047     15.8701   4.4767601701e+01   6.3013028082e+01     0.222808    0.2032016  36.69 0.0002835174    1.023    0.022
       218  -9.9061    170.9959    246.7500   7.7957277385e+01   5.7331193273e+00    0.1776248      0.10942  13.34  0.001207769    1.335    0.251
       219  -9.1047     86.6843    245.2692   9.4546606997e+01   1.5881949348e+01    0.1140875   0.06152334  45.43 0.0004651802    1.554    0.357
       220  -9.7708    146.6155    244.1988   8.2308978313e+01   8.9529983598e+00    0.1356652   0.09559038 -20.34 0.0008366599    1.697    0.411
       221  -9.4946     52.1580    244.6271   1.0165077388e+02   1.9650889112e+01    0.1554035   0.08420981  20.67 0.0009437196    1.756    0.431
       222 -10.1266     39.0149    242.0406   1.0424034373e+02   2.1337156850e+01    0.1885742   0.07577366  62.36 0.0005481228    2.566    0.610
       223 -10.0878     35.4878    239.9654   1.0488567335e+02   2.2002268678e+01    0.1509454    0.1116723  45.58 0.0004430446    1.067    0.063
       224  -9.5540     61.2230    240.6488   9.9555327499e+01   1.9354499863e+01    0.1555193   0.08427007  22.62 0.0005107365    1.656    0.396
       225 -10.9298     30.2820    240.8519   1.0598734704e+02   2.2334383769e+01    0.2722352   0.06565373  23.99  0.001106122    3.813    0.738
       226  -9.3093     46.4615    202.5072   1.0060886805e+02   2.7567826339e+01    0.1233403     0.093402  45.35 0.0002109285    1.047    0.045
       227  -9.3865    204.0398    235.2579   7.0566474565e+01   3.1442990941e+00    0.1358033   0.06943062  25.94 0.0004337099    1.462    0.316
       228  -9.7470    116.1648    246.7574   8.8629674577e+01   1.2263896670e+01    0.1454057    0.1089018  12.59 0.0008200757    1.295    0.228
       229  -9.0185    238.7094    234.3060   6.4736296626e+01  -5.7464794377e-01   0.08547399     0.069166  13.42 0.0002565886    1.574    0.365
       230  -9.2965    249.4990    233.4232   6.2965794352e+01  -1.6000435343e+00    0.1022607   0.06636371   6.60 0.0001258215    1.014    0.013
       231  -9.8774     32.2338    233.3674   1.0531496315e+02   2.3392236492e+01    0.1595629   0.06824927  36.44 0.0004398396    1.585    0.369
       232 -10.1701    245.1174    229.8899   6.3126770170e+01  -8.3170238974e-01    0.3032611   0.08070383  30.40  0.001515733    3.119    0.679
       233  -9.5275    209.5717    229.4910   6.8823769502e+01   3.1178602985e+00    0.1091371   0.07756878  12.00 0.0001558323    1.054    0.051
       234 -10.8701    140.0775    227.9070   8.1782453525e+01   1.1939440409e+01     0.225876    0.1814356 -73.27  0.001539011    2.079    0.519
       235 -11.8422      2.5748    225.3279   1.1131472560e+02   2.7248337354e+01      0.34973    0.1434914  59.95    0.0019116    1.926    0.481
       236 -11.2579     11.5400    226.3202   1.0946116828e+02   2.6377893849e+01    0.2957846   0.03739402  30.09  0.001236122    3.443    0.710
       237 -10.0392     26.8039    223.8577   1.0612862128e+02   2.5515350311e+01    0.1599772   0.09228932  49.82 0.0004499415    1.322    0.244
       238  -9.1583    167.3151    221.3087   7.5469916368e+01   9.3076657763e+00    0.1197569   0.07426993   6.35 0.0007029444    1.630    0.387
       239  -9.6630    130.9641    221.0000   8.2883993660e+01   1.4119671757e+01     0.211069   0.05371764  32.07 0.0008093113    2.990    0.666
       240 -10.9484      7.8507    219.6692   1.1009970787e+02   2.7838129557e+01    0.1597206    0.1219415  71.42 0.0005408174    1.279    0.218
       241  -9.8405    223.4305    226.5179   6.6076726317e+01   1.8412333100e+00    0.1087012   0.07449085   8.39  9.11221e-05    1.010    0.009
       242  -9.7356     29.9953    214.5201   1.0506464635e+02   2.6901812208e+01    0.1687813   0.08986066  29.50 0.0003955647    1.512    0.339
       243  -9.4822    205.4903    211.9997   6.7006238527e+01   5.5582299132e+00      0.15358    0.0984492 -22.60 0.0009666596    1.555    0.357
       244  -9.3783     20.4799    209.5191   1.0703543085e+02   2.8663522641e+01    0.1187645   0.08240347  48.04 -9.543801e-05    1.092    0.085
