#   1 NUMBER                 Running object number                                     
#   2 MAG_AUTO               Kron-like elliptical aperture magnitude                    [mag]
#   3 X_IMAGE                Object position along x                                    [pixel]
#   4 Y_IMAGE                Object position along y                                    [pixel]
#   5 X_WORLD                Barycenter position along world x axis                     [deg]
#   6 Y_WORLD                Barycenter position along world y axis                     [deg]
#   7 A_WORLD                Profile RMS along major axis (world units)                 [deg]
#   8 B_WORLD                Profile RMS along minor axis (world units)                 [deg]
#   9 THETA_WORLD            Position angle (CCW/world-x)                               [deg]
#  10 FWHM_WORLD             FWHM assuming a gaussian core                              [deg]
#  11 ELONGATION             A_IMAGE/B_IMAGE                                           
#  12 ELLIPTICITY            1 - B_IMAGE/A_IMAGE                                       
         1 -12.5908    245.1078     38.2096   3.5285392066e+02   2.2794564974e+01     0.944303    0.6011808 -68.51  0.004761128    1.498    0.332
         2 -11.7775    185.6505     23.9570   3.5394815981e+02   3.6105334043e+01    0.9849902    0.5580975 -75.31  0.005165805    1.779    0.438
         3 -12.1574    246.3833     16.0891   3.4830092325e+02   2.5053779059e+01    0.7672772    0.3683643 -54.88  0.004497227    1.572    0.364
         4 -11.1783    249.7367      4.1642   3.4580336132e+02   2.5701848898e+01    0.5111122      0.14633 -35.91  0.002659843    2.324    0.570
         5 -11.9915    244.4357      4.5015   3.4606573241e+02   2.6582077673e+01    0.5676389     0.295009 -57.85   0.00327428    1.445    0.308
         6 -12.0129    239.5559     19.1975   3.4926399259e+02   2.5915334420e+01     0.687579    0.4423778 -13.16  0.004146968    2.312    0.568
         7 -12.4632     12.6706     20.4155   4.4637326884e+01   7.5001883359e+01    0.5843635    0.3118932 -33.28   0.00247687    1.931    0.482
         8 -10.8865    204.9389     21.0192   3.5172648545e+02   3.2336499012e+01     0.465956    0.2350647 -46.33  0.002566429    1.555    0.357
         9 -12.4209     93.7454     12.1285   2.2403882518e+00   5.9712295814e+01    0.9559629    0.6894779 -56.48  0.003619484    1.500    0.334
        10 -12.5645    226.6154      7.4144   3.4741155474e+02   2.9518502262e+01     1.037272    0.3776077 -50.66  0.005308394    1.982    0.496
        11 -11.8183     23.0196     12.7583   3.1771333251e+01   7.4976421817e+01    0.3574635    0.2984515  10.43  0.001485505    1.089    0.082
        12 -10.0353     45.7061     12.5689   1.8026299685e+01   7.0858004078e+01     0.280304    0.1904752 -67.55  0.001328403    2.532    0.605
        13 -12.5136    205.4399      7.1635   3.4841418027e+02   3.3701870610e+01     1.289553    0.5426244 -78.99  0.006283005    2.485    0.598
        14 -11.7029    166.7030      9.1615   3.5151381268e+02   4.1985591400e+01    0.5786778    0.3158931 -80.02  0.002942839    1.780    0.438
        15 -11.2024     29.5403      8.5174   2.4330634011e+01   7.4515730253e+01    0.2729713    0.2527267 -42.69 0.0007200007    1.315    0.240
        16 -11.6528    100.5166     13.5034   1.4597935680e+00   5.7875822149e+01     0.421204    0.2836357  42.11  0.001517374    1.609    0.378
        17 -10.9438     40.2182      2.9097   1.4290457848e+01   7.3133153243e+01    0.4440097     0.297745  58.54   0.00247979    1.492    0.330
        18 -11.3886    165.8340      2.1306   3.4958609183e+02   4.2856267918e+01    0.5809206    0.1647932  74.91  0.002290823    3.151    0.683
        19 -10.5557    180.2335      2.6105   3.4875336775e+02   3.9536162327e+01    0.3540424    0.2599247 -47.09   0.00226564    1.197    0.164
        20  -9.7518     80.4100      1.6297   1.6295418536e-01   6.3980477596e+01    0.3404997   0.09200178  63.20  0.001244257    2.851    0.649
        21 -10.3087     97.2623    186.9072   5.1213596522e+01   2.2475367464e+01    0.3247188    0.1911274  67.73  0.001317085    2.730    0.634
        22 -11.4095      4.0818    183.5522   7.6497801048e+01   3.3785996269e+01    0.3474309    0.1963359   8.37  0.001718503    2.166    0.538
        23  -9.4823    122.8105    181.7454   4.3962678473e+01   1.9837515591e+01    0.2558388    0.1869005  88.44  0.001222284    2.132    0.531
        24  -9.8137     85.5942    180.7869   5.3442375766e+01   2.5522872343e+01    0.2691573    0.1794863  15.48  0.001277039    1.687    0.407
        25  -8.7076    135.3024    172.6440   3.9384968978e+01   1.9811120254e+01    0.1378047    0.1120539  76.66 0.0007038819    1.711    0.416
        26 -10.1098    179.2118    170.1013   2.9481590708e+01   1.3491278523e+01     0.336184     0.166436 -47.20  0.001558891    2.069    0.517
        27 -11.3408    124.5683    167.3702   4.1033968479e+01   2.2648920158e+01    0.7282677    0.4820302 -68.83  0.003343883    1.998    0.500
        28 -10.7847      8.8910    169.5266   7.4439752673e+01   3.6919945212e+01    0.2966719    0.1452919  72.93  0.001330751    1.996    0.499
        29 -10.4617    180.3153    157.9704   2.6931784329e+01   1.5491125769e+01    0.4147037    0.3021641 -14.51  0.002288365    1.452    0.312
        30 -10.4144    111.2096    155.6925   4.2316534936e+01   2.7476514741e+01    0.3918083    0.3075694 -88.39  0.001335937    1.628    0.386
        31 -10.9102    205.9899    154.7405   2.1733964978e+01   1.2143038801e+01    0.3316705    0.2152267 -64.97  0.001557298    2.960    0.662
        32 -11.1548    209.6773    154.6717   2.1118554771e+01   1.1618735027e+01    0.2153892    0.1703768   5.00 0.0009802133    1.326    0.246
        33  -9.9502     73.0322    154.1775   5.3068486496e+01   3.3853681109e+01    0.3443059    0.1908023 -54.69  0.001467215    1.802    0.445
        34  -8.8823     39.3142    152.6865   6.3556233963e+01   3.8539033804e+01    0.1566191   0.09820449  59.89 0.0007033513    1.639    0.390
        35 -10.5389    246.7446    149.3176   1.4734441017e+01   7.4298895720e+00    0.3547183    0.2285871 -52.90  0.002160686    2.019    0.505
        36  -9.4097    149.4464    141.2708   2.9869580982e+01   2.3945111872e+01    0.2413778    0.1795432  63.13  0.001173908    1.756    0.431
        37 -11.0904    246.9466    135.7519   1.2187320324e+01   9.3314224447e+00    0.3671116    0.2982057 -57.13  0.002059124    1.560    0.359
        38  -9.9947    230.3990    136.5239   1.4489484626e+01   1.1485684753e+01    0.2564886    0.1698432 -22.57  0.001551392    1.415    0.293
        39 -10.6136    133.2015    130.0475   3.1190352094e+01   2.9352845539e+01    0.5805577    0.3061437 -47.33  0.002400241    1.836    0.455
        40 -10.2435    223.1453    127.4523   1.3685419954e+01   1.3944450742e+01     0.264449    0.1335078 -47.66  0.001327964    1.937    0.484
        41 -11.6349    111.9533    116.3373   3.3517398659e+01   3.6589727291e+01     1.034041    0.5688156  33.56  0.004089939    2.060    0.515
        42  -9.3831    144.8723    120.8107   2.6237094765e+01   2.9058355562e+01    0.2013111    0.1753927  87.06 0.0004860545    1.355    0.262
        43  -9.9105     78.2318    118.9173   4.4639368269e+01   4.2186924927e+01    0.3901686    0.1927975 -46.00  0.001465337    2.114    0.527
        44 -12.1740    105.9564    106.6812   3.2770061455e+01   4.0032831745e+01     1.906046     1.021016 -45.48  0.007599378    1.852    0.460
        45  -9.9122      6.7330    119.5838   7.1586223857e+01   5.0436220700e+01    0.2496336    0.1414314   7.49  0.001138857    2.073    0.518
        46 -11.9952    248.5301    104.8621   6.0465867002e+00   1.3497208867e+01    0.6404629    0.2443566 -38.24  0.003224472    1.937    0.484
        47 -11.2111    107.9130    124.7126   3.6692005139e+01   3.5396629775e+01    0.7161092    0.6664749  46.20  0.003398018    1.089    0.081
        48 -11.7952     18.4135    112.1019   6.6121539436e+01   5.1675993203e+01    0.6582254    0.3843758 -10.73  0.002844587    2.268    0.559
        49 -12.0014    236.2772    108.0397   8.0566699357e+00   1.4872449910e+01    0.6063147    0.2207248 -47.10  0.002669723    2.622    0.619
        50 -12.5310     10.6124    105.0401   6.8481256710e+01   5.4199411134e+01    0.5846514    0.3788697 -48.96  0.002887735    1.517    0.341
        51  -8.9706    151.3689    104.7002   2.0802280173e+01   3.1007882401e+01    0.1514613    0.1144821 -81.88 0.0003730067    1.737    0.424
        52 -10.3996     99.9674    124.2761   3.8924188096e+01   3.6984546666e+01    0.7062646    0.4936863  29.45  0.003191445    1.554    0.356
        53 -10.7046     46.1749     99.2945   5.2274039492e+01   5.2254222695e+01     0.510407    0.3371278  76.18  0.001946785    1.977    0.494
        54 -10.4413    110.5410    100.0339   2.9637316732e+01   4.0611444673e+01    0.3222741    0.2399735  47.84  0.001512191    1.371    0.271
        55  -9.4881    194.5443    113.5219   1.4970720336e+01   2.0963548547e+01    0.1350803    0.1161145 -35.44 0.0001815468    1.027    0.026
        56 -11.4087      2.3256     96.3906   7.1102856658e+01   5.7055235233e+01    0.6054083    0.2165923 -78.39   0.00227219    2.519    0.603
        57 -12.6859     20.4391     94.8395   6.2672494350e+01   5.6264073270e+01    0.6785437    0.4352701  35.63  0.002353607    1.620    0.383
        58  -9.6116     60.2636     97.3573   4.6060971369e+01   5.0720310987e+01    0.2914557    0.1998204  44.67  0.001322014    1.505    0.335
        59 -10.2256    178.7703     85.3817   1.0786629623e+01   2.8818895410e+01    0.5075627    0.2027366 -51.66  0.001861684    2.837    0.647
        60 -11.0107    231.5907     85.9691   4.0068336944e+00   1.8829411584e+01    0.2145419    0.1938177  78.18  0.001542272    1.359    0.264
        61 -10.8806     20.1289     85.9921   6.1222270521e+01   5.8686833029e+01    0.3088469    0.2169461  -8.58  0.001520327    1.656    0.396
        62 -12.4645    237.4568     80.1171   2.1719015683e+00   1.8682474236e+01    0.8148741    0.5128738 -73.44  0.004714811    2.097    0.523
        63 -11.6327    235.8537     71.5195   5.2194039476e-01   2.0132785833e+01    0.4995262     0.405581 -57.88  0.003519244    1.156    0.135
        64 -11.0033    249.9228     79.6598   8.9866826450e-01   1.6751939736e+01    0.7407327    0.1334118 -35.85  0.002642981    3.943    0.746
        65  -9.7467    113.8667     80.8254   2.3076291074e+01   4.4019461845e+01    0.3197406     0.219926 -56.04  0.001225601    1.522    0.343
        66  -9.2225     89.4621     81.1678   3.0566784787e+01   4.9258580353e+01    0.2496318    0.1851685  53.43 0.0007117091    1.395    0.283
        67 -10.0205    136.5200     79.5118   1.7118653301e+01   3.9126911750e+01    0.2790774    0.2251381  51.24  0.000767202    1.297    0.229
        68 -10.7703    132.2540     78.6991   1.7838069572e+01   4.0255295990e+01    0.4777436    0.3298101 -74.34  0.001863796    1.884    0.469
        69 -10.9650    210.0782     77.3613   4.5348783524e+00   2.3899654093e+01    0.5622011    0.2469481 -60.15  0.002152352    3.487    0.713
        70 -11.4847    163.4988     72.0337   9.7704423972e+00   3.4338314382e+01     0.328049     0.281432 -50.48  0.001572945    1.059    0.056
        71 -11.5051    163.6337     77.7862   1.1314720323e+01   3.3339196382e+01    0.4051322    0.3443473  73.78  0.001564896    1.247    0.198
        72 -12.1247    174.4110     76.2317   9.1252831068e+00   3.1259444744e+01    0.7147609     0.485109  71.77  0.003548686    1.682    0.406
        73  -9.8480     70.1627     75.5289   3.5762377247e+01   5.4376137136e+01    0.2440237    0.2087435 -23.45 0.0007531673    1.293    0.227
        74 -11.3012     54.6292     72.3336   4.1243179322e+01   5.7872367384e+01    0.4882126    0.3017247  52.12  0.001479614    1.893    0.472
        75 -11.4836      8.0118     71.2391   6.4647023210e+01   6.3491178467e+01    0.5464097    0.3100864  29.79  0.002621612    1.866    0.464
        76 -11.6786      2.4443     64.8101   6.6590931039e+01   6.5467815438e+01    0.8400401    0.2376167 -73.81  0.002888398    3.247    0.692
        77  -9.4342     82.0439     70.2036   2.9495859885e+01   5.3197725532e+01    0.2536668    0.1783784  73.45  0.001087057    1.949    0.487
        78  -9.4011     39.6134     67.8042   4.6918941247e+01   6.1231643102e+01    0.2054384    0.1384965 -70.20 0.0007735862    1.673    0.402
        79 -10.5643     56.9791     65.6028   3.7909502576e+01   5.9040760799e+01    0.3823856    0.1830646  37.67  0.001513602    2.099    0.524
        80  -9.9496    158.6580     63.5635   8.2105185877e+00   3.6814740654e+01    0.3400676    0.1752305 -61.67  0.001332895    2.529    0.605
        81  -9.3285     99.7470     64.5812   2.1746353899e+01   5.0456657211e+01    0.2118624    0.1433058  64.10 0.0009403427    1.634    0.388
        82 -10.3253     78.1528     60.1678   2.7278616565e+01   5.6098621864e+01    0.4245775    0.3152199 -17.92  0.001977194    1.733    0.423
        83 -10.7965      7.7046     61.4195   6.2824472872e+01   6.6042472171e+01    0.2523687    0.1249335  20.66  0.001140227    2.105    0.525
        84 -11.0270    231.1680     56.4369   3.5772212144e+02   2.2960306427e+01    0.5257906    0.3179781 -72.83  0.003069764    1.875    0.467
        85 -12.0973    226.3701     45.1053   3.5564710141e+02   2.5281827832e+01    0.8472738     0.486447 -51.62  0.004619349    1.400    0.286
        86 -12.1976    242.9289     55.4017   3.5654569167e+02   2.1058079180e+01    0.8216745    0.2635311 -38.45  0.003934026    2.192    0.544
        87 -11.0113    177.5092     57.6182   3.7559301968e+00   3.3490890883e+01    0.5336418    0.3280331 -55.45  0.002696628    1.545    0.353
        88 -10.8168    132.7595     65.7442   1.3764426077e+01   4.2500205186e+01    0.4997702    0.3609116  77.52  0.001817389    1.551    0.355
        89 -11.0543    238.0855     54.5318   3.5674507844e+02   2.1994775461e+01    0.4857132    0.1707783 -42.00  0.002387038    2.028    0.507
        90 -10.1633     91.7633     57.1698   2.1510792693e+01   5.3683762644e+01    0.3933299    0.2489092  52.80  0.001775857    1.560    0.359
        91 -11.1777    119.7818     55.0609   1.3162521120e+01   4.7432081840e+01    0.5301421    0.3463895  51.11  0.001588296    1.548    0.354
        92  -9.4964    207.4129     54.7703   3.5955479177e+02   2.7642149805e+01    0.1759381    0.1113623 -26.94 0.0009507481    1.670    0.401
        93 -10.3472    109.3125     54.0437   1.5356523812e+01   5.0125786254e+01    0.3307842    0.3213043 -62.74  0.001117197    1.054    0.052
        94 -10.4440    104.7187     52.2699   1.5918292176e+01   5.1527750176e+01    0.4370002    0.2625816 -62.93  0.001790379    2.216    0.549
        95 -10.9799     97.0512     49.3567   1.6952424899e+01   5.3846123521e+01    0.5909296    0.2975884 -42.70  0.001854945    2.012    0.503
        96 -11.1052      9.7528    246.4532   7.7433515357e+01   1.9643654619e+01    0.2756892    0.1004198  21.52  0.001304903    2.642    0.621
        97 -11.5726    205.9961     41.1960   3.5646213034e+02   2.9713561664e+01    0.8250896    0.3454862 -72.60  0.003126868    3.896    0.743
        98 -10.7609    179.3280     38.5105   3.5841783806e+02   3.5733635711e+01    0.4181167    0.2242325 -37.87  0.002092081    1.649    0.394
        99 -10.2389    133.0780     38.5823   4.8615341790e+00   4.6680907075e+01    0.3474176    0.2210235 -56.67  0.001435682    1.614    0.380
       100 -11.1447    114.2158     37.6359   8.2003075864e+00   5.1490277452e+01     0.339343    0.2700697  53.70   0.00181445    1.257    0.205
       101 -10.7446    118.7952     35.5908   6.4947760449e+00   5.0636722919e+01    0.3863992    0.2225621  73.21  0.001617975    1.803    0.445
       102 -10.3094    227.6856     36.7482   3.5371559270e+02   2.6065577139e+01    0.3342801     0.154366 -54.24  0.001766812    1.826    0.452
       103 -10.3360    129.0461     34.1664   4.0645263637e+00   4.8276264445e+01    0.2177389    0.1880424  47.69 0.0008541693    1.280    0.219
       104 -11.1983      3.9605     33.3763   5.7544360167e+01   7.3035452703e+01    0.4032264    0.2364289  -6.52  0.002061242    1.830    0.454
       105 -10.0367     38.4026     33.4716   3.3822883183e+01   6.8899382144e+01    0.3219137    0.1270678  41.26 0.0009653796    2.507    0.601
       106 -11.6905    164.5354     30.1292   3.5774080834e+02   4.0174590901e+01     0.705383    0.3525515 -81.60  0.003015441    2.490    0.598
       107 -11.5453    144.0881     29.2456   6.0861434882e-02   4.5187445881e+01    0.9144745     0.343208  71.94  0.003513494    2.713    0.631
       108 -10.5110    242.1655    244.4563   3.0850935338e+01  -4.3644220699e+00    0.2121492    0.1148456  -9.89  0.001267894    1.550    0.355
       109 -11.8626    248.2026    239.6922   2.9287347471e+01  -4.3452557920e+00    0.4795215    0.2331518 -36.75  0.003229949    2.010    0.503
       110 -11.0923    208.6324    239.7229   3.5502508786e+01  -7.1012128294e-01    0.3737941    0.1968375 -22.32  0.002345443    1.738    0.425
       111  -9.4666    155.1986    239.7946   4.5328961786e+01   5.0305002030e+00    0.1633409    0.1159402  -6.71 0.0007456395    1.346    0.257
       112 -10.1148     55.9081     26.6647   2.1385872228e+01   6.6759437921e+01    0.3525564    0.2349108  70.54  0.001649887    2.098    0.523
       113  -9.4613    172.5047    233.5042   4.1111451061e+01   3.9909116736e+00    0.1181123   0.09225585   2.73 0.0008105939    1.018    0.018
       114 -10.0202    119.2829     25.4318   2.6712497562e+00   5.1821916426e+01    0.2756234    0.1191746  62.30  0.001138538    2.096    0.523
       115 -11.5626    228.5615    229.7535   3.0816111755e+01  -1.4071425189e+00    0.2811853    0.1470225 -25.11  0.001830581    1.590    0.371
       116 -11.2130     20.4386     22.5007   3.9705359321e+01   7.3653270869e+01    0.3276753    0.2369584 -83.55  0.001610363    2.595    0.615
       117 -11.3686    249.0168    226.4615   2.7245203182e+01  -2.9043217967e+00    0.2780297    0.1258853 -36.83   0.00175935    2.012    0.503
       118  -9.2910     35.7870     23.1541   2.9809528544e+01   7.1176320998e+01    0.1854339    0.1481691   1.46 0.0006271211    1.312    0.238
       119  -9.5593     20.4266    222.7890   7.4132895188e+01   2.3452929797e+01    0.1608161    0.1069761 -67.18 0.0009553648    1.709    0.415
       120  -9.6434     50.2030     19.4701   2.0026276011e+01   6.9000856847e+01    0.3071106    0.1303636  59.39  0.001138916    3.080    0.675
       121  -9.9264    249.9869    216.9964   2.5680187888e+01  -1.8701145878e+00    0.1393155    0.1193851 -29.75  0.001137836    1.696    0.410
       122  -9.5667      4.6635     16.6942   4.9622565505e+01   7.6536186681e+01    0.1345273   0.08150014 -23.33 0.0004418494    1.672    0.402
       123 -10.9756    238.0017    215.1450   2.7153924622e+01  -5.0059291927e-01    0.3109129    0.1917303 -28.65  0.002108232    1.331    0.248
       124  -9.6238    141.3216    215.6627   4.4919973475e+01   1.0669129023e+01    0.1214328    0.0958307  56.20 0.0004677255    1.712    0.416
       125 -10.2192    228.9934    211.0068   2.7886972506e+01   9.4181269213e-01    0.1449473    0.1360591 -30.11  0.001139528    1.717    0.418
       126 -10.0817    239.3899    205.7154   2.5465214179e+01   5.6354461326e-01    0.2193367    0.1338658 -21.52  0.001214337    1.277    0.217
       127  -9.0948     71.5193    206.4559   6.0275874504e+01   2.1545678611e+01    0.1327301    0.1186583  35.72 0.0001812697    1.033    0.032
       128  -9.1530    185.6827    201.6655   3.3789063973e+01   7.2876221149e+00    0.1292942   0.08165648  -9.17 0.0007048128    1.695    0.410
       129 -11.2639    166.0854    197.5017   3.6925813215e+01   1.0550187706e+01    0.4176645    0.3868085   8.49  0.002804747    1.185    0.156
       130 -10.8012    248.4044    196.4542   2.2668269407e+01   8.4063853427e-01    0.3851627    0.1895399 -33.99   0.00228031    1.618    0.382
       131  -9.9778    205.8842    188.9192   2.8020284304e+01   6.7247706590e+00    0.3440957    0.1240923 -48.09  0.001364463    3.707    0.730
