#   1 NUMBER                 Running object number                                     
#   2 MAG_AUTO               Kron-like elliptical aperture magnitude                    [mag]
#   3 X_IMAGE                Object position along x                                    [pixel]
#   4 Y_IMAGE                Object position along y                                    [pixel]
#   5 X_WORLD                Barycenter position along world x axis                     [deg]
#   6 Y_WORLD                Barycenter position along world y axis                     [deg]
#   7 A_WORLD                Profile RMS along major axis (world units)                 [deg]
#   8 B_WORLD                Profile RMS along minor axis (world units)                 [deg]
#   9 THETA_WORLD            Position angle (CCW/world-x)                               [deg]
#  10 FWHM_WORLD             FWHM assuming a gaussian core                              [deg]
#  11 ELONGATION             A_IMAGE/B_IMAGE                                           
#  12 ELLIPTICITY            1 - B_IMAGE/A_IMAGE                                       
         1 -12.9748     57.8590    132.0272   1.0499329371e+02   4.1581981635e+01     2.804749    0.8756248 -71.87  0.005565182    9.810    0.898
         2 -13.5337    214.2751     33.1703   4.1629242598e+01   2.8399658086e+01     1.005712    0.7857763 -69.85  0.004129969    1.237    0.192
         3 -13.2262    220.5949     26.2241   3.9272829440e+01   2.7809258550e+01    0.6811947    0.5620851  70.73  0.001525323    1.242    0.195
         4 -13.6783    235.6465     11.6125   3.4603540309e+01   2.6169477675e+01     0.731715    0.6216298 -58.72  0.002662973    1.063    0.059
         5 -10.6418      3.0950      3.2153   8.8090655886e+01   7.3714648084e+01    0.2635122    0.1465746  -4.63  0.001647031    1.715    0.417
         6  -8.7026     92.3027      1.6583   5.1108859772e+01   5.9982338498e+01    0.1176364   0.09645789 -57.72 0.0007039062    1.677    0.404
         7 -10.4212     34.2207    237.7494   1.2221652140e+02   2.0472278447e+01    0.2197578    0.1193918  61.10 0.0008128937    1.553    0.356
         8 -12.5757     31.3263    247.7224   1.2333769948e+02   1.8937625140e+01    0.7218559    0.4608935  37.14  0.005033851    1.629    0.386
         9 -14.6408     88.6786    246.6669   1.1298766934e+02   1.2222165205e+01     5.039933    0.9767876  33.87   0.01457934    6.677    0.850
        10 -14.5237    120.6631    229.8896   1.0487277173e+02   1.0697524601e+01     5.057833     0.641583  40.34   0.01408259    5.746    0.826
        11  -9.8425     33.0635    226.6942   1.2168207648e+02   2.2728614834e+01     0.154462    0.1221972  68.80 0.0004248342    1.051    0.049
        12 -13.3059     87.8826    228.5540   1.1129715697e+02   1.5671256933e+01     1.559299    0.7576092  66.19  0.006788047    3.014    0.668
        13 -11.5165     37.8348    230.6535   1.2108376819e+02   2.1440231185e+01     0.248602    0.1832838 -68.67 0.0003556808    1.448    0.309
        14 -10.1843     36.9679    223.4364   1.2072274775e+02   2.2956882200e+01     0.208786    0.1283881  79.32 0.0003441144    1.466    0.318
        15 -15.3589      7.5501    238.0558   1.2681334510e+02   2.3082003718e+01     10.30971     1.344319 -78.08   0.03211349    7.819    0.872
        16  -9.9680     94.0079    220.9577   1.0920332221e+02   1.6297351825e+01    0.1917038    0.1693186  63.22 0.0006692638    1.011    0.011
        17 -10.8862    184.1880    215.6667   8.9828540586e+01   3.1516403496e+00    0.2286817    0.1904566 -19.69   0.00140345    1.197    0.165
        18 -12.2713     17.2297    217.3588   1.2398298230e+02   2.6189783100e+01    0.3394236    0.2783865 -70.88  0.002558366    1.376    0.273
        19 -10.8533    192.9908    193.4028   8.3985445326e+01   5.4808392913e+00    0.7328039    0.3848445 -52.88  0.003073671    2.688    0.628
        20 -11.7459     56.7155    181.0229   1.1256262945e+02   2.9873672060e+01     0.400628    0.2748972 -33.38  0.002112103    2.077    0.519
        21 -11.8408     62.5302    175.1778   1.1046150727e+02   3.0521454915e+01    0.3275817     0.253219 -48.30 0.0007699676    1.414    0.293
        22  -9.5748    137.8253    170.8308   9.1586911784e+01   1.9791476158e+01    0.2049765    0.1780056  71.32 0.0008839514    1.337    0.252
        23 -14.3981     10.2939    207.8808   1.2468741653e+02   2.8771427671e+01     1.167868    0.8420304 -82.60  0.003474252    1.197    0.165
        24 -11.3714     72.8801    164.9938   1.0648044823e+02   3.1590789111e+01    0.3516358    0.2651801 -82.92 0.0004379851    1.328    0.247
        25 -13.3721     59.7035    161.5503   1.0927702780e+02   3.4116145068e+01    0.5257604    0.2974349 -44.56   0.00152809    1.993    0.498
        26 -10.2546    235.0043    163.4917   6.9836735857e+01   3.4014457881e+00    0.1983056    0.1326557  37.37  0.001044039    1.623    0.384
        27  -9.1022    157.4057    160.2325   8.4829695799e+01   1.8413266472e+01    0.2041269    0.1412198 -55.55 0.0004355617    1.617    0.382
        28 -10.1543    134.0000    146.4897   8.7379970458e+01   2.5921539061e+01    0.6207489   0.09951773 -49.97  0.001277424    7.028    0.858
        29  -8.6211    137.3609    145.7087   8.6369843335e+01   2.5453525262e+01    0.1544269     0.122676  79.97 0.0007027935    1.696    0.411
        30 -10.7660     96.4695    143.0287   9.6383429843e+01   3.3401364039e+01    0.6033757    0.3769262 -23.18  0.002428912    2.485    0.598
        31 -11.8974     28.9830    143.6180   1.1473743209e+02   4.1741753490e+01    0.3491105    0.2837773 -36.55   0.00217799    1.449    0.310
        32 -12.1230     83.6541    142.5878   9.9770534767e+01   3.5500458975e+01    0.3157454    0.2483401 -51.70 0.0005167184    1.184    0.156
        33 -10.8026     75.3629    136.2827   1.0083339442e+02   3.8246331236e+01    0.3218685    0.1926273  65.97 0.0009318265    2.511    0.602
        34 -10.1590     74.4327    231.2591   1.1421768191e+02   1.6945841348e+01    0.3015917    0.1596488  54.43  0.001647022    1.743    0.426
        35 -10.6991    107.0152    131.7447   9.1049335270e+01   3.4324028239e+01    0.3770337    0.3667887  34.11  0.001301091    1.092    0.084
        36 -11.7266     67.0629    127.8770   1.0154192757e+02   4.1446829907e+01    0.5354655    0.2932056 -70.75  0.002277449    2.042    0.510
        37 -10.5224     94.9591    128.2647   9.3599997174e+01   3.7210967301e+01    0.3146321    0.2530832 -16.65  0.001312577    1.467    0.319
        38  -9.6071    159.0392    135.2751   7.8682799733e+01   2.3402308197e+01    0.2645943    0.2135007 -69.03 0.0007448597    1.549    0.354
        39  -9.7754    114.8242    125.7425   8.7487040679e+01   3.4323318096e+01    0.2573581     0.164774 -10.76 0.0009430038    2.722    0.633
        40  -9.6022    105.4286    120.1502   8.8704390149e+01   3.7343915024e+01    0.2235156    0.2027888   3.28 0.0003521701    1.188    0.158
        41 -10.5012     62.0132    235.5440   1.1697805048e+02   1.7694149902e+01     0.210091     0.152585 -88.37 0.0006261247    1.318    0.241
        42  -9.4751    168.1442    113.2172   7.0956053237e+01   2.6041280089e+01    0.2923767    0.1991477 -64.04   0.00120819    2.016    0.504
        43  -9.9379    205.1029    110.4662   6.2814168305e+01   1.8500970979e+01    0.3437482    0.2349288  31.34  0.001367797    1.738    0.424
        44 -12.9065     80.2560    158.5917   1.0357637814e+02   3.2105276932e+01     1.435273    0.8063726  62.78  0.001215331    2.462    0.594
        45  -9.4290    134.4868    103.0052   7.6191454680e+01   3.5476762778e+01    0.2448735    0.1490317 -41.25 0.0006351389    1.565    0.361
        46 -13.4385     68.1705    144.1526   1.0428465200e+02   3.7288032308e+01     1.092232     0.664606 -85.79  0.002433539    2.134    0.531
        47 -10.0828    161.0110     81.9909   6.3748567129e+01   3.3653426620e+01    0.2507497    0.1875176  10.86 0.0008785872    1.707    0.414
        48  -9.0748     24.7725     82.6135   1.0560144224e+02   5.6792722813e+01    0.1464144    0.1213073  33.79 0.0002197547    1.500    0.333
        49 -10.5104     13.1854     60.2400   1.0459752556e+02   6.2589766900e+01    0.2381134    0.1519622 -44.07 0.0005678511    1.199    0.166
        50  -9.4621     31.0033     53.8543   9.5229111821e+01   6.2497862462e+01    0.1703871    0.1633202 -40.05 0.0004959245    1.320    0.243
        51 -12.4446    198.0469     46.2384   4.7016030346e+01   3.0471345543e+01     1.270074    0.8319338  59.65  0.006487413    1.541    0.351
        52 -12.8442    206.4247     37.5211   4.3637617239e+01   2.9654876590e+01     0.671801    0.5391558 -50.40  0.002347852    1.166    0.142
        53 -13.0410     27.3301    209.2913   1.2152107028e+02   2.6860405607e+01     0.497696     0.321341 -52.66 0.0008291538    1.905    0.475
        54 -11.2603     53.0900    240.5583   1.1903053291e+02   1.7822081906e+01    0.3396325    0.1902768 -48.12  0.000941721    2.622    0.619
        55  -8.4809     30.2807     46.6740   9.3080552128e+01   6.3978644703e+01    0.1101945   0.09828793 -70.17  0.000418841    1.596    0.373
        56 -10.2321    132.2195     39.4291   5.6411364298e+01   4.7126449174e+01     0.274366    0.2248994 -62.45 0.0007508098    1.486    0.327
        57  -8.9122    133.2193     32.4048   5.3759452515e+01   4.7774541107e+01    0.1813387    0.1319138  72.63 0.0002318052    1.557    0.358
        58 -15.8017     36.9490    197.1803   1.1859541304e+02   2.8462244259e+01     7.555562      2.92247  80.49   0.02547696    4.911    0.796
        59  -9.7936    189.4859     15.1016   3.9718796767e+01   3.6165094162e+01    0.1836862    0.1250012 -29.40 0.0005437977    1.533    0.348
        60 -12.0240     40.8449    235.4005   1.2087166153e+02   2.0195017510e+01    0.2884117     0.218491  83.26 0.0005031845    1.133    0.117
