#   1 NUMBER                 Running object number                                     
#   2 MAG_AUTO               Kron-like elliptical aperture magnitude                    [mag]
#   3 X_IMAGE                Object position along x                                    [pixel]
#   4 Y_IMAGE                Object position along y                                    [pixel]
#   5 X_WORLD                Barycenter position along world x axis                     [deg]
#   6 Y_WORLD                Barycenter position along world y axis                     [deg]
#   7 A_WORLD                Profile RMS along major axis (world units)                 [deg]
#   8 B_WORLD                Profile RMS along minor axis (world units)                 [deg]
#   9 THETA_WORLD            Position angle (CCW/world-x)                               [deg]
#  10 FWHM_WORLD             FWHM assuming a gaussian core                              [deg]
#  11 ELONGATION             A_IMAGE/B_IMAGE                                           
#  12 ELLIPTICITY            1 - B_IMAGE/A_IMAGE                                       
         1 -13.3997    227.7392      7.1714   3.2801739106e+01   2.8183774531e+01     1.895711    0.9264445  53.87  0.009544386    2.514    0.602
         2 -13.1606    195.6221     42.1820   4.4379727160e+01   3.1390296524e+01     1.129941    0.9463655 -65.38   0.00367966    1.103    0.093
         3 -13.4550    203.8416     33.6984   4.1207307747e+01   3.0542031212e+01     1.082339    0.8799005 -24.16  0.001305984    1.446    0.308
         4 -11.4928    221.6903     29.6513   3.8360993072e+01   2.6941134892e+01    0.3664754    0.3046346  13.13  0.002107264    1.792    0.442
         5 -13.0834     41.9943      8.2924   6.8608435637e+01   6.9294399454e+01    0.9825794    0.5612274 -22.93  0.005780654    1.656    0.396
         6 -11.8071     60.3315      2.5741   5.8518381113e+01   6.6782782703e+01     0.476481    0.2338091  47.41  0.002550871    1.787    0.440
         7  -9.2506    189.6767     14.9978   3.8007640229e+01   3.6083409283e+01    0.1806644    0.1573843 -63.01 0.0006106174    1.108    0.097
         8 -11.4837    139.2892    248.7748   1.0087791356e+02   4.0277687950e+00    0.5128731    0.3474367  41.16  0.003095006    1.228    0.185
         9 -18.4654     18.0259    205.1228   1.2128990119e+02   2.9214700964e+01     13.95892      4.82569 -80.12   0.06306788    2.634    0.620
        10 -10.0622    187.5151    175.8875   7.8738073313e+01   9.0064394731e+00    0.3620975    0.3088885 -60.40  0.001159155    1.397    0.284
        11  -8.5272    148.5082    175.4881   8.7205798561e+01   1.6521196675e+01    0.2218743     0.180959 -88.79 0.0005347052    1.547    0.353
        12  -9.6040    146.6528    171.9717   8.6940366088e+01   1.7636550856e+01    0.2918577     0.251122 -85.60 0.0007014453    1.360    0.265
        13 -11.5869     49.8892    164.2841   1.0998199524e+02   3.5279012144e+01    0.6860029    0.3674907 -33.34  0.002698961    3.415    0.707
        14 -10.2665     45.1125    169.5008   1.1185123254e+02   3.4568280295e+01    0.3651921    0.2643182 -71.56 0.0009643558    1.229    0.186
        15 -11.1981    107.5756    203.7381   1.0149381188e+02   1.7657928710e+01    0.3559351    0.2523924 -70.05  0.001060345    1.523    0.344
        16 -12.1278    111.6176    204.4304   1.0068024615e+02   1.6849170900e+01    0.5055129    0.4272565 -81.14 0.0008657186    1.243    0.196
        17 -11.3466    203.9966    200.5138   8.0264008805e+01   1.6509959103e+00    0.4863203    0.3888119 -31.46  0.002867192    1.245    0.197
        18 -10.9611    241.2230    170.1192   6.7488429202e+01   5.4164962462e-01    0.3516756    0.2291588 -65.81  0.001510867    3.296    0.697
        19  -8.6194    193.5862    170.8104   7.6444238575e+01   8.8340899952e+00    0.1974795    0.1331998 -50.31 0.0008253633    1.624    0.384
        20  -9.5869    185.2822    169.0744   7.7786127607e+01   1.0750243601e+01    0.2615633    0.1989044 -56.19 0.0009411772    1.516    0.340
        21  -9.6871    136.0943    166.6284   8.8376125098e+01   2.0847587302e+01    0.4248513    0.2239954  58.66  0.001420889    2.669    0.625
        22  -8.8373    134.1978    163.3657   8.8176148596e+01   2.1950698543e+01    0.2542564    0.2175939  48.88 0.0007598497    1.164    0.141
        23 -11.0815    193.3173    195.5796   8.1440295315e+01   4.3216076324e+00     1.259686    0.6469279 -62.40  0.003781515    5.816    0.828
        24 -11.1585    234.0005    174.5083   6.9613897643e+01   1.0047261461e+00    0.5161405    0.1635419  34.60  0.001730954    4.243    0.764
        25 -11.1728     48.7146    171.5585   1.1120184417e+02   3.3642364992e+01    0.5958583    0.2836488 -43.19   0.00230037    3.012    0.668
        26 -11.5853     91.9689    151.5368   9.6714903679e+01   3.2424607226e+01    0.7138845    0.5447742 -15.82    0.0033808    1.856    0.461
        27 -10.6579    134.3092    147.8261   8.4836952388e+01   2.5493198936e+01    0.6460987    0.2896244 -56.38  0.002245382    2.557    0.609
        28 -10.8413    133.4799    142.4988   8.3842879982e+01   2.6890083789e+01    0.6971216    0.2790198 -57.48  0.002145026    3.265    0.694
        29  -8.9242    112.9713    150.9826   9.0997950691e+01   2.8870696322e+01    0.2486928    0.1848501  78.87 0.0007486879    1.694    0.410
        30  -9.3912    174.8493    149.1432   7.5642163477e+01   1.6861057286e+01    0.2310762    0.2080761 -77.11  0.000623029    1.279    0.218
        31 -10.1153    104.6940    137.8811   9.0419450356e+01   3.3559044085e+01    0.5235871    0.3487412 -23.95  0.001706994    2.208    0.547
        32 -10.3117    105.8689    130.8396   8.8498707685e+01   3.5048009339e+01    0.3975282    0.3267101 -65.06  0.001105528    1.226    0.184
        33  -9.1340     95.1611    203.7158   1.0430455411e+02   1.9638886738e+01    0.4308155     0.260671 -29.46  0.001780648    3.148    0.682
        34 -11.6941     92.2349    137.5421   9.3827140030e+01   3.5835428888e+01    0.2958896    0.2659983 -40.42 0.0004605773    1.164    0.141
        35 -10.4908    135.7910    127.8575   7.9762126857e+01   2.9771777045e+01    0.5867519    0.2017165 -49.53  0.001814097    2.963    0.663
        36 -10.5176    113.1530    128.9834   8.6040641731e+01   3.4109058589e+01    0.4712178    0.3780743 -12.89  0.001249384    1.589    0.371
        37 -11.0266    119.3740    123.4114   8.2975496721e+01   3.4191632066e+01    0.4665506    0.3712336  23.18   0.00193764    1.461    0.315
        38  -9.3873     91.1611    183.2204   1.0231850546e+02   2.4908631075e+01    0.2579701    0.1935574 -71.68 0.0006459384    1.325    0.245
        39 -10.3165    100.2996    124.8805   8.8677191430e+01   3.7511685648e+01    0.3019514    0.2443136 -24.59 0.0005346744    1.441    0.306
        40 -10.3640    134.8954    119.1483   7.7781961385e+01   3.1928345592e+01    0.6478818    0.1431041 -43.80  0.001607193    4.539    0.780
        41  -9.4117    134.6636    106.3326   7.4415776101e+01   3.4800303879e+01    0.2993446    0.1529825 -53.09  0.001094787    2.168    0.539
        42  -9.3883    135.3733    102.7719   7.3245723367e+01   3.5405609465e+01    0.3612293    0.2626237 -43.95    0.0014005    1.345    0.257
        43  -9.2539    108.8380    118.1919   8.4588947093e+01   3.7499231342e+01    0.2206255    0.2047223 -89.89 0.0003425016    1.143    0.125
        44  -9.8698    231.3445    113.7542   5.6849132880e+01   1.1956506348e+01    0.2520643    0.2373453 -40.01  0.000781948    1.072    0.067
        45  -8.8156    168.0200    112.9784   6.8301185102e+01   2.5860309522e+01    0.2658828    0.1942884 -78.41  0.001139123    1.883    0.469
        46 -11.7646    117.5660    107.8727   7.9413613287e+01   3.8123999377e+01    0.8408455    0.6804536 -45.02  0.004122364    1.198    0.166
        47  -9.5395    205.3817    110.2666   6.0284895510e+01   1.8000344088e+01    0.3349146    0.2258643  37.84  0.001316477    1.748    0.428
        48 -15.1542     72.0107    148.1247   1.0156783427e+02   3.6374818418e+01     6.577778     3.322243  77.14   0.01052828    5.013    0.801
        49  -8.2353    142.2792    108.7173   7.3147373715e+01   3.2593208566e+01    0.1528783    0.1240526 -82.33  0.000251247    1.511    0.338
        50 -10.5430     99.2823    180.8476   9.9966971062e+01   2.4154663894e+01    0.2913786    0.2439201  35.18 0.0005888779    1.259    0.205
        51 -11.2767    121.3229    196.7500   9.7295544217e+01   1.6863653924e+01    0.4931604    0.2537797 -68.89 0.0009891178    2.720    0.632
        52 -10.2313    120.0460    186.2637   9.5864848993e+01   1.9381415370e+01    0.2015644    0.1786181  52.13 0.0002422479    1.074    0.069
        53 -12.2303    112.1862    196.7161   9.9394621089e+01   1.8419977968e+01    0.7630762    0.5125505   4.92  0.003280392    2.662    0.624
        54  -9.3404     81.9087    195.3564   1.0623582285e+02   2.3522129494e+01    0.2826699    0.2030794 -31.83  0.001424192    2.047    0.511
        55 -10.0964     59.7573     97.3460   9.4645213847e+01   5.0601922069e+01    0.2820957    0.2217824  75.51  0.001157736    1.660    0.398
        56  -8.7803    157.3785     82.7763   6.2314236168e+01   3.4265189841e+01    0.2109506    0.1461516 -28.18 0.0005230517    1.585    0.369
        57  -8.4228    184.5223     77.4635   5.5517941783e+01   2.8674607919e+01    0.1458503    0.1419349 -60.44 7.758279e-05    1.058    0.055
        58  -9.8395    147.9415    187.0057   8.9527567165e+01   1.4185615223e+01    0.3358356    0.2102034 -40.42  0.001426489    1.726    0.421
        59  -8.1685     73.3231    199.2401   1.0870373612e+02   2.3885632578e+01    0.1166548    0.1053559 -11.53 -0.0001541599    1.522    0.343
        60 -12.8787    183.6902     51.7053   4.8618331358e+01   3.2951107134e+01    0.8889881    0.8376896 -26.26 0.0008980918    1.189    0.159
        61  -9.4455    168.2485    233.2812   9.2955109668e+01   2.0370799431e+00    0.2438912    0.1919401  43.88  0.001050819    1.245    0.197
        62 -10.6833    184.3774    212.5772   8.6333065517e+01   2.8786866406e+00    0.3012077    0.2164496 -35.71  0.001681337    1.456    0.313
        63  -9.8380     89.8106    212.2711   1.0659998396e+02   1.8610651832e+01     0.253577    0.2005951  81.70 0.0005901882    1.247    0.198
        64 -10.4060    164.0241    211.9727   9.0414664748e+01   6.4303016095e+00    0.2122822    0.1939272  24.10  0.001298671    1.013    0.013
        65 -11.2299    104.6638    210.8909   1.0314328611e+02   1.6605270022e+01    0.4601572    0.2847217 -60.42  0.002361517    1.720    0.419
