#   1 NUMBER                 Running object number                                     
#   2 MAG_AUTO               Kron-like elliptical aperture magnitude                    [mag]
#   3 X_IMAGE                Object position along x                                    [pixel]
#   4 Y_IMAGE                Object position along y                                    [pixel]
#   5 X_WORLD                Barycenter position along world x axis                     [deg]
#   6 Y_WORLD                Barycenter position along world y axis                     [deg]
#   7 A_WORLD                Profile RMS along major axis (world units)                 [deg]
#   8 B_WORLD                Profile RMS along minor axis (world units)                 [deg]
#   9 THETA_WORLD            Position angle (CCW/world-x)                               [deg]
#  10 FWHM_WORLD             FWHM assuming a gaussian core                              [deg]
#  11 ELONGATION             A_IMAGE/B_IMAGE                                           
#  12 ELLIPTICITY            1 - B_IMAGE/A_IMAGE                                       
         1 -15.9240    192.0658    170.6329   2.7429267972e+01   1.1987285665e+01     5.106175     3.589896 -43.07   0.02282338    1.425    0.298
         2 -16.2822    230.0215    162.8203   1.9710553756e+01   8.0916589084e+00     3.252164     2.059947 -58.96   0.01673197    2.956    0.662
         3 -17.9082    246.1851    140.7767   1.3361662700e+01   9.2218493989e+00     9.065682     1.154068 -38.58   0.02695563    5.751    0.826
         4 -16.1166    232.8150    110.2580   9.0205655215e+00   1.5578191868e+01     3.369195     1.191603  43.80   0.01473322    3.818    0.738
         5  -7.6605    174.7243    224.0264   3.9659088859e+01   5.5717895782e+00    0.1615909    0.1303391 -12.75  0.000400618    1.110    0.099
         6  -9.4218    245.0691    234.8314   2.9311595545e+01  -3.0622513710e+00    0.3546501    0.2550879 -52.79  0.002246494    3.430    0.708
         7 -10.0982    248.5951    248.8640   3.0788824684e+01  -4.9285449973e+00    0.4350734    0.1965137  33.46  0.002778742    2.814    0.645
         8 -10.3270    249.5274    244.0620   2.9979382978e+01  -4.4808046112e+00    0.8430164    0.3500738  -5.09     0.004127    3.658    0.727
         9  -9.4336    202.1108    217.6788   3.3659366980e+01   3.3837667788e+00    0.3579667    0.2268269  32.58  0.002073546    1.724    0.420
        10 -10.7186    211.7605    219.9475   3.2350508678e+01   2.0208470847e+00    0.2563469    0.2078819  -2.84 0.0003744421    1.171    0.146
        11 -10.2945    216.0253    229.3900   3.3065465469e+01   3.2634661113e-01    0.3173945    0.2147195  14.82 0.0003425883    1.309    0.236
        12  -9.4817    218.9411    226.1368   3.2098514933e+01   4.5541979897e-01    0.4323486    0.3117732 -54.39  0.002716977    2.716    0.632
        13  -7.8580    196.9194    247.1508   3.8856144820e+01  -5.8627704746e-02    0.1498549    0.1216348   4.78 0.0004081185    1.240    0.194
        14  -8.0722    150.5134    201.0193   4.1076816722e+01   1.2451406424e+01    0.2302565    0.2051794  53.81  0.001007757    1.466    0.318
        15 -15.5966    230.3462    100.3534   7.2545829174e+00   1.7432899203e+01      1.82364      1.43573 -36.04  0.009278839    1.034    0.033
        16 -10.0634    160.9806    201.6108   3.8960227015e+01   1.0941968451e+01    0.3757491    0.2212459 -44.73  0.001606568    1.750    0.429
        17  -9.1907    138.6621    199.1593   4.3391519159e+01   1.4415550739e+01    0.2816265    0.2688096  76.68  0.001807195    1.349    0.259
        18  -8.7768    140.9872    194.6729   4.2158662081e+01   1.4945937443e+01    0.2229456    0.1962265 -48.08 0.0003181552    1.282    0.220
        19  -8.1176    210.4558    239.4075   3.5453204420e+01  -4.0592921906e-01    0.1944409   0.09098367 -36.63 0.0006397199    2.025    0.506
        20  -8.5845    156.7990    195.5979   3.8857307174e+01   1.2573084491e+01    0.2346684    0.2178388 -51.88  0.001015755    1.352    0.260
        21  -9.1512    154.1874    192.1310   3.8838818355e+01   1.3567722646e+01    0.3535069    0.2170673 -49.98 0.0003564457    1.781    0.439
        22  -9.2038    147.2505    194.4339   4.0727682837e+01   1.4112670205e+01     0.284618    0.1780402 -42.35  0.001498938    1.605    0.377
        23  -9.1522    148.4920    187.3304   3.9269913550e+01   1.5278373799e+01     0.250343    0.2018235  14.42 0.0009817079    1.168    0.144
        24  -9.5168    134.2058    183.0168   4.1790713407e+01   1.8222000960e+01    0.4540552    0.1860217 -54.62  0.001773223    2.785    0.641
        25  -9.7689    137.6710    178.9569   4.0280432405e+01   1.8526288507e+01    0.3179047    0.2178407  39.37  0.001035193    1.486    0.327
        26  -9.0532    169.5977    215.8310   3.9436489885e+01   7.4654264601e+00    0.3126507    0.2048688 -54.74  0.001417562    2.113    0.527
        27  -7.3958    175.4518    216.4971   3.8392598889e+01   6.6488256268e+00    0.1209486   0.09907448  -1.20 5.504189e-05    1.028    0.027
        28 -10.3136    177.3604    212.2708   3.7372483873e+01   7.0822141551e+00    0.3763838      0.31107 -16.57  0.002568217    1.120    0.107
        29 -10.5037    138.2428    162.8631   3.7190003085e+01   2.1761772198e+01     0.387307    0.3120148 -27.63  0.002096463    1.239    0.193
        30 -10.6460    142.0815    168.5695   3.7372584968e+01   1.9961730481e+01    0.3864792    0.3267262 -74.24  0.001743378    1.534    0.348
        31  -9.5539    137.8363    170.9422   3.8804973836e+01   2.0142673547e+01    0.2506005     0.201795  25.50 0.0008720166    1.214    0.177
        32  -8.3196    106.2403    215.8823   5.3223023311e+01   1.5491534198e+01    0.1863956    0.1619259  44.77 0.0005179284    1.193    0.162
        33  -7.5397    101.3015    171.3417   4.8112203731e+01   2.5705616946e+01    0.1492471    0.1087227 -21.17 0.0007037949    1.675    0.403
        34  -8.8325    129.6915    167.5717   4.0140830298e+01   2.2140034907e+01    0.2344034    0.1828507 -78.45 0.0007015466    1.744    0.427
        35  -8.9834    119.3237    164.1461   4.2109532841e+01   2.4546555992e+01    0.2938231    0.1163839 -45.32  0.001075656    2.568    0.611
        36  -8.6867    133.0180    161.7046   3.8222962338e+01   2.2860611596e+01     0.199149    0.1836369   9.85 0.0004021576    1.053    0.050
        37  -8.6438    130.1763    158.2322   3.8246921003e+01   2.4079324414e+01     0.193875    0.1734657  73.96 0.0005553793    1.353    0.261
        38  -8.4867    185.1184    214.1970   3.6197481885e+01   5.8482233356e+00    0.3012318    0.1993336  46.72  0.001715335    2.279    0.561
        39  -7.6642    120.2995    157.3360   4.0574051689e+01   2.5915877261e+01    0.1516212    0.1112223 -17.28 0.0007033868    1.657    0.396
        40  -9.0069    205.5835    213.1603   3.2347652444e+01   3.6397789708e+00    0.3069237    0.2075208  38.24   0.00192502    1.909    0.476
        41 -10.0897    137.4661    152.1206   3.5242904415e+01   2.4169639767e+01    0.2925168    0.2573317 -39.63  0.001619328    1.106    0.096
        42  -9.1512    129.0164    151.7704   3.7247970111e+01   2.5690990403e+01    0.2649066    0.1884553 -63.97   0.00094877    1.667    0.400
        43  -7.8944    194.6691    239.3196   3.8169860344e+01   1.1949219270e+00    0.1704874    0.1259042 -39.66 0.0007394389    1.663    0.399
        44  -9.1761    124.2171    142.6554   3.6573802821e+01   2.8562474628e+01    0.2649484    0.2152597 -43.95  0.001174266    1.203    0.169
        45 -10.5944    137.3652    136.8516   3.2001872516e+01   2.7474096771e+01    0.5459934    0.3354757 -32.07   0.00238678    1.814    0.449
        46  -7.9750    115.0385    138.5046   3.8124704019e+01   3.1147708462e+01    0.2317061    0.1491734  35.44 0.0009009899    1.583    0.368
        47 -10.7061    128.4128    127.9625   3.2199046532e+01   3.1092220402e+01    0.5941792    0.3059279 -39.25 0.0008321304    2.028    0.507
        48 -15.6446    224.3815    121.7560   1.2485625703e+01   1.5137369404e+01      1.27743     1.109781  83.68  0.008299197    1.601    0.375
        49  -9.7872    136.9139    125.3415   2.9458690833e+01   3.0042282390e+01    0.2985036    0.2087476 -38.42 0.0008360307    1.403    0.287
        50  -7.7550    148.6172    120.7091   2.5611957448e+01   2.8749992425e+01    0.1513061    0.1147415   1.05 0.0007016084    1.750    0.429
        51  -7.4837    134.5671    224.2490   4.7910422758e+01   1.0390036520e+01    0.1621314    0.1098631 -33.35 0.0005156759    1.564    0.361
        52  -9.5757    133.8755    115.2554   2.7735325435e+01   3.2807806506e+01    0.2804697    0.2177011  19.64  0.001347365    1.561    0.359
        53  -9.9240    141.3867    104.0866   2.3064322740e+01   3.3609067936e+01    0.4875507    0.1924707 -39.68  0.001716081    2.513    0.602
        54 -10.2800    133.2959    108.4534   2.6135471152e+01   3.4376934592e+01    0.5982509    0.3880738  -7.18 0.0002339487    2.972    0.664
        55 -16.4326    243.7732    173.7930   1.9699986372e+01   4.8597616095e+00     3.009344     1.820892 -10.57   0.01871802    1.696    0.410
        56 -16.3915    232.6799    145.8797   1.6138966563e+01   1.0265331820e+01       2.0514    0.6285543 -41.47  0.008708137    2.749    0.636
        57  -9.1594    150.4958    100.4841   2.0097401138e+01   3.2422996173e+01     0.285068    0.2371622 -64.49  0.001269602    1.277    0.217
        58  -9.7310    152.1326     97.0510   1.8845444870e+01   3.2741859186e+01    0.3720183    0.2907069  -7.15   0.00182868    1.673    0.402
        59  -9.8151    159.9318    100.5993   1.8187503362e+01   3.0441104434e+01    0.6393456    0.2744242 -34.14  0.002367788    2.508    0.601
        60 -10.1859    169.5092     95.7984   1.5141352265e+01   2.9355325389e+01    0.5114504    0.3713751 -17.68  0.001430533    1.686    0.407
        61  -9.8472    169.1652     90.8287   1.3926838114e+01   3.0310454518e+01    0.2482293    0.2314688 -86.86 0.0002701377    1.143    0.125
        62 -10.2515    167.5636    201.7450   3.7634556006e+01   1.0049454984e+01    0.7576996      0.25496 -52.31  0.002698008    4.378    0.772
        63  -7.7592    131.3543     91.8363   2.2080673757e+01   3.8235981427e+01    0.2196151    0.1376439 -33.60 0.0007649699    1.710    0.415
        64  -9.7733    157.3899     89.1600   1.5675720564e+01   3.3098382860e+01    0.4235792    0.3575773 -50.15  0.001170981    1.101    0.092
        65  -8.9572    142.4675     88.6799   1.8624264631e+01   3.6427386570e+01    0.3573236     0.142784 -37.71  0.001023449    2.510    0.602
        66  -8.1107    150.5956     87.2377   1.6503394144e+01   3.4921640947e+01    0.2369817    0.2172934 -51.18 0.0005168222    1.013    0.013
        67  -7.7398    215.8216    236.1420   3.4089110847e+01  -5.1717255287e-01    0.1509033   0.09451097 -10.19 0.0004285343    1.308    0.235
        68  -8.3394    184.4419     81.7916   9.1113357146e+00   2.8691899720e+01    0.2862274    0.2623057  40.85  0.001005232    1.286    0.222
        69  -8.2863    186.5510     78.2657   7.9121750978e+00   2.8828203909e+01    0.4042696    0.2382344  67.16  0.001132606    2.021    0.505
        70  -9.7845    175.2673     74.3631   8.5986941197e+00   3.1807660836e+01    0.2562584    0.2168881 -48.71 0.0003439096    1.047    0.045
        71  -8.8690    183.6441     74.6780   7.4231984861e+00   2.9994439718e+01    0.2485296    0.2415394  15.25  0.000536271    1.226    0.184
        72  -8.8593    179.8793     72.0408   7.2921763319e+00   3.1198719864e+01    0.2839294    0.2193699 -29.14  0.000380062    1.323    0.244
        73  -8.4222    157.8092     80.5146   1.3236990676e+01   3.4555341591e+01    0.3343682    0.1889011 -42.96  0.001504575    1.621    0.383
        74  -7.9708    157.0137     75.7643   1.2060776358e+01   3.5555567151e+01    0.2563856    0.1884626 -31.03 0.0006118865    1.396    0.284
        75  -8.6443    130.0665     78.4016   1.8441115553e+01   4.1159926702e+01    0.2718371    0.2038856 -30.81  0.001077101    1.425    0.298
        76  -7.5015    206.4616     77.4764   5.0589099479e+00   2.5030168152e+01    0.1306919    0.1083945 -45.10 0.0004141851    1.009    0.009
        77  -8.4801    150.1990     76.9308   1.3681573288e+01   3.6875039154e+01    0.2273911    0.2123951  73.10 0.0004305838    1.116    0.104
        78  -7.4636    197.2938     76.3352   5.9523521203e+00   2.6974774440e+01    0.1254809     0.101363  -2.02 0.0004405373    1.642    0.391
        79  -8.2161    150.6255    205.4452   4.1745558345e+01   1.1642142460e+01    0.3144742    0.1858278 -57.68  0.001575679    2.264    0.558
        80  -7.5512    201.5926     74.1587   4.8757202315e+00   2.6461900072e+01    0.1810012    0.1139327 -26.17 0.0005063396    1.680    0.405
        81  -7.8839    189.6575     74.1932   6.4505526323e+00   2.8833831082e+01    0.1963817    0.1678955 -23.83 0.0003130165    1.269    0.212
        82  -9.1609    193.3671     72.2628   5.4696197280e+00   2.8378020563e+01    0.2681415    0.1965209 -42.24 0.0003063117    1.167    0.143
        83 -15.7784    240.0444    123.2159   1.0743707635e+01   1.2596674212e+01    0.7569844    0.6313413  39.13  0.005427909    1.527    0.345
        84  -8.0442    200.5180     66.9363   3.2633482740e+00   2.7739125204e+01    0.1776147    0.1609849 -62.88 0.0003802321    1.106    0.096
        85  -7.9840    204.1452     64.3701   2.2199069633e+00   2.7392622631e+01    0.2662561     0.195233 -22.03  0.001291652    1.532    0.347
        86  -7.1117    182.2804     66.3249   5.4588312232e+00   3.1574704281e+01    0.1264285     0.105753   3.04 0.0006826952    1.593    0.372
        87  -8.5139    212.7052     65.2526   1.4823799013e+00   2.5616889831e+01    0.2210938    0.2087529  -3.19  0.001029749    1.332    0.249
        88  -7.2605    184.0253     60.0967   3.5994075209e+00   3.2132307584e+01    0.1562218    0.1350729 -53.78 0.0003480398    1.007    0.007
        89  -8.2531    215.4649     55.9895   3.5905358981e+02   2.6361084055e+01     0.175164    0.1457002 -56.55  0.000327212    1.069    0.064
        90  -7.3874    184.8716     55.7738   2.3625801098e+00   3.2575192922e+01    0.1809437    0.1313353 -58.32 0.0004613306    1.267    0.211
        91  -8.1003    212.2706     52.8851   3.5863994315e+02   2.7386327040e+01     0.189843     0.150131 -74.48 0.0004688395    1.262    0.208
        92  -7.5969    210.8639     46.3868   3.5724416725e+02   2.8507672033e+01    0.1513317    0.1116339  60.11 0.0007244609    1.622    0.383
        93 -15.4338    216.2784    136.8327   1.6736358218e+01   1.4004464082e+01     1.487323     1.141393 -83.66   0.00841378    2.308    0.567
