#   1 NUMBER                 Running object number                                     
#   2 MAG_AUTO               Kron-like elliptical aperture magnitude                    [mag]
#   3 X_IMAGE                Object position along x                                    [pixel]
#   4 Y_IMAGE                Object position along y                                    [pixel]
#   5 X_WORLD                Barycenter position along world x axis                     [deg]
#   6 Y_WORLD                Barycenter position along world y axis                     [deg]
#   7 A_WORLD                Profile RMS along major axis (world units)                 [deg]
#   8 B_WORLD                Profile RMS along minor axis (world units)                 [deg]
#   9 THETA_WORLD            Position angle (CCW/world-x)                               [deg]
#  10 FWHM_WORLD             FWHM assuming a gaussian core                              [deg]
#  11 ELONGATION             A_IMAGE/B_IMAGE                                           
#  12 ELLIPTICITY            1 - B_IMAGE/A_IMAGE                                       
         1 -12.1634    197.6709     42.8860   4.2592946731e+01   3.0716360264e+01     0.922858    0.8212603 -63.39  0.003292449    1.057    0.054
         2 -12.2799    206.7000     33.8625   3.9311555331e+01   2.9814519753e+01    0.6666473    0.6590337  55.39  0.001328402    1.260    0.206
         3 -11.4302     31.7592     25.4427   8.0294252107e+01   6.7942503611e+01    0.4826934    0.3044925 -54.16  0.002566852    2.524    0.604
         4 -11.7201     33.5159     15.6454   7.4880170983e+01   6.9119105996e+01    0.4463778    0.2412507 -19.00  0.002436369    1.862    0.463
         5 -11.9391    229.8438      6.2899   3.1103137704e+01   2.7929032361e+01    0.7034439    0.6058934  48.72   0.00444156    1.580    0.367
         6 -11.2161    234.1305      9.4868   3.1453868067e+01   2.6698023700e+01    0.5382684    0.4351316  24.40  0.002850948    2.024    0.506
         7  -9.1913     45.3199     11.9752   6.7700314017e+01   6.7868591218e+01    0.1779975   0.08531248 -47.41  0.000543528    4.354    0.770
         8 -11.0201     30.0780      3.7535   7.0482121727e+01   7.1047554178e+01    0.5094709    0.2757324 -12.59   0.00289355    1.883    0.469
         9 -10.0062    127.1333    210.2955   9.6223211364e+01   1.2585534746e+01    0.3111927     0.214123  13.00  0.001502254    1.880    0.468
        10  -9.1228    139.3362    249.6631   9.9170617510e+01   3.3049280127e+00    0.1944305    0.1369934  59.64  0.001112277    1.707    0.414
        11  -9.0176    107.6614    250.0647   1.0565852775e+02   7.9138220548e+00    0.1662395    0.1487287  47.69 0.0007104983    1.075    0.070
        12  -9.5292     72.0669    250.1731   1.1278418860e+02   1.2827884227e+01    0.2081185    0.1405813  47.49 0.0005033878    1.215    0.177
        13  -9.9027     72.5001    245.4317   1.1227613283e+02   1.3669585661e+01     0.453185    0.2743618  66.35   0.00185738    1.664    0.399
        14 -17.1012      8.8363    245.5627   1.2431494544e+02   2.1001906962e+01     14.12664     4.182912 -78.05   0.01701564    3.087    0.676
        15 -10.1362    121.9113    198.2100   9.5517283140e+01   1.6012046096e+01    0.3817333    0.2799305 -88.93  0.001470792    1.814    0.449
        16  -8.2348     89.0659    210.8152   1.0499646980e+02   1.8455897656e+01    0.2004714    0.1612763  69.91 0.0006492611    1.221    0.181
        17  -9.7088     65.7579    179.2912   1.0645386888e+02   2.9063996486e+01    0.2763735    0.2497819  87.16 0.0006122065    1.006    0.006
        18 -11.9486     57.2703    185.2372   1.0933380581e+02   2.8734813646e+01     0.757761    0.6851423  76.42  0.002986379    1.045    0.043
        19  -9.1843    147.3920    188.0211   8.7762559554e+01   1.3759905272e+01    0.3923191     0.251062 -79.99   0.00150146    3.039    0.671
        20  -9.0606     50.4990    181.4357   1.1054462513e+02   3.0484195916e+01    0.2340272    0.1853127  55.81 0.0006094908    1.219    0.180
        21  -9.8698    193.1394    195.2604   7.9134884682e+01   4.2819838181e+00    0.5636936    0.3105846 -64.68  0.001731618    5.580    0.821
        22  -7.7525     79.6271    183.1967   1.0350630592e+02   2.6177680835e+01    0.1933765    0.1233193 -54.77 0.0009341029    1.575    0.365
        23  -9.5248     60.4341    198.1838   1.1009662964e+02   2.5281680015e+01    0.2315947    0.1971029  66.64 0.0003383914    1.058    0.055
        24  -9.0677    111.5109    197.4896   9.7864819056e+01   1.7896746820e+01      0.25473    0.1369818  24.50  0.001033842    2.341    0.573
        25  -8.7819     99.1635    180.8265   9.8218865191e+01   2.3733155598e+01    0.2208382    0.1901181  70.31 0.0007316119    1.184    0.156
        26  -9.4951     43.0130    179.9921   1.1222402872e+02   3.1705900551e+01    0.1940622    0.1487415 -41.61 0.0003310995    1.594    0.373
        27  -8.5965     46.2912    176.9270   1.1105845064e+02   3.2073935717e+01    0.2295214    0.1638391  52.74 0.0006125286    1.376    0.273
        28  -9.4074    186.7989    175.1077   7.6442893836e+01   9.1925827745e+00    0.3351884    0.2999153 -60.53  0.001173924    1.343    0.255
        29 -15.6101      2.6820    214.3849   1.2387181967e+02   2.7885259805e+01     10.82683          nan -71.15   0.02520284    9.455    0.894
        30 -10.0630     70.4599    171.7807   1.0417800417e+02   3.0259176667e+01     0.296532    0.2490496 -53.67 0.0006833784    1.226    0.184
        31 -11.0041     74.6505    167.4132   1.0240535052e+02   3.0746157581e+01    0.5884275    0.3826744 -42.90  0.001540644    1.735    0.423
        32 -10.2253     99.1938    169.8230   9.6334712826e+01   2.6360303360e+01    0.4624637    0.2223826  30.11   0.00178356    2.355    0.575
        33 -11.7233     83.2084    159.4977   9.8779469059e+01   3.1444350361e+01      1.28096    0.7227796  66.04  0.004917609    2.652    0.623
        34 -11.8970     71.8444    153.2837   1.0084158040e+02   3.4679730750e+01    0.4948138    0.4766461  15.57  0.001042569    1.166    0.142
        35 -12.8413     68.9210    144.1288   1.0005459186e+02   3.7403756000e+01     1.902314     1.075737  79.42  0.003567267    3.164    0.684
        36  -9.0637     32.7919    165.1253   1.1312038287e+02   3.6432626817e+01     0.227667    0.1928815  75.65 0.0008645669    1.110    0.099
        37  -9.9206     32.8711    155.9726   1.1201499913e+02   3.8694745126e+01    0.4522984    0.1774971 -62.48  0.001937483    2.112    0.526
        38 -10.6280     90.2864    151.7826   9.5406483085e+01   3.2251306466e+01    0.6818994    0.4453603 -26.73  0.001788758    2.157    0.536
        39 -10.1213    134.2975    147.1083   8.2576027767e+01   2.5386405820e+01    0.8475712     0.222767 -51.28   0.00226754    4.115    0.757
        40  -8.4299     40.1809    146.8149   1.0877698443e+02   4.0244938648e+01    0.2125053    0.1715503  77.05 0.0006119648    1.252    0.201
        41  -9.5512    103.2077    138.4896   8.9019994393e+01   3.3336638583e+01    0.5394294     0.338958 -24.23  0.002097904    2.371    0.578
        42 -10.6577     91.1134    137.5144   9.2275393153e+01   3.5666719378e+01    0.3073477    0.2693201 -34.96 0.0004609099    1.185    0.156
        43  -9.3413    105.9074    130.9191   8.6527652804e+01   3.4687865410e+01      0.35811    0.3194166 -47.74  0.001117217    1.083    0.077
        44  -8.3412    110.4899    168.4541   9.3150353802e+01   2.4774288800e+01    0.1460453    0.1454659  87.43  0.000511858    1.032    0.031
        45  -9.8755     33.7507    131.5158   1.0839041852e+02   4.4752836924e+01    0.3447838    0.2762094  40.10  0.002015548    1.398    0.285
        46 -10.0362     43.7250    129.9506   1.0508895215e+02   4.4128702630e+01    0.3177721    0.2235522  56.79  0.001002764    1.633    0.387
        47 -10.0318    112.1280    128.9187   8.4288829339e+01   3.4001217175e+01     0.372646    0.2826767   5.48 0.0007704772    1.731    0.422
        48  -8.3397    161.6609    127.3286   7.1173776636e+01   2.4119836536e+01    0.1600879    0.1254465 -84.56 0.0007051761    1.735    0.424
        49  -7.8731     92.9367    125.4707   8.9042236564e+01   3.8326566567e+01    0.2027122     0.127417  61.63 0.0008012488    2.221    0.550
        50 -10.2442     53.9546    148.9973   1.0518976982e+02   3.8125827015e+01     0.363368    0.2790519 -68.58  0.001420873    1.176    0.150
        51  -9.4153     99.5671    124.8355   8.6924341876e+01   3.7313215220e+01    0.2986552    0.2543627   1.47 0.0007595665    1.356    0.262
        52 -10.1905     54.0111    118.0116   9.9586596583e+01   4.5941341017e+01    0.3798117    0.1973508 -75.11  0.001488005    2.492    0.599
        53  -8.5065    108.1646    118.1594   8.2759193454e+01   3.7306992985e+01    0.2300803    0.2037542 -16.91 0.0004661745    1.208    0.172
        54  -9.2567    231.7745    113.8259   5.4612400079e+01   1.2106340466e+01    0.2796208    0.2274234  70.76  0.001054656    1.491    0.329
        55  -8.2846    142.3366    208.2993   9.2470374441e+01   1.0456104576e+01    0.1411386    0.1064705  -1.15 0.0002037131    1.658    0.397
        56 -11.3603     43.0351    109.7029   1.0151986371e+02   4.9258247645e+01    0.5399206     0.382108 -42.08  0.002677567    1.334    0.250
        57  -8.4592    205.5035    110.2311   5.8069371157e+01   1.8049327827e+01    0.2620309    0.2085688  52.89  0.001050293    1.369    0.270
        58  -9.8410    115.1182    109.7983   7.8568432620e+01   3.7866091136e+01    0.3133472    0.2003811 -23.70   0.00105557    2.099    0.524
        59 -10.3283     51.7680    108.6543   9.8340653021e+01   4.8522883157e+01    0.3435496    0.2439503 -36.92  0.001154393    1.404    0.288
        60 -10.3938     33.3897     99.9413   1.0284379612e+02   5.2602503320e+01    0.3489148    0.2137733 -65.48   0.00177026    1.503    0.335
        61  -9.7637     51.9975     93.4809   9.4679098722e+01   5.2126768989e+01    0.2627222    0.1989874 -74.22  0.001269416    1.552    0.356
        62  -9.1695    155.8314     88.1793   6.2127315084e+01   3.3375751678e+01    0.3903787    0.2656148 -77.16  0.001352422    2.240    0.554
        63  -8.3627     75.0448     85.0292   8.4146338292e+01   5.0752952850e+01    0.2122235    0.2035868 -21.52 0.0005923441    1.074    0.069
        64  -9.0953    128.4237     95.9247   7.1025552045e+01   3.8074158411e+01    0.2966764     0.221447  65.79 0.0009714408    1.629    0.386
        65 -11.6869    186.1600     51.9352   4.6509738632e+01   3.2163044681e+01    0.6206613     0.512456  39.28  0.001452805    1.419    0.295
        66 -11.0602    119.4542    244.3783   1.0258142967e+02   7.2018765580e+00    0.3364331    0.2754526  82.52  0.002107063    1.450    0.310
        67  -9.6365    101.3475    242.2996   1.0608523420e+02   1.0253708434e+01    0.3124316    0.1135073 -57.91  0.001353027    3.063    0.673
        68  -9.1443     31.9287    203.5158   1.1708000368e+02   2.7422743581e+01    0.3078795    0.1980365  83.58  0.001781836    1.412    0.292
        69  -9.4858    110.8923    203.1863   9.8883672327e+01   1.6745121077e+01    0.2144313    0.1785729  64.86 0.0006069378    1.234    0.189
        70  -8.1886     83.6000    244.8318   1.0998761896e+02   1.2285091759e+01    0.1671459    0.1096458 -88.65 0.0009535679    1.767    0.434
        71  -8.1146    168.4074    233.2278   9.0858713475e+01   1.6280562863e+00    0.1540882    0.1269068 -57.26 0.0004679691    1.569    0.363
        72 -10.5373    153.0089    227.8790   9.3249565882e+01   4.9819675347e+00    0.6251239    0.2580678  28.84  0.002471609    2.664    0.625
        73  -9.8287    118.8537    215.8714   9.8925784342e+01   1.2783749984e+01     0.313124    0.1882536  32.10  0.001331396    1.612    0.380
        74  -9.5740    119.3925    212.1880   9.8266475063e+01   1.3456612079e+01    0.3014179    0.1895377 -70.08  0.001061204    2.003    0.501
