#   1 NUMBER                 Running object number                                     
#   2 MAG_AUTO               Kron-like elliptical aperture magnitude                    [mag]
#   3 X_IMAGE                Object position along x                                    [pixel]
#   4 Y_IMAGE                Object position along y                                    [pixel]
#   5 X_WORLD                Barycenter position along world x axis                     [deg]
#   6 Y_WORLD                Barycenter position along world y axis                     [deg]
#   7 A_WORLD                Profile RMS along major axis (world units)                 [deg]
#   8 B_WORLD                Profile RMS along minor axis (world units)                 [deg]
#   9 THETA_WORLD            Position angle (CCW/world-x)                               [deg]
#  10 FWHM_WORLD             FWHM assuming a gaussian core                              [deg]
#  11 ELONGATION             A_IMAGE/B_IMAGE                                           
#  12 ELLIPTICITY            1 - B_IMAGE/A_IMAGE                                       
         1 -15.1110    244.5387     37.0005   6.4519565880e+00   2.1509212293e+01     1.605775    0.8537146 -52.63  0.009069217    1.575    0.365
         2 -12.9263     30.9863     29.3362   5.1773779216e+01   6.6903861248e+01    0.7361677    0.6154353  72.01  0.004506163    2.461    0.594
         3 -13.1134     20.4699     27.5393   5.6100450252e+01   6.8317814787e+01    0.6959147    0.2337304 -37.51  0.003197154    2.668    0.625
         4 -13.6577      7.6290     31.3808   6.4020734666e+01   6.8788894401e+01    0.7433234    0.6073223 -10.50  0.004030816    1.143    0.125
         5 -12.4579      6.7093     16.9640   5.8934775848e+01   7.1185735534e+01    0.4836975    0.3284423  17.30  0.003404518    1.468    0.319
         6 -13.6691    104.4360     23.0451   2.3429933829e+01   5.4900414381e+01    0.8341362    0.4932433  64.42  0.004180044    1.755    0.430
         7 -12.4857    219.1799     23.3610   5.9636367879e+00   2.8468861227e+01    0.3203018    0.1923795 -78.91  0.001799903    1.599    0.375
         8 -12.9568     22.1673      6.9317   4.6127142257e+01   7.1018624231e+01    0.5186057    0.2268024 -28.86   0.00284568    2.184    0.542
         9 -12.2739     36.7522     14.6635   4.2798066597e+01   6.8200469679e+01    0.2519523     0.203133  69.87  0.001489725    2.745    0.636
        10 -12.4540     95.7029      5.7726   1.9278029145e+01   5.8439258496e+01    0.2556126    0.2291164 -63.44  0.001732935    1.407    0.289
        11 -11.8144    151.9692      2.4794   8.3191423467e+00   4.5942499377e+01    0.2970801    0.1117359  76.38  0.001220432    2.676    0.626
        12 -14.9043     61.8417    211.1048   8.0393225806e+01   2.2272865879e+01     1.808905    0.8619576 -88.94  0.007231137    2.942    0.660
        13 -13.4386    129.4790    247.7253   7.0000636438e+01   4.7521373975e+00    0.9539638     0.460278  34.48  0.004331395    1.825    0.452
        14 -13.4847     85.6258    228.3829   7.7023708237e+01   1.5171877898e+01    0.6946251     0.532448  72.47  0.002664718    1.290    0.225
        15 -14.8554    102.4456    243.6060   7.5167075422e+01   9.6212408258e+00     1.202595     1.035231  66.72  0.005568571    1.131    0.116
        16 -13.5624     95.3497    233.1776   7.5465193078e+01   1.2746211939e+01    0.8664566    0.5014251 -72.07  0.003617825    2.029    0.507
        17 -14.1737     80.1795    244.1647   7.9873367918e+01   1.2734926113e+01     1.086523    0.6051239  64.84  0.005441113    1.975    0.494
        18 -13.5593     68.2131    244.8369   8.2389571605e+01   1.4242249375e+01     1.079719    0.6083222  82.34  0.005591765    2.118    0.528
        19 -14.4584     38.4829    231.9011   8.7329733623e+01   2.0642566274e+01     1.437147    0.5925262  72.36  0.005967176    3.201    0.688
        20 -13.3530     55.2423    247.5913   8.5225666240e+01   1.5389635743e+01    0.6944385    0.2742189  51.01  0.003148858    2.162    0.537
        21 -13.7240     57.6671    241.9231   8.4267660669e+01   1.6212671311e+01    0.7066941    0.3725369 -71.08  0.003838883    1.954    0.488
        22 -14.0089      3.8841    203.4086   9.2414276494e+01   3.0410005046e+01    0.8334405    0.3705758  72.30  0.004141204    2.208    0.547
        23 -13.4639      2.8785    189.3668   9.1689783584e+01   3.3671004070e+01      0.61916    0.3450357 -84.43  0.002801034    1.489    0.328
        24 -13.8459     15.0728    216.3865   9.0962450120e+01   2.6504407920e+01    0.9890893    0.5367255  47.37  0.005564107    1.632    0.387
        25 -16.2610      8.8525    239.4339   9.3547416700e+01   2.2290757307e+01     1.753276    0.8673588  60.52   0.01043509    1.647    0.393
        26 -14.1162     22.6038    245.0790   9.1321035840e+01   1.9733447813e+01    0.7073448     0.284825 -68.82  0.003737944    2.398    0.583
        27 -14.1969     35.2227    245.0409   8.8931484625e+01   1.8328198307e+01    0.6899617     0.453168  67.34  0.004127837    1.262    0.208
        28 -15.1509     18.3078    229.2683   9.1159618256e+01   2.3421518249e+01     1.845224    0.4362437  56.93  0.006285943    4.870    0.795
        29 -14.4607      2.8921    218.2224   9.3508839654e+01   2.7264275975e+01    0.9502984    0.3133442 -80.32  0.004393886    2.666    0.625
        30 -14.0999     52.6239    194.9698   8.0750543513e+01   2.7199991492e+01     1.037353    0.6747836  58.84  0.003777963    1.488    0.328
        31 -11.2074     96.9634    218.0180   7.3226406925e+01   1.5680428633e+01    0.4749424    0.1953205 -56.08  0.001984516    2.540    0.606
        32 -13.3755     47.0955    216.0591   8.4174188725e+01   2.3040000908e+01    0.6957672    0.5784429  75.51  0.002767069    1.017    0.017
        33 -13.2576     41.6765    207.7440   8.4592100623e+01   2.5560586962e+01    0.8798612    0.4168184 -80.55  0.004132895    2.138    0.532
        34 -13.0527    145.4718    214.9136   6.1782107997e+01   8.4147337097e+00     0.484716    0.4212953  18.17  0.002813909    1.144    0.126
        35 -14.5405    101.7090    158.4991   6.2523212539e+01   2.8813638906e+01      1.62713     1.297887  87.74  0.008010898    1.444    0.308
        36 -14.3097    104.5013    179.5679   6.5633280610e+01   2.3235472959e+01     3.129414     1.291545  56.23  0.009277523    4.162    0.760
        37 -14.5167     92.6053    197.9987   7.1499811499e+01   2.0834461891e+01     1.586086      1.07391 -64.08  0.006666671    1.509    0.337
        38 -14.3357     88.9627    184.3218   7.0355409923e+01   2.4627966140e+01     1.202073    0.7329358 -74.41  0.004242939    1.854    0.461
        39 -12.8195    123.1768    198.6997   6.4261328681e+01   1.5639545006e+01    0.8186401    0.3989831 -54.43  0.003419093    2.155    0.536
        40 -12.6116    123.4792    188.4841   6.2456581021e+01   1.7875343124e+01    0.6035315    0.3960643  46.34  0.002385113    1.491    0.329
        41 -12.6361    126.0540    182.9201   6.0837134552e+01   1.8684945206e+01    0.5342825    0.4383381 -82.10  0.002161154    1.407    0.289
        42 -12.3279    112.9447    199.6198   6.6847945621e+01   1.7169735280e+01    0.6136638    0.4003002  79.67  0.002679583    2.244    0.554
        43 -11.0677     20.1317    201.2367   8.8791257580e+01   2.9382072002e+01    0.2517657    0.1542019 -89.19   0.00144028    1.433    0.302
        44 -12.0119    158.3309    197.8855   5.5977867941e+01   9.6314643037e+00    0.2641322    0.1950139  46.19  0.001344148    1.372    0.271
        45 -11.5608     30.3608    193.5457   8.5831254156e+01   3.0111702935e+01    0.6762534    0.2805758  61.14  0.002812845    2.805    0.644
        46 -12.6265     21.0176    185.1513   8.7235433991e+01   3.3035796358e+01    0.9787592    0.3968039 -87.89  0.003847134    2.746    0.636
        47 -13.0552     15.7039    176.5180   8.7717133800e+01   3.5580950060e+01    0.8465084    0.4178758 -80.70  0.003433635    1.790    0.441
        48 -12.8690      5.5796     94.9650   8.0638733123e+01   5.5914165363e+01    0.8159723    0.6065364  48.29   0.00509689    1.669    0.401
        49 -11.5754      3.9622    173.2049   9.0230842634e+01   3.7348121103e+01    0.7029578    0.3338322 -86.82  0.003524157    1.886    0.470
        50 -14.3181      5.6779    112.9426   8.3355857978e+01   5.1702700454e+01     1.138695    0.8269006  58.01  0.006627697    1.624    0.384
        51 -14.1659     26.1075    167.0311   8.4192577835e+01   3.6910857485e+01     1.533029    0.6967897 -85.61  0.005672848    2.387    0.581
        52 -15.2030      8.0805    155.5231   8.7643477545e+01   4.1262025912e+01     1.381001    0.7946042  83.93  0.006005259    1.703    0.413
        53 -15.5730      7.6326    133.1093   8.5355030747e+01   4.6730899300e+01     2.022957     1.164014  64.89  0.009694084    2.043    0.511
        54 -11.5156     57.1546    171.1196   7.6624679612e+01   3.2414305149e+01    0.3142113    0.2741591  81.00  0.001111345    1.072    0.067
        55 -11.5010     44.5409    169.3203   7.9691520952e+01   3.4397085033e+01    0.3789015    0.2959529 -75.16   0.00217395    1.147    0.128
        56 -12.5293    125.5634    166.3786   5.7819163880e+01   2.2612047259e+01    0.6434451    0.3234084 -53.27  0.002536168    2.019    0.505
        57 -15.0777     64.6179    115.4166   6.4523553552e+01   4.5292122273e+01     1.953712     1.110951  63.13  0.007450993    3.018    0.669
        58 -14.7950     75.9679    138.4281   6.5859439277e+01   3.7986210173e+01     1.294783     0.617194 -61.97  0.004160459    2.108    0.526
        59 -13.6787     59.9938    135.7363   7.0121286674e+01   4.0914274963e+01     1.170748    0.7459875 -77.95  0.004705459    1.774    0.436
        60 -13.8290     74.5341    162.8446   7.0704382780e+01   3.2089297253e+01     1.243542    0.8510767  65.55   0.00447913    1.675    0.403
        61 -13.9325     62.3391    152.0240   7.2299174495e+01   3.6512943805e+01     1.308929     1.039333 -45.33  0.004471696    1.308    0.236
        62 -10.4782     38.5238    165.5075   8.0789228287e+01   3.6014491168e+01    0.1347052    0.1179025 -76.87 0.0001641184    1.052    0.050
        63 -11.9843     47.7450    160.5378   7.7663097472e+01   3.6208379794e+01    0.3246397    0.2404512  54.41 0.0009528792    1.389    0.280
        64 -13.1524     44.8037    148.0422   7.6665216631e+01   3.9678884419e+01    0.5374998    0.4121693 -46.28  0.001511431    1.341    0.254
        65 -13.1075     43.1595    140.0156   7.5898174428e+01   4.1874509460e+01     1.161437    0.6103432 -86.40  0.004726475    2.547    0.607
        66 -13.6648     93.3148    136.2021   6.0306141449e+01   3.5738800367e+01     1.031494    0.5060205 -54.97  0.004058068    1.977    0.494
        67 -13.6824     41.6875    116.3799   7.2216432030e+01   4.7884457790e+01     1.359389     1.001626 -77.36  0.006075085    1.419    0.295
        68 -11.6141     82.9011    111.3299   5.7701312608e+01   4.3475135490e+01    0.5138154    0.3138187 -82.01  0.001850676    3.159    0.683
        69 -14.5733     56.2176     95.6355   6.2672320082e+01   5.1066199881e+01     1.310861     0.766706  51.52   0.00585472    2.315    0.568
        70 -12.4632     83.4207     97.0509   5.3831354443e+01   4.6641920576e+01    0.7159748    0.4226723 -60.95  0.003046347    2.035    0.509
        71 -12.0457     23.2637     96.1948   7.4570667448e+01   5.4415700938e+01    0.3794738    0.3136576  81.71  0.001693418    1.454    0.312
        72 -14.1966    167.8619     93.0437   3.0308950159e+01   2.9648195195e+01    0.7518629     0.679359 -40.45  0.004074656    1.123    0.110
        73 -12.5061    103.2511     92.2455   4.6299681903e+01   4.4025935890e+01    0.5159166    0.3616215 -33.93  0.002433277    1.491    0.329
        74 -14.1428    124.4295     80.6832   3.6981362993e+01   4.1883481923e+01      1.51548    0.5195855 -46.30  0.004952831    3.173    0.685
        75 -14.7303    119.6589     73.7571   3.6178362825e+01   4.4205298822e+01      1.43748      0.76849  32.79   0.00563813    2.362    0.577
        76 -11.7521     75.2279     84.8678   5.3137140694e+01   5.0635823581e+01     0.446337    0.2949409 -68.13  0.001995771    2.178    0.541
        77 -13.8932    162.9946     82.5844   2.8555129673e+01   3.2692397642e+01     1.043266    0.5638054  72.67  0.003817024    2.810    0.644
        78 -13.4653     46.4650     77.1403   6.1341349870e+01   5.6343584390e+01    0.6390175    0.5006818  57.55  0.003574874    1.750    0.429
        79 -13.2168     13.3667     71.8753   7.3097720342e+01   6.0566826914e+01     1.024881    0.4833474 -45.00  0.004828452    1.707    0.414
        80 -12.7600    211.0633     74.5712   1.8299673613e+01   2.3074401842e+01    0.7058713    0.1544018 -38.06  0.002139052    4.225    0.763
        81 -11.9175      1.9252     71.9283   7.7731167442e+01   6.1234466315e+01    0.4661187    0.1509695 -64.27  0.002036617    2.577    0.612
        82 -13.1411    237.2614     70.3174   1.3978326858e+01   1.8248395000e+01    0.5722992    0.1978293 -41.59  0.002387528    2.450    0.592
        83 -12.0812     44.2421     67.7490   5.9480212017e+01   5.8540823101e+01    0.5440186    0.2855019  30.93  0.002678627    1.993    0.498
        84 -11.9037     56.6565     74.8337   5.6821263375e+01   5.5509613987e+01    0.3860765    0.2795878  -3.93  0.002051993    1.550    0.355
        85 -13.0972     31.4691     61.3808   6.2781743495e+01   6.1212877962e+01    0.6509972    0.5256739 -58.62  0.003015758    1.410    0.291
        86 -13.2170    108.1858     58.9543   3.4664555883e+01   4.9224689486e+01      0.74972    0.2845276  52.71   0.00272929    2.724    0.633
        87 -12.9272     19.4241     55.9795   6.6361153700e+01   6.3371708032e+01    0.6406374    0.4759487  53.35  0.003839682    2.060    0.515
        88 -11.6209     50.4909     55.5377   5.3071288694e+01   6.0076004556e+01    0.3684512    0.2373783 -40.18   0.00201832    1.460    0.315
        89 -13.1053      3.5624     47.5902   7.1145792103e+01   6.6105974409e+01     0.815487     0.284452 -49.76  0.004054464    2.093    0.522
        90 -13.6005    241.9746     46.1685   8.5096106305e+00   2.0797564379e+01     1.036312     0.488696  42.79  0.004056375    4.603    0.783
        91 -11.9722    232.1019    249.1511   4.9949741177e+01  -1.0319693108e+01    0.1935212     0.133063   1.00  0.001256205    1.268    0.211
        92 -11.6981     41.5564     43.8343   5.2637380549e+01   6.3291682420e+01    0.4651325    0.1918744 -49.74  0.002025946    2.810    0.644
        93 -13.7422    127.6753     40.7012   2.3923128876e+01   4.7551825788e+01    0.7782932    0.5422249 -49.83  0.003824654    1.643    0.392
        94 -13.9151    115.8224     36.3133   2.5220766070e+01   5.0820610027e+01     1.158411    0.5494761  51.26  0.004851589    1.855    0.461
        95 -14.4549    153.7125    238.6595   6.3666872234e+01   2.5979769335e+00     1.422311    0.9344118  64.27  0.006982903    2.323    0.569
        96 -12.1429     22.1149     35.2137   5.8252241879e+01   6.6911557705e+01    0.3577949     0.312682  20.95  0.002562319    1.392    0.281
        97 -12.6763    176.5926    238.9512   5.8975485322e+01  -1.0117201084e+00     0.442634    0.2591526 -56.85  0.002191579    2.439    0.590
        98 -13.3017    118.7811    236.8678   7.0860965066e+01   8.4314491646e+00    0.9346738    0.6287393  69.20  0.004860669    1.886    0.470
        99 -11.4481    115.2926    225.1656   7.0060551209e+01   1.1305567295e+01    0.4682183     0.363926 -61.79  0.002022092    1.419    0.295
       100 -12.9866     69.1864     44.8231   4.2116057252e+01   5.9008966735e+01    0.7922304    0.6157109  67.63  0.004315759    2.018    0.505
       101 -12.5427     67.4699     25.7770   3.5365967968e+01   6.1969677714e+01    0.7610899    0.2840509  38.84  0.003272722    2.497    0.600
       102 -13.2332    106.0057    219.9584   7.1434405969e+01   1.3858323153e+01     1.025784    0.6074083 -79.69  0.004352924    2.335    0.572
       103 -13.5478    132.4916    226.3497   6.6421333620e+01   8.2997677488e+00     1.002403    0.5649193 -52.33  0.004480953    1.965    0.491
       104 -13.1983     65.5885     33.8333   3.9243275761e+01   6.1238727489e+01    0.5268905    0.3113163 -34.00  0.002833521    1.743    0.426
       105 -11.9286     68.5619     16.9929   3.1394138408e+01   6.2795054195e+01    0.4627542    0.1649567  48.89  0.002021204    2.521    0.603
       106 -11.9124     41.2205    180.9023   8.1929933864e+01   3.1938216338e+01     1.377453     0.624085 -79.46  0.005874099    2.315    0.568
       107 -13.6693     74.2015    219.7570   7.8568207494e+01   1.8657071398e+01      1.25493    0.5987678 -71.49  0.005693206    2.288    0.563
       108 -12.0273     53.1395     18.9644   3.7828164915e+01   6.5227723661e+01    0.3884839    0.2628005  41.89   0.00237576    1.476    0.322
       109 -13.1218     53.5008    184.2178   7.9271378316e+01   2.9665304860e+01    0.9708812    0.5843943  44.88  0.004417006    1.617    0.381
