#   1 NUMBER                 Running object number                                     
#   2 MAG_AUTO               Kron-like elliptical aperture magnitude                    [mag]
#   3 X_IMAGE                Object position along x                                    [pixel]
#   4 Y_IMAGE                Object position along y                                    [pixel]
#   5 X_WORLD                Barycenter position along world x axis                     [deg]
#   6 Y_WORLD                Barycenter position along world y axis                     [deg]
#   7 A_WORLD                Profile RMS along major axis (world units)                 [deg]
#   8 B_WORLD                Profile RMS along minor axis (world units)                 [deg]
#   9 THETA_WORLD            Position angle (CCW/world-x)                               [deg]
#  10 FWHM_WORLD             FWHM assuming a gaussian core                              [deg]
#  11 ELONGATION             A_IMAGE/B_IMAGE                                           
#  12 ELLIPTICITY            1 - B_IMAGE/A_IMAGE                                       
         1 -11.7271    192.2875     34.1606   5.9291519805e+01   3.2540549740e+01    0.8330677     0.724769 -68.05  0.003373181    1.025    0.025
         2 -12.0229    201.4473     22.6848   5.5505786778e+01   3.1792132064e+01    0.6670057    0.6010321 -24.32  0.002010205    1.341    0.254
         3  -9.6117    114.7027      4.6798   5.9711807588e+01   5.5566978691e+01    0.5385706    0.1339498 -23.75  0.001773851    4.180    0.761
         4  -9.4636    114.8866     17.6165   6.4870188412e+01   5.4245732048e+01    0.3625739    0.1584698 -24.45  0.001443103    2.622    0.619
         5 -10.2657     40.3447      4.0073   8.2612976641e+01   7.3584975881e+01    0.2664523    0.1599833 -18.86  0.001375044    1.877    0.467
         6 -10.4441    157.8745    234.8152   1.0838896339e+02   5.6977158084e+00    0.2355954    0.1463638  10.35  0.001351226    1.627    0.385
         7 -18.7999      7.3036    137.7004   1.3758790756e+02   4.5940566260e+01     19.85237     3.586722 -82.78    0.0533612    5.652    0.823
         8  -8.0371    119.0369    201.3594   1.1240746438e+02   1.6917348118e+01    0.2434607    0.1132872  32.44  0.001070263    1.851    0.460
         9  -9.1921    194.4259    193.0655   9.4801073319e+01   6.9540503944e+00     0.271173    0.1876444  25.74  0.001551633    1.318    0.242
        10  -8.4906     73.3635    189.8147   1.2256356113e+02   2.6000266244e+01    0.2047764     0.154158  42.89  0.000869961    1.141    0.124
        11 -10.4931     75.4198    179.4567   1.2077201990e+02   2.8077644451e+01    0.4937667    0.2898653 -35.02  0.002120667    2.501    0.600
        12 -10.2793     79.2252    174.1369   1.1901692196e+02   2.8771598906e+01    0.3331183    0.2775596 -27.63 0.0008127277    1.474    0.322
        13  -7.7938     99.6375    180.7413   1.1435443232e+02   2.4176732635e+01     0.141236    0.1080761   0.66 0.0004435937    1.630    0.387
        14  -8.8304    120.0000    173.9993   1.0796975378e+02   2.2331902980e+01    0.2245657   0.08375478 -53.71 0.0008050076    2.960    0.662
        15 -10.3865     44.1946    173.3495   1.2898169627e+02   3.3539934825e+01    0.5219995    0.1809304  35.91  0.002067037    2.323    0.570
        16 -12.2689    145.1147    230.3576   1.1044747131e+02   8.0813369265e+00    0.7444043    0.3228588  31.11  0.003639246    1.868    0.465
        17  -9.5283    134.4915    171.7302   1.0394578138e+02   2.0337241094e+01    0.3619601    0.1459815 -52.48   0.00136395    2.808    0.644
        18  -8.6892    195.8884    169.8948   9.0365818556e+01   1.0368723422e+01    0.2068436    0.1582666  -3.40  0.001217973    1.279    0.218
        19 -10.5150     86.5942    164.2471   1.1549111848e+02   2.9994991724e+01    0.4775967    0.2957843  51.90 0.0006121114    1.627    0.385
        20 -11.9596     75.2322    159.8751   1.1817401331e+02   3.2779432753e+01    0.6769205    0.4877733 -56.92  0.001090776    1.481    0.325
        21 -12.1300     68.3254    144.2776   1.1793620209e+02   3.7701444406e+01    0.9619487    0.6230395  65.31  0.003957513    1.765    0.433
        22  -8.3050    140.1150    156.8811   9.9784881542e+01   2.2388870404e+01    0.2112964    0.1901872  63.11 0.0004797939    1.253    0.202
        23  -9.9461    134.3488    146.1411   9.9045069380e+01   2.5729156516e+01    0.8707171    0.2031463 -51.20  0.002279692    5.038    0.802
        24 -10.9408     47.7080    150.0462   1.2541603050e+02   3.8964444078e+01    0.3188144    0.2453811  81.56  0.001334826    1.295    0.228
        25 -10.3793     57.1747    147.9171   1.2208275642e+02   3.8320365505e+01    0.3054143     0.211095  33.67 0.0006803418    1.378    0.274
        26 -10.5236     93.5195    141.8563   1.0958715776e+02   3.4262610932e+01     0.300301    0.2638584 -35.53 0.0006642485    1.267    0.210
        27  -9.0644    105.7575    141.3049   1.0583572443e+02   3.2208717413e+01    0.4430841    0.2728477 -23.29  0.001653818    2.715    0.632
        28 -11.8568     58.2682    130.2093   1.1902073542e+02   4.2773104327e+01    0.9835402    0.3857281 -74.52  0.003179426    3.322    0.699
        29  -8.8967    169.3069    232.3555   1.0576528268e+02   4.5608602183e+00    0.1244326   0.07903072  -1.09 0.0007041789    1.721    0.419
        30  -9.0931    135.0000    130.9954   9.5572137672e+01   2.8859974405e+01    0.2373654    0.2036268 -41.18  0.001215097    1.200    0.167
        31 -10.1388    134.8782    121.2934   9.3323471799e+01   3.0973398477e+01    0.5287471    0.1525459 -48.21  0.001538075    3.659    0.727
        32  -8.6641    106.0718    130.8242   1.0354077002e+02   3.4633864216e+01    0.2508387    0.2096816  65.40  0.001232297    1.283    0.221
        33  -9.1719    101.2078    127.7053   1.0432282146e+02   3.6303725119e+01    0.2800352    0.2345075 -27.64 0.0004820264    1.381    0.276
        34  -9.9818     66.5354    225.5368   1.2770050844e+02   1.9388131074e+01    0.3086328    0.1547358  42.75 0.0009003798    1.566    0.361
        35  -8.0719    109.4894    120.0239   1.0005469050e+02   3.6512529887e+01    0.2177153    0.1558301 -50.68 -3.447012e-05    1.442    0.306
        36  -9.9534     92.9615    157.4816   1.1255924407e+02   3.0585790511e+01    0.5444336    0.3570577 -28.83  0.002304113    2.138    0.532
        37  -9.2026     63.6045    223.8145   1.2825412010e+02   2.0081796661e+01    0.1661073    0.1548598 -80.76  0.000632388    1.293    0.227
        38 -11.0944    164.3454    222.4910   1.0537749099e+02   6.6806664912e+00    0.3069089    0.2298805 -16.52  0.001895664    1.380    0.275
        39  -8.2683    205.9185    110.0000   7.6148436540e+01   1.8435070027e+01      0.20044   0.07723479  52.02 0.0006281656    2.883    0.653
        40  -9.9551    134.5596    104.6771   8.9195875310e+01   3.4571967711e+01    0.6543459    0.1527622 -43.27  0.001714424    4.387    0.772
        41  -9.6698    120.1513    105.0483   9.3165507050e+01   3.7683668463e+01    0.3789906    0.1118053 -46.33  0.001095704    3.470    0.712
        42 -10.0232     71.7227    230.0579   1.2685927157e+02   1.7883290174e+01    0.2569604    0.2396111  14.49  0.001042901    1.265    0.210
        43  -8.7372    134.4010     74.2094   8.0506326209e+01   4.0661444823e+01    0.2283803    0.1393897 -50.54 0.0009580021    1.726    0.421
        44  -8.2073    164.2652    206.0451   1.0293622826e+02   9.2879388453e+00    0.1706318    0.1493884  -2.94 0.0003747206    1.116    0.104
        45  -9.4608    161.9684     63.1634   7.1509086949e+01   3.5763334163e+01    0.2969029    0.2299846 -87.30   0.00051059    1.382    0.276
        46 -10.1817     84.3427    233.6046   1.2426737275e+02   1.5642970978e+01    0.3104114    0.2613645  65.92  0.001526814    1.291    0.225
        47  -8.5062    162.8285     55.8322   6.9228382470e+01   3.6690699605e+01    0.2043999    0.1594327 -76.22 0.0004186748    1.318    0.241
        48 -10.7725    181.5920     42.5441   6.2749978919e+01   3.3994460289e+01    0.4210713    0.3047369  62.40  0.001130246    1.422    0.297
        49  -9.0077    140.2004    249.4145   1.1379257215e+02   5.8355063256e+00    0.1773308   0.08441725  37.29 0.0009528108    1.715    0.417
        50  -8.2737     88.6732    242.7213   1.2410785155e+02   1.3478140935e+01    0.1153504   0.08607093   5.55 0.0002950264    1.594    0.373
        51  -9.3030    134.4895     38.4603   6.8778000164e+01   4.6474119221e+01    0.3072765    0.1462003 -31.48  0.001230902    2.235    0.553
        52  -8.7329     78.2955    236.9568   1.2592985414e+02   1.5792318208e+01    0.1645589    0.1397254  50.01 0.0005582134    1.138    0.121
        53 -10.6973     92.1121    234.5527   1.2259198353e+02   1.4476564689e+01    0.3323251    0.2392775  68.31 0.0005576052    1.658    0.397
