#   1 NUMBER                 Running object number                                     
#   2 MAG_AUTO               Kron-like elliptical aperture magnitude                    [mag]
#   3 X_IMAGE                Object position along x                                    [pixel]
#   4 Y_IMAGE                Object position along y                                    [pixel]
#   5 X_WORLD                Barycenter position along world x axis                     [deg]
#   6 Y_WORLD                Barycenter position along world y axis                     [deg]
#   7 A_WORLD                Profile RMS along major axis (world units)                 [deg]
#   8 B_WORLD                Profile RMS along minor axis (world units)                 [deg]
#   9 THETA_WORLD            Position angle (CCW/world-x)                               [deg]
#  10 FWHM_WORLD             FWHM assuming a gaussian core                              [deg]
#  11 ELONGATION             A_IMAGE/B_IMAGE                                           
#  12 ELLIPTICITY            1 - B_IMAGE/A_IMAGE                                       
         1 -14.5350     68.4738    144.2547   1.1039327334e+02   3.7193901076e+01     5.138358     2.142349  64.66  0.006384287    4.820    0.793
         2 -14.1106    216.4660     15.4807   4.3256102745e+01   2.8606496932e+01     1.372312     1.030594  31.33  0.003178219    1.675    0.403
         3 -12.4925    209.7321     23.2968   4.6130864433e+01   2.9410525544e+01    0.5702454    0.4355151  33.73  0.001101932    1.583    0.368
         4 -13.7416    193.0192     38.3033   5.2639689329e+01   3.1826933178e+01     1.461584     1.092028  18.61  0.003427346    1.681    0.405
         5 -14.1754    202.2524     31.3745   4.9342110683e+01   3.0339720068e+01     1.790004     1.423179   2.54  0.007851813    1.502    0.334
         6 -13.1322      2.8211      7.7967   1.0084820881e+02   7.4495727334e+01     1.359999    0.4708819 -46.48  0.006956823    2.020    0.505
         7 -11.1227     43.0466      3.9443   7.6010940625e+01   7.0686740578e+01    0.2167014    0.1781151  34.52 0.0007059885    1.406    0.289
         8 -10.4908     71.3161    230.1240   1.1900316637e+02   1.9349116020e+01    0.2772271    0.1377399  45.05  0.001141624    1.595    0.373
         9 -12.3308     92.2218    234.7956   1.1567917551e+02   1.5789528103e+01     0.384689    0.2401959 -76.44 0.0006031131    1.838    0.456
        10 -15.5663     81.5953    245.9221   1.1842641839e+02   1.5443251487e+01      8.31695     1.905527  35.47   0.01774758    5.886    0.830
        11  -8.8503    180.3082    192.6334   9.3616286410e+01   8.6128731182e+00    0.1238867    0.1018362  79.07 0.0007037155    1.753    0.430
        12  -9.4822     96.6611    192.1279   1.1040001758e+02   2.2765053663e+01    0.2237588    0.1690414   8.67  0.001228037    2.196    0.545
        13 -10.0138    206.8359    181.8049   8.6717477734e+01   5.5722878516e+00    0.2915664    0.1777096 -59.21  0.001260008    3.285    0.696
        14 -12.1186     66.9698    181.3773   1.1542612790e+02   2.9167426482e+01    0.3733689    0.2769605 -40.33  0.001869516    1.992    0.498
        15 -12.0619     71.7364    175.7621   1.1376627658e+02   2.9711130850e+01    0.2801124    0.2415837 -46.01  0.001067973    1.522    0.343
        16  -9.4755     99.3285    180.5716   1.0834789903e+02   2.4658887754e+01    0.1664696     0.119576  35.33  0.000898638    1.484    0.326
        17 -13.5609     41.5283    209.6680   1.2292324611e+02   2.6648955285e+01    0.5452767    0.4294676  82.16  0.001418359    1.149    0.129
        18  -9.2902    167.0275    174.8739   9.3078086009e+01   1.3943698236e+01    0.3575752    0.1932259 -68.43  0.001109342    5.462    0.817
        19 -13.4459     68.2884    161.9875   1.1287295004e+02   3.3179278388e+01    0.5506674    0.4257379 -43.73  0.001292416    1.677    0.404
        20 -15.8741     49.3804    200.1004   1.2074033634e+02   2.7576878144e+01     6.361916     2.096687  58.65   0.02730385    3.174    0.685
        21 -10.4110    195.3418    169.2163   8.6421850276e+01   9.5900025947e+00     0.304055     0.282477  47.79 0.0009085867    1.223    0.183
        22  -9.6541    145.6899    168.3388   9.6335040221e+01   1.9117660728e+01    0.1400043    0.1067788  79.46 0.0005574319    1.688    0.408
        23  -9.3689    190.2876    160.6702   8.5666774285e+01   1.1956359706e+01     0.130658    0.1124612 -82.37 0.0006324106    1.618    0.382
        24 -16.2890     12.5369    241.5548   1.2946774702e+02   2.4071514854e+01     2.286275       1.6072  43.45   0.01510785    1.514    0.339
        25 -11.0112    134.0000    144.0092   9.4243794821e+01   2.6252060883e+01    0.9596327    0.2773171 -56.71  0.002331554    6.226    0.839
        26  -9.9789    174.7888    148.8899   8.6289917529e+01   1.7108086073e+01    0.2595676    0.2060192 -62.68  0.000885781    1.552    0.356
        27 -10.9802     53.9227    147.3831   1.1445698585e+02   3.8345929569e+01    0.3701338    0.1721857 -71.49  0.001736612    1.959    0.490
        28 -10.7733     38.7026    146.2842   1.1806992280e+02   4.0335106984e+01    0.2748966     0.193834  58.25  0.000834947    1.351    0.260
        29 -12.4066     88.3504    142.9535   1.0517424385e+02   3.4574577446e+01    0.4477678    0.3027297  26.73 0.0007409982    1.884    0.469
        30 -10.8701    101.8615    142.3751   1.0168914452e+02   3.2493875412e+01    0.5759018    0.3647799 -26.42  0.002365356    2.827    0.646
        31 -10.0797     36.5689    140.2655   1.1792289433e+02   4.1955600469e+01    0.2054374    0.1608803  51.84 0.0007783882    1.323    0.244
        32 -11.7103     80.7007    165.6843   1.1048637443e+02   3.0621624080e+01    0.3052434    0.2529111  84.36 0.0003643256    1.080    0.074
        33 -10.1319    110.9780    131.8501   9.7316448780e+01   3.3270838450e+01    0.3058139    0.2519354  -1.53 0.0009385152    1.673    0.402
        34 -10.0519    106.0335    130.7087   9.8341760383e+01   3.4423537988e+01    0.3184517    0.2549861  88.99  0.001239284    1.366    0.268
        35 -10.8087    159.7932    129.1595   8.5027715256e+01   2.4032535280e+01    0.4035029    0.2371612 -21.60  0.001519718    2.589    0.614
        36 -12.7681     87.1195    158.8164   1.0801514590e+02   3.1178320762e+01     1.070546    0.7752219 -68.48  0.001502355    1.334    0.250
        37 -10.8163    135.6140    123.7912   8.9366051459e+01   3.0251767031e+01    0.3730018    0.1492002 -45.07  0.001313515    2.485    0.598
        38 -10.9748     98.1920    128.3676   9.9898308067e+01   3.6335279164e+01     0.284998    0.2758422 -12.59  0.000760788    1.216    0.177
        39 -10.5433    138.0735    171.3998   9.8516551595e+01   1.9925304275e+01    0.2744278    0.1860162 -74.75  0.001329069    2.001    0.500
        40 -10.7240     66.8099    124.6057   1.0765428152e+02   4.2069818603e+01    0.2243888    0.2112714   8.13  0.001375073    1.346    0.257
        41  -9.9366    125.8585    127.3769   9.2598038254e+01   3.1440856951e+01    0.2870736    0.1975429 -75.90 0.0009167065    1.922    0.480
        42 -10.4979    117.2078    126.4644   9.4565869498e+01   3.3323346050e+01    0.2893481    0.2052117 -54.26  0.001280149    1.380    0.275
        43 -11.8574     14.2151    120.6038   1.2159603043e+02   4.8587331401e+01    0.3021655    0.2116794  68.46  0.001917165    1.367    0.269
        44  -9.8361    107.7173    120.1297   9.5600956182e+01   3.6544478417e+01    0.2105014    0.1856496 -74.82 0.0003682184    1.116    0.104
        45 -16.1516      7.3088    201.8583   1.2873263161e+02   3.1633742012e+01      6.91035    0.9795055 -78.51   0.00748759    5.831    0.828
        46 -11.1852     23.2261    116.9646   1.1869810756e+02   4.8723176241e+01    0.2830851    0.1468353 -86.32  0.001430775    1.794    0.443
        47  -9.9605    168.0126    112.7407   7.9122635830e+01   2.5464141832e+01    0.3573145    0.2571122 -69.25  0.001221887    1.901    0.474
        48  -9.7540    135.0000    112.0268   8.6600540622e+01   3.2916174938e+01     0.260591   0.08592262 -45.06 0.0008053335    2.963    0.662
        49 -11.1852     52.8645    109.6443   1.0896392733e+02   4.7471596956e+01    0.4081268    0.2088533 -73.74  0.001829104    1.961    0.490
        50  -9.9840    205.3645    110.2200   7.1078623938e+01   1.7466660222e+01    0.2967679     0.209061  43.26  0.001133415    1.479    0.324
        51 -11.0668     22.4552    109.1678   1.1791895856e+02   5.0650966997e+01    0.2594809    0.1792733  63.62  0.001058339    1.514    0.339
        52  -9.8010    117.6712    107.6887   8.9933304640e+01   3.7455770246e+01     0.152499    0.1220891  -7.61 0.0007042045    1.667    0.400
        53 -11.6740     42.3660    104.5057   1.1121398450e+02   4.9904239284e+01    0.4682233    0.2103796  47.89  0.002080974    2.574    0.612
        54  -9.3357     66.4961    103.4995   1.0362198549e+02   4.7197156430e+01    0.1413991    0.1240622 -66.84 -0.0003679288    1.008    0.008
        55  -9.8855    134.4523    102.6949   8.4258874623e+01   3.5035154727e+01    0.2952544    0.1471828 -47.76 0.0008991631    1.983    0.496
        56  -9.3843    121.5198     98.5173   8.6453226450e+01   3.8700088352e+01    0.1538514    0.1470471 -55.09 3.041133e-05    1.007    0.007
        57  -9.3012     24.9765     82.3436   1.1283447764e+02   5.6872162121e+01    0.1653222    0.1449596 -63.96 0.0004230344    1.103    0.094
        58  -9.3715    158.0425     80.0287   7.2032658663e+01   3.4110192707e+01    0.1918197    0.1843416 -32.36 0.0004395556    1.008    0.008
        59  -9.9342    187.3011    210.3282   9.5215942123e+01   4.8208075377e+00    0.1238998    0.0859275  11.16 0.0002457561    1.643    0.391
        60  -9.1397     54.4972     65.5317   9.7937516040e+01   5.7709124214e+01    0.1376755      0.11908 -50.83 0.0001474693    1.035    0.034
        61 -10.2711     13.4701     59.9310   1.1253973393e+02   6.2949804092e+01    0.1882231    0.1811432 -39.45 0.0004506265    1.245    0.197
        62 -11.5212    147.4747     51.6941   6.5057594958e+01   4.1703135042e+01    0.6039901    0.3786716 -74.57   0.00206445    2.654    0.623
        63  -9.1275    107.8341    203.4173   1.0950063485e+02   1.8927975684e+01    0.1624196    0.1082138  34.40 0.0003038118    1.556    0.357
        64  -9.0564     95.9735    201.0415   1.1159193443e+02   2.1159399589e+01    0.1448797    0.1230713  73.28 0.0004088068    1.074    0.068
        65  -9.3341    238.1754    207.7929   8.5992556477e+01  -2.9141718595e+00    0.1638235    0.1126454   6.57 0.0005614821    1.306    0.234
        66 -11.6058    193.3663    193.9265   9.1388242025e+01   6.1462288622e+00    0.7282157    0.4610721 -59.87   0.00353685    2.766    0.638
        67 -11.1382    148.8517     44.9469   6.2392232304e+01   4.2404338882e+01    0.3555516    0.2748553 -67.78 0.0007415263    1.541    0.351
        68  -9.5316    144.0114     40.9771   6.1974498406e+01   4.4234625388e+01    0.2337062    0.1773273 -63.73 0.0003298676    1.565    0.361
        69 -12.0512      2.1495     25.1658   1.0829460959e+02   7.1165994600e+01    0.3865198    0.2537677 -51.27  0.002052955    1.125    0.111
        70 -11.8832     84.2666    232.7339   1.1691419515e+02   1.7207453934e+01    0.3181185    0.2417141  57.00  0.001222765    1.029    0.028
        71 -10.8465    189.4318     15.3155   4.6004391940e+01   3.5513019161e+01    0.2779987    0.2341962 -57.70 0.0007665803    1.148    0.129
