#   1 NUMBER                 Running object number                                     
#   2 MAG_AUTO               Kron-like elliptical aperture magnitude                    [mag]
#   3 X_IMAGE                Object position along x                                    [pixel]
#   4 Y_IMAGE                Object position along y                                    [pixel]
#   5 X_WORLD                Barycenter position along world x axis                     [deg]
#   6 Y_WORLD                Barycenter position along world y axis                     [deg]
#   7 A_WORLD                Profile RMS along major axis (world units)                 [deg]
#   8 B_WORLD                Profile RMS along minor axis (world units)                 [deg]
#   9 THETA_WORLD            Position angle (CCW/world-x)                               [deg]
#  10 FWHM_WORLD             FWHM assuming a gaussian core                              [deg]
#  11 ELONGATION             A_IMAGE/B_IMAGE                                           
#  12 ELLIPTICITY            1 - B_IMAGE/A_IMAGE                                       
         1 -16.3102     23.6465     56.8522   9.0176809848e+01   6.2759298545e+01     1.504199    0.6164907 -38.01  0.007026088    2.152    0.535
         2 -16.9718     63.7371     57.5398   7.3834695915e+01   5.7964837589e+01     1.555048      1.20315   6.76  0.008913201    1.274    0.215
         3 -16.8997     79.0726     45.8123   6.4040779133e+01   5.7426360137e+01      1.38474    0.7630656 -13.64   0.00577762    2.703    0.630
         4 -17.5663     64.1836     13.6839   5.6392709762e+01   6.4337376693e+01     2.445195     1.225549  39.40   0.01104412    1.729    0.422
         5 -15.5025    175.0963    197.5101   7.7003375463e+01   7.0005904073e+00    0.6429756     0.489597  16.90    0.0033468    1.349    0.259
         6 -15.6013    248.1162    226.7798   6.8003525527e+01  -8.9884725535e+00    0.9114918    0.5588314 -11.52    0.0053788    1.551    0.355
         7 -16.7132    243.8424    212.3971   6.6200612162e+01  -6.3334849621e+00     1.249773    0.8050286 -20.26  0.007083051    1.386    0.279
         8 -16.7850    231.5077    237.4911   7.2812606302e+01  -8.3563294627e+00     1.382465    0.6517227 -37.31  0.007275831    2.108    0.526
         9 -16.6682    235.2135    228.6548   7.0630198998e+01  -7.5818475592e+00     1.066947    0.8392141 -48.83  0.005931497    1.850    0.460
        10 -15.1575    118.6195    250.2114   9.7272381489e+01   6.1398781258e+00    0.8650885    0.1701405  35.72  0.002713813    4.427    0.774
        11 -17.4052     32.9709    217.9742   1.1190599575e+02   2.4069390532e+01     3.000862     1.218042  78.95   0.01217923    3.319    0.699
        12 -18.5797     14.8537    185.4067   1.1326656109e+02   3.3212172286e+01     3.746453     2.088603 -68.54   0.02102401    1.559    0.359
        13 -18.1804     69.6557    238.9816   1.0615031005e+02   1.5218600288e+01     2.809135     1.628122  50.40   0.01580688    1.476    0.323
        14 -16.2904    167.5770    169.9234   7.3256276747e+01   1.4021224301e+01    0.7986426     0.590316  18.33  0.003812154    1.539    0.350
        15 -17.5250    174.5558    182.2093   7.4181635811e+01   1.0155449477e+01      1.75487    0.9883578 -44.73   0.00776577    1.783    0.439
        16 -14.9038    249.1982    190.1883   6.1138641254e+01  -3.6291028400e+00    0.3696142     0.259311 -29.70  0.002213984    1.214    0.176
        17 -15.3473    248.0443    181.8430   5.9730199903e+01  -2.1156248616e+00    0.5583389    0.3982029 -24.52  0.003308158    1.200    0.166
        18 -17.5829    187.3047    182.3192   7.1435269052e+01   7.8235818691e+00     2.777219     1.113612 -29.16   0.00803377    4.626    0.784
        19 -15.9497     83.8239    184.5247   9.6528678826e+01   2.5323483477e+01    0.8365227     0.694357  88.12  0.002885828    1.204    0.170
        20 -15.4370    146.4111    177.6351   7.9770299968e+01   1.6328847078e+01    0.8184619    0.6971448 -88.23  0.003490668    1.439    0.305
        21 -17.5681    203.1268    166.2442   6.4854769918e+01   8.0927855095e+00      1.82438    0.6771957 -40.72  0.006700062    2.552    0.608
        22 -16.9098    216.8434    170.8883   6.3142064893e+01   4.7800653119e+00    0.7794775    0.5370185  40.25  0.004067598    1.564    0.361
        23 -15.7377    234.2917    163.8365   5.8507889266e+01   3.0949296886e+00    0.7349156    0.3128221  50.79  0.002902277    3.285    0.696
        24 -15.9107     77.4721    154.7191   9.3438835030e+01   3.3604526300e+01     1.116828     0.855287  70.64  0.004833237    1.463    0.317
        25 -16.3428     86.5526    136.3233   8.7313999974e+01   3.6839289383e+01    0.9847021    0.6215096  60.27  0.004180071    2.072    0.517
        26 -16.5099     74.4806    141.1441   9.1823026872e+01   3.7451460076e+01     1.597425    0.8622096  59.19  0.006158051    2.662    0.624
        27 -15.8615     78.3288    134.7200   8.9422562814e+01   3.8501464582e+01    0.7943079    0.4504519  48.43  0.003396358    2.000    0.500
        28 -17.4030    186.6667    153.4535   6.5496707531e+01   1.3765729015e+01     1.158448    0.9348681  -4.91  0.005844878    1.406    0.289
        29 -15.4023     42.3469    130.6161   9.9568336520e+01   4.4068710491e+01     1.910364    0.5203932 -60.43  0.006746754    2.864    0.651
        30 -17.1114     37.8800     84.0611   9.1681472803e+01   5.5692039877e+01     1.908247    0.8977267 -40.29  0.008693811    1.969    0.492
        31 -16.4981     25.9704    118.1018   1.0262249225e+02   4.8678672238e+01     1.843251     0.984321  49.55  0.008777368    2.337    0.572
        32 -16.0750     39.7743    114.8005   9.7599830387e+01   4.8249885932e+01    0.9007922    0.6030258 -67.04  0.004750386    1.371    0.270
        33 -17.7087     45.9256    100.5685   9.2615414765e+01   5.1051065642e+01      1.87361     1.231934 -46.82    0.0067314    1.332    0.249
        34 -16.0580    103.1224    137.2668   8.2712143368e+01   3.3833576295e+01    0.9150929    0.4857481  25.57  0.003446342    2.425    0.588
        35 -17.6279    240.0039    129.6087   5.0390521838e+01   8.1646408982e+00     1.948639     1.421211  47.86   0.01089892    1.589    0.371
        36 -17.1404    122.2490    110.4453   7.0755632122e+01   3.6509840976e+01     2.451514    0.8644551  38.21  0.007686637    3.132    0.681
        37 -17.2869     92.0893    115.5283   8.0930607674e+01   4.1009590934e+01     1.475291     1.316944  22.55  0.005308304    1.178    0.151
        38 -15.5464    152.6346    121.4510   6.5693153289e+01   2.7659782512e+01    0.7023904    0.5509396  80.44   0.00321493    1.672    0.402
        39 -16.0591     76.6840     89.4293   7.9072451367e+01   4.9530746546e+01    0.8312783    0.5270705 -48.86  0.003957875    1.506    0.336
        40 -14.9640    247.6401    105.0161   4.4047289802e+01   1.1000686531e+01    0.4084193     0.335134   7.69  0.002392959    1.656    0.396
        41 -14.8575    217.7410     99.2200   4.7175636588e+01   1.7871723439e+01    0.5549756    0.3963867  69.23  0.002854489    1.626    0.385
        42 -16.4700    161.8573     89.5826   5.5195264900e+01   3.2091284213e+01    0.9211397    0.7166516   3.32  0.003725602    1.737    0.424
        43 -16.6075    174.8345     87.4232   5.1911641815e+01   2.9493310621e+01     1.306878    0.9095785  48.84   0.00588665    1.469    0.319
        44 -14.9432     15.5079     80.0169   9.9303029557e+01   5.8411030318e+01    0.7800912    0.3942057  -2.33  0.003822619    2.534    0.605
        45 -17.1470     78.0602    213.9496   1.0174551154e+02   1.9357661143e+01     1.628546     1.043618  57.39  0.006468035    1.507    0.337
        46 -15.3690    217.4188    233.2157   7.4721328310e+01  -5.8250658525e+00      0.52613    0.3401037  -6.78  0.002975558    1.612    0.380
        47 -17.0562    146.1342    203.0455   8.4477366113e+01   1.0917250458e+01     1.808446     1.207813  31.59  0.006931923    1.449    0.310
        48 -15.1546     14.5623     50.8188   9.2463501374e+01   6.4641309387e+01    0.6967036    0.4888446 -16.05  0.004019397    1.325    0.245
