#   1 NUMBER                 Running object number                                     
#   2 MAG_AUTO               Kron-like elliptical aperture magnitude                    [mag]
#   3 X_IMAGE                Object position along x                                    [pixel]
#   4 Y_IMAGE                Object position along y                                    [pixel]
#   5 X_WORLD                Barycenter position along world x axis                     [deg]
#   6 Y_WORLD                Barycenter position along world y axis                     [deg]
#   7 A_WORLD                Profile RMS along major axis (world units)                 [deg]
#   8 B_WORLD                Profile RMS along minor axis (world units)                 [deg]
#   9 THETA_WORLD            Position angle (CCW/world-x)                               [deg]
#  10 FWHM_WORLD             FWHM assuming a gaussian core                              [deg]
#  11 ELONGATION             A_IMAGE/B_IMAGE                                           
#  12 ELLIPTICITY            1 - B_IMAGE/A_IMAGE                                       
         1 -13.6539    206.4218     40.3355   4.1138957762e+01   2.9140015600e+01     1.297492     1.139078  22.49  0.005223686    1.467    0.318
         2 -13.1056    213.9011     35.5972   3.9149360804e+01   2.8085876891e+01     0.853239    0.5773634 -73.57  0.003696994    1.513    0.339
         3 -12.9239    221.4783     28.6841   3.6779597838e+01   2.7289605690e+01    0.6617499    0.4539158  53.44  0.001372108    1.666    0.400
         4 -13.8906    234.9322     16.4139   3.2940319522e+01   2.5888009421e+01      1.37011    0.9555553  42.44  0.008125726    2.054    0.513
         5 -10.5025      2.4850      3.4741   8.6289224468e+01   7.3442999141e+01    0.2266806   0.08894636 -41.98  0.001226719    2.222    0.550
         6  -9.2430    250.4915      1.4902   2.8895111072e+01   2.4396266229e+01    0.1115506   0.08704717 -68.37 0.0001482315    1.019    0.018
         7 -15.4762      5.1419    180.0013   1.2101437788e+02   3.4867968743e+01     9.786383     0.827998 -75.62   0.02144578   10.394    0.904
         8 -13.1257     86.8747    224.1903   1.0726246364e+02   1.5950100534e+01     1.000854    0.6014344  55.28 0.0006975275    1.643    0.391
         9 -15.8235     35.2864    191.2160   1.1519431954e+02   2.9548102981e+01     5.735736     2.372417  70.76   0.02131708    3.747    0.733
        10  -9.6791    109.5468    201.0485   9.9133317648e+01   1.7472073422e+01    0.2011995    0.1359082 -60.67  0.001018643    1.573    0.364
        11 -12.2676     56.4364    178.7274   1.0881028154e+02   3.0097290005e+01    0.5730551    0.3465114 -32.95   0.00119849    2.454    0.593
        12 -10.9670    193.2929    195.4131   7.9490331503e+01   4.6023310187e+00     0.736409    0.3848859 -62.18  0.002150255    6.202    0.839
        13 -12.0035     62.2231    173.0735   1.0661730493e+02   3.0739119275e+01    0.3456019    0.2782524 -40.75 0.0006438242    1.408    0.290
        14 -10.0990     80.9916    182.1778   1.0319706910e+02   2.6038863674e+01    0.2773181    0.2660817 -45.63 0.0009645944    1.142    0.124
        15 -11.8167     72.7344    163.4377   1.0246104771e+02   3.1702084831e+01    0.3697246    0.3139376 -62.72 0.0003542727    1.113    0.102
        16 -13.3578     58.3416    132.6381   1.0124733987e+02   4.1233897445e+01     3.478609     1.070185 -71.29   0.00647137   10.874    0.908
        17 -13.9858     79.0048    156.7988   9.9674521447e+01   3.2452574025e+01     2.981132     1.255191  56.60   0.00150501    4.419    0.774
        18  -9.2090    146.3236    171.6862   8.5210863011e+01   1.7616759374e+01    0.1479202    0.1197642  77.42 0.0006031441    1.661    0.398
        19 -10.5242     48.5264    169.9195   1.0967814571e+02   3.3145709790e+01    0.1940167    0.1755902  70.61 0.0006458414    1.094    0.086
        20 -13.4980     59.3830    159.6099   1.0542967622e+02   3.4385329545e+01    0.5603068    0.3199796 -43.56  0.001559607    1.943    0.485
        21  -9.1860    125.9742    155.2958   8.6869627510e+01   2.5046037059e+01    0.2005039    0.1911216  25.97 0.0003011273    1.057    0.054
        22 -10.1335    123.0180    151.2905   8.6784393481e+01   2.6520158731e+01    0.2558711    0.2163654 -59.34 0.0003245372    1.222    0.182
        23  -9.3112    174.8222    149.3804   7.3826820422e+01   1.6909474613e+01    0.2088696    0.1405221  29.72 0.0004790664    1.613    0.380
        24 -10.2495    133.6133    143.4249   8.2303175196e+01   2.6343471316e+01    0.8010818     0.228838 -55.67  0.001758435    6.480    0.846
        25 -11.9642     33.1913    156.8610   1.1201208181e+02   3.7944864168e+01     0.432882    0.2718777  88.84  0.002247581    1.631    0.387
        26 -12.0325     23.2816    147.4671   1.1351243197e+02   4.1146521025e+01    0.4201184    0.2400824  88.14   0.00166959    1.853    0.460
        27 -10.4907     47.6491    146.1816   1.0662396574e+02   3.9095843141e+01    0.1893595    0.1695924  76.44 0.0006719638    1.143    0.125
        28  -9.8134    178.1864    144.0709   7.1873965960e+01   1.7330084744e+01    0.2829364    0.2055831 -57.06 0.0009395548    1.609    0.378
        29 -10.3957     95.3206    142.9871   9.2531399822e+01   3.3338599483e+01    0.3299348    0.3077246  -7.63 0.0008951624    1.147    0.128
        30  -9.7104     98.9960    139.6722   9.0800294540e+01   3.3535725377e+01    0.3552351    0.2387422  -9.87  0.001449456    2.310    0.567
        31 -10.6780     28.7944    143.2856   1.1148304191e+02   4.1697561238e+01    0.2415855    0.1610522 -81.06    0.0013097    1.389    0.280
        32 -12.3730     83.4935    141.2557   9.5531708125e+01   3.5628794022e+01     0.325536    0.2729139 -45.80 0.0005731677    1.153    0.133
        33 -12.2950     69.9438    131.0555   9.7463513196e+01   4.0117408268e+01    0.9437625    0.5349509  75.71  0.003180335    3.845    0.740
        34 -10.8390    106.9008    131.1869   8.6675085860e+01   3.4205553914e+01    0.4265636    0.3376282  36.98  0.001313518    1.311    0.237
        35 -13.3434     68.3504    144.3385   1.0044730736e+02   3.7026039161e+01    0.8947499    0.6228646  85.89   0.00301799    1.800    0.444
        36 -10.7906     94.7688    127.6803   8.9353726548e+01   3.7151656030e+01    0.2793627    0.2431214 -33.39 0.0003624643    1.142    0.124
        37  -9.8767    114.9943    125.0559   8.2939940177e+01   3.4161342360e+01    0.2580556    0.1899342 -10.40  0.001047895    1.778    0.438
        38  -9.5980    105.4671    119.9354   8.4384091939e+01   3.7124517112e+01    0.2103326     0.201288  -1.68 0.0003346978    1.058    0.055
        39  -9.2098    168.0055    113.0206   6.6529197010e+01   2.5786936234e+01    0.2496505    0.1923821 -76.67  0.001131443    1.769    0.435
        40  -9.8314    205.2423    110.5577   5.8509973605e+01   1.8276941386e+01    0.3158389    0.2451735  33.20  0.001227959    1.462    0.316
        41 -13.1799     26.9840    205.8541   1.1826587284e+02   2.7114394615e+01    0.5136154    0.3924672 -51.56  0.001031757    1.583    0.368
        42 -10.8083     52.7232     90.6480   9.3947721666e+01   5.2078845607e+01    0.3029197    0.2304553 -49.71 0.0008388535    1.176    0.150
        43 -10.2800     46.2056     91.6921   9.6540044286e+01   5.2591554649e+01    0.2387562    0.2005194  59.39 0.0007388322    1.521    0.343
        44  -9.7119     41.6625     92.1633   9.8282474818e+01   5.2968236801e+01    0.1995378    0.1840137  24.21  0.000454507    1.247    0.198
        45  -9.5303    161.5359     82.5147   5.9727382294e+01   3.3065632376e+01    0.1476324    0.1449594 -38.99 2.063527e-05    1.008    0.008
        46 -15.7043     56.2345    247.0579   1.1565311325e+02   1.5423958472e+01     9.307866      2.70619  26.41   0.01175318    8.816    0.887
        47 -10.9099     13.3707     60.2507   1.0141490664e+02   6.2460245549e+01    0.2166185    0.1841002 -45.76 0.0004496181    1.135    0.119
        48  -9.6897     30.2927     53.5918   9.2128562259e+01   6.2451925164e+01    0.1872791    0.1749806 -25.63 0.0005270164    1.246    0.198
        49 -10.2244    174.1748    248.4676   9.2327486534e+01  -1.2736143275e+00    0.2077879    0.1593687  68.87  0.001184863    2.250    0.556
        50 -14.9371      9.6196    208.2463   1.2198365544e+02   2.8235629992e+01     1.931462     1.255468  70.22  0.004563683    1.296    0.229
        51 -11.2653    183.3948    215.8273   8.5252502816e+01   2.6198887547e+00    0.2701207    0.2020237  54.35  0.001290611    1.804    0.446
        52 -14.1320      7.0467    245.8552   1.2450132431e+02   2.0921449728e+01     1.271538    0.7832463  53.74  0.009082508    1.296    0.228
        53  -9.4805     30.1353     46.8205   8.9930716227e+01   6.3774164605e+01    0.1707868    0.1638686   2.66   0.00102209    1.355    0.262
        54 -10.4095    130.9559     38.3798   5.2923643503e+01   4.7087783403e+01    0.2911123    0.2421735 -82.53 0.0008081259    1.462    0.316
        55 -10.3871    189.8235     15.1359   3.6867047381e+01   3.5861021854e+01    0.1989484    0.1552061 -69.79 0.0007790197    1.218    0.179
        56 -13.8545      7.2253    230.0056   1.2368426599e+02   2.3963967506e+01     1.667959     0.546715  49.26  0.008633452    2.408    0.585
