#   1 NUMBER                 Running object number                                     
#   2 MAG_AUTO               Kron-like elliptical aperture magnitude                    [mag]
#   3 X_IMAGE                Object position along x                                    [pixel]
#   4 Y_IMAGE                Object position along y                                    [pixel]
#   5 X_WORLD                Barycenter position along world x axis                     [deg]
#   6 Y_WORLD                Barycenter position along world y axis                     [deg]
#   7 A_WORLD                Profile RMS along major axis (world units)                 [deg]
#   8 B_WORLD                Profile RMS along minor axis (world units)                 [deg]
#   9 THETA_WORLD            Position angle (CCW/world-x)                               [deg]
#  10 FWHM_WORLD             FWHM assuming a gaussian core                              [deg]
#  11 ELONGATION             A_IMAGE/B_IMAGE                                           
#  12 ELLIPTICITY            1 - B_IMAGE/A_IMAGE                                       
         1 -13.9961    199.1058      4.9396   5.8543055028e+01   3.4981535890e+01     1.867213    0.6632057  64.52  0.008478101    2.297    0.565
         2 -15.2789    185.7231     29.3369   6.5902372910e+01   3.5441790957e+01     2.903158     1.754053  24.18   0.01236959    3.244    0.692
         3 -12.6744     57.1924      6.4859   8.6579521942e+01   6.5257039535e+01    0.5269525    0.2020051  42.16  0.001569579    2.218    0.549
         4  -8.8529    217.2905    244.6472   1.0811191337e+02  -9.2816628515e+00    0.1102683    0.1001025  73.41 0.0007027613    1.675    0.403
         5 -16.4257    106.6418    246.2811   1.3023860523e+02   8.8074157967e+00     6.762117     2.901674  31.50   0.02690053    3.161    0.684
         6 -12.1731    183.8057    215.0813   1.0960734094e+02   1.2284271909e+00     0.403051    0.2954786 -38.62  0.001824688    1.450    0.310
         7 -12.5983    116.3066    212.0146   1.2364860944e+02   1.4182030447e+01    0.4996817    0.3347526  79.86 0.0008886385    1.859    0.462
         8 -10.4236     69.6552    227.9372   1.3554742546e+02   1.8212230372e+01    0.2151318    0.1524299  81.80  0.001065111    1.284    0.221
         9 -12.3872    108.0769    209.7007   1.2512106366e+02   1.6112778554e+01    0.5732769    0.4613482  63.15  0.003182676    1.146    0.127
        10 -12.2368    107.2077    202.7063   1.2426909902e+02   1.7821028415e+01    0.5938865    0.3165721  39.24  0.002647002    1.850    0.459
        11 -11.6944    126.1682    209.7307   1.2111838431e+02   1.2922777073e+01    0.2816719    0.1668578  39.04 0.0009425318    1.632    0.387
        12 -13.5420     11.7190    206.4534   1.4500038594e+02   2.9940942899e+01    0.4098658    0.3557753  35.78  0.002931435    1.568    0.362
        13 -10.1058    164.4500    204.2213   1.1174905957e+02   6.9359742374e+00    0.2521753    0.1416495 -60.79  0.001003269    2.325    0.570
        14 -10.4929     92.4223    206.0535   1.2807064023e+02   1.9536623985e+01    0.2714166    0.2370175  48.58 0.0008581524    1.190    0.160
        15 -19.3906     25.9328    139.6380   1.3481322269e+02   4.4041415923e+01      19.7897     3.401219 -68.44    0.0533233    5.799    0.828
        16  -9.1662     83.2631    229.2816   1.3294828100e+02   1.5908701564e+01    0.1090812    0.1028466 -36.61 0.0001879356    1.483    0.326
        17 -12.8745    193.9998    193.8292   1.0349080849e+02   3.3559085709e+00     1.082954     0.741393 -67.53  0.004430867    2.178    0.541
        18 -11.8033    120.2598    200.8835   1.2102335164e+02   1.5926676019e+01    0.3877698    0.2749505 -17.16  0.001698875    2.470    0.595
        19 -11.6313    115.9685    200.6886   1.2196722511e+02   1.6739486242e+01    0.3808587    0.2159361  65.40   0.00155505    2.311    0.567
        20  -9.8227     94.8202    200.0636   1.2667977758e+02   2.0509124476e+01     0.397297    0.2118714  78.50  0.001442399    3.232    0.691
        21  -9.9580    234.3880    198.6149   9.6526884322e+01  -4.7314900438e+00    0.2555476      0.11093 -51.49  0.000941597    3.423    0.708
        22  -9.7883     86.7656    203.2920   1.2894866110e+02   2.1068143949e+01    0.3186602    0.2132847  23.01  0.001533007    2.115    0.527
        23 -10.1366      5.2181    236.4899   1.4814920540e+02   2.4313522055e+01    0.1081389   0.09713852  79.07 0.0005958641    1.439    0.305
        24 -11.3162    103.2227    195.0105   1.2399021625e+02   2.0262217148e+01    0.4521939    0.3418009  63.01  0.002368754    1.291    0.225
        25  -9.7268     91.8328    194.6008   1.2655809143e+02   2.2260823314e+01    0.2097645    0.1149375  52.66 0.0006146992    1.813    0.448
        26  -9.7984    180.0111    192.9912   1.0627128201e+02   6.2102042558e+00    0.2346907    0.1830785  80.46  0.001131815    1.775    0.437
        27 -10.1749     64.9822    192.6098   1.3242625261e+02   2.6798260640e+01      0.28125     0.228875  73.59  0.001667357    1.105    0.095
        28 -11.0684    109.5104    188.9843   1.2154714553e+02   2.0565033939e+01    0.2815337    0.1881835  -5.26  0.001034129    3.477    0.712
        29 -11.6620    207.5267    183.9976   9.8764151246e+01   2.6772677527e+00    0.3992414    0.2976157 -44.03  0.001068484    1.347    0.258
        30 -11.7177    210.9090    180.4973   9.7374656387e+01   2.7038107419e+00    0.5640534      0.31083 -32.78  0.002449797    1.923    0.480
        31 -10.9760     90.4968    183.9452   1.2523776224e+02   2.4990966042e+01    0.2852535    0.2113682  70.19 0.0007658792    1.384    0.277
        32 -11.2815    109.9754    183.2802   1.2046661202e+02   2.1818396286e+01    0.2167789    0.1891772  56.17  0.001170798    1.108    0.098
        33 -10.9191     99.4190    180.6499   1.2255633570e+02   2.4288367455e+01    0.2519459    0.2427949 -83.48 0.0005632823    1.114    0.103
        34 -11.2327    144.8773    178.6718   1.1132248714e+02   1.6248893769e+01    0.2726523    0.2118061 -38.90  0.001270802    1.404    0.288
        35 -12.1448    197.4733    174.0800   9.8746990119e+01   6.5754067203e+00     0.831188    0.3794461 -51.23  0.003109112    2.485    0.598
        36  -9.9758     57.7133    177.1235   1.3206177216e+02   3.1470403237e+01    0.2928053    0.1459359  45.51 0.0007809582    2.021    0.505
        37 -11.9084    112.7855    196.2718   1.2198395085e+02   1.8304615906e+01    0.5590558     0.375363 -10.57  0.002136193    3.373    0.704
        38 -11.6169    137.6761    171.0906   1.1151623684e+02   1.9419016798e+01    0.3224099    0.2919361 -86.80 0.0009036455    1.130    0.115
        39  -9.5436     68.0826    172.1301   1.2883779665e+02   3.1261500830e+01    0.1833651    0.1444113  74.94            0    1.246    0.197
        40 -10.5074    177.5945    169.7741   1.0205744512e+02   1.1515713656e+01    0.2177777    0.1438723 -55.73  0.000952978    1.656    0.396
        41 -11.2649    145.5655    168.4902   1.0910359013e+02   1.8425074659e+01     0.276445    0.2669543  82.22 0.0006362166    1.013    0.013
        42 -10.5666    203.2759    167.2352   9.6109742307e+01   6.7846173564e+00    0.3321952    0.2293952 -62.57  0.001169092    1.842    0.457
        43 -10.6081    225.0341    166.0259   9.1639211589e+01   2.7691592152e+00    0.2230612    0.1756745 -73.50 0.0007921156    1.731    0.422
        44  -9.7321     71.4671    166.5387   1.2712735020e+02   3.2139158811e+01    0.1413708    0.1259674 -79.98  2.84423e-05    1.025    0.025
        45 -12.5225     99.2099    156.2221   1.1817096116e+02   3.0236850670e+01    0.7222767    0.4395775 -39.21  0.002094912    1.965    0.491
        46 -11.8356    133.8401    144.7521   1.0681513119e+02   2.6354062989e+01     1.161977    0.3202006 -54.32  0.002936373    4.623    0.784
        47 -11.3166    174.3913    148.4103   9.8042096457e+01   1.6805853487e+01    0.3907314    0.2968511 -61.39   0.00115327    1.435    0.303
        48 -12.2300    144.6420    145.4319   1.0429259456e+02   2.3926226088e+01    0.4600876    0.3730389 -75.16 0.0008126393    1.388    0.279
        49 -12.1166    109.6339    140.4951   1.1213527048e+02   3.2159745128e+01     0.624543    0.3658877 -34.62  0.002470515    2.188    0.543
        50 -12.4077     98.2012    141.2305   1.1537046520e+02   3.4060470227e+01    0.2829957    0.2747509 -47.61 0.0004310717    1.086    0.079
        51 -10.8746    125.5135    127.4932   1.0488418022e+02   3.2089968112e+01    0.3800449    0.2705955  77.33   0.00119184    1.952    0.488
        52 -12.0300    116.7544    130.5044   1.0793231169e+02   3.3157810641e+01    0.5474223    0.4207024 -15.01  0.001320158    1.750    0.429
        53 -10.8098    120.4924    124.9639   1.0559245547e+02   3.3697424932e+01    0.2621813    0.2222414  23.39 0.0008242576    1.334    0.250
        54 -12.0318    105.0224    128.9197   1.1074460817e+02   3.5775964977e+01    0.6281201    0.3766212 -66.67  0.001707952    2.041    0.510
        55 -10.9995    160.3528    128.1491   9.6419771735e+01   2.4359264936e+01    0.4745907    0.2965261 -44.26  0.002002593    1.585    0.369
        56 -12.1695    135.7650    124.8901   1.0159247427e+02   3.0523708163e+01    0.9211296    0.3045852 -49.55  0.002802592    3.107    0.678
        57 -10.7461     71.0156    121.2895   1.1872612048e+02   4.3200115991e+01    0.1915644    0.1849774  34.53 0.0007771601    1.140    0.123
        58 -10.5305    111.2938    119.7230   1.0678894863e+02   3.6725505468e+01    0.2590371     0.248211 -20.61 0.0002548893    1.090    0.083
        59 -10.7465    168.0649    112.9994   9.0876775988e+01   2.5816712666e+01    0.4132372     0.303889 -81.92  0.001658599    1.788    0.441
        60 -10.4491    205.2484    110.3405   8.2749180550e+01   1.7733152472e+01    0.3544771     0.243051  35.85  0.001120488    1.819    0.450
        61 -12.4133     61.1429    108.6466   1.1886287313e+02   4.7492412579e+01    0.4793561    0.3010226 -32.17   0.00231854    1.794    0.443
        62 -11.8549     67.1829    104.8534   1.1608512345e+02   4.7533926571e+01    0.4352365    0.2426852  28.59  0.002009533    2.044    0.511
        63 -10.5947    134.5242    103.6368   9.6387118819e+01   3.5430362211e+01    0.5370208    0.1500918 -44.75  0.001548032    3.564    0.719
        64  -9.4735    153.8258    103.8165   9.1721856637e+01   3.1019216579e+01    0.2059431    0.1780293  87.35 0.0003212544    1.273    0.214
        65  -9.5055    149.5063    100.5418   9.1862621215e+01   3.2683968512e+01    0.1558316    0.1479717 -87.91 5.140601e-05    1.065    0.061
        66  -8.9817    127.2734     94.3307   9.5699448627e+01   3.8929230117e+01     0.150826    0.1200917  -2.89 0.0003171311    1.592    0.372
        67  -9.8491    151.7805     79.1726   8.5452985856e+01   3.6234448373e+01    0.2030022    0.1784248  14.05 0.0005241982    1.327    0.247
        68  -9.5928    183.0131     78.4874   7.8913884671e+01   2.8847985560e+01    0.2208868    0.1414983  57.18 0.0004919813    1.525    0.344
        69 -11.1781    176.0008     74.3399   7.9139961211e+01   3.1257154106e+01    0.3405875    0.2558488 -81.92 0.0007290854    1.535    0.349
        70 -10.0524     78.5311    232.3090   1.3423970119e+02   1.5990748748e+01    0.1952564    0.1434182  37.15 0.0005659815    1.509    0.337
        71 -13.2806    171.5966     44.5947   7.1994411176e+01   3.6893822168e+01    0.7436571    0.5615383  50.16 0.0008641852    1.328    0.247
        72 -11.5088    171.9542    242.1973   1.1656461004e+02  -1.4893634989e+00    0.6123945    0.3507042 -68.62  0.002558114    3.494    0.714
        73 -10.0358     72.8965    232.0392   1.3533310653e+02   1.6879108443e+01    0.2243017     0.135648  71.04            0    1.626    0.385
