#   1 NUMBER                 Running object number                                     
#   2 MAG_AUTO               Kron-like elliptical aperture magnitude                    [mag]
#   3 X_IMAGE                Object position along x                                    [pixel]
#   4 Y_IMAGE                Object position along y                                    [pixel]
#   5 X_WORLD                Barycenter position along world x axis                     [deg]
#   6 Y_WORLD                Barycenter position along world y axis                     [deg]
#   7 A_WORLD                Profile RMS along major axis (world units)                 [deg]
#   8 B_WORLD                Profile RMS along minor axis (world units)                 [deg]
#   9 THETA_WORLD            Position angle (CCW/world-x)                               [deg]
#  10 FWHM_WORLD             FWHM assuming a gaussian core                              [deg]
#  11 ELONGATION             A_IMAGE/B_IMAGE                                           
#  12 ELLIPTICITY            1 - B_IMAGE/A_IMAGE                                       
         1 -11.7653    166.0047     72.0524   1.3078924180e+01   3.3546272676e+01    0.9954398     0.927319 -36.62  0.004965025    1.167    0.143
         2 -10.8002    179.4889     29.8295   7.7635706746e-01   3.6471849469e+01    0.4773204    0.3930409  23.78 0.0005827631    1.830    0.453
         3 -11.5144    220.4618     11.8197   3.5392376030e+02   3.0415339178e+01     1.287564    0.4012426 -58.41  0.006226947    2.775    0.640
         4 -12.1994    236.2891      4.4139   3.5178716090e+02   2.8402396118e+01     1.142717    0.6606324  84.39  0.008216864    1.799    0.444
         5  -8.5422    116.0064     11.9875   2.8612027249e+00   5.3261380842e+01      0.23678    0.2143436 -81.60   0.00149996    1.086    0.079
         6  -9.7627    120.0519      8.8083   1.1860698043e+00   5.2560433658e+01    0.4829056    0.3555238  74.79  0.001403775    1.190    0.160
         7  -7.8945    192.9953      2.3659   3.5327310743e+02   3.6575140993e+01    0.2424001   0.06992774 -45.05  0.001155348    2.415    0.586
         8  -7.2747    172.7513      3.0090   3.5459476614e+02   4.0747298700e+01    0.1471823   0.09104812 -35.59   0.00088016    1.564    0.361
         9  -8.5187    100.0255     10.7848   5.0121733327e+00   5.7400811013e+01    0.1997695    0.1843776 -54.95 0.0002860861    1.189    0.159
        10  -7.2383    102.7740    223.9865   5.7508535584e+01   1.4146414770e+01    0.1484802    0.1089826 -52.94 0.0003365393    1.587    0.370
        11  -8.2535    161.7851    218.5468   4.3483886227e+01   8.1876179961e+00    0.2018336    0.1600029 -35.71 0.0004970409    1.361    0.265
        12  -6.9748     77.2813    218.2925   6.3285671171e+01   1.8239825141e+01     0.129252   0.09548959 -14.38 0.0002815072    1.532    0.347
        13  -7.5473    242.4417    211.2774   2.8456222257e+01   1.0354591874e+00    0.1577195   0.08102756  24.74 0.0006376793    2.073    0.517
        14 -11.9547     54.6248    195.8309   6.7181128879e+01   2.5791765555e+01     1.535782     1.300216  57.75  0.008842765    1.199    0.166
        15  -7.8790    192.3072    193.6347   3.3705079470e+01   8.6272279488e+00    0.1042023   0.09677704 -68.64 0.0007037629    1.747    0.428
        16  -8.4235     13.9885    200.1103   7.9134681063e+01   2.8647174950e+01    0.1855533    0.1683331  29.72  0.001166301    1.101    0.092
        17  -9.1146     90.3862    184.7717   5.5621426031e+01   2.3948274175e+01    0.3494344    0.2502649 -21.79 0.0009208952    1.621    0.383
        18  -7.6038     28.8132    178.7747   7.3376724029e+01   3.2626045848e+01    0.1960006    0.1810364 -14.00 0.0005525219    1.199    0.166
        19  -9.3767    101.0081    176.0166   5.1337872451e+01   2.4453553502e+01    0.2064166    0.1893388  13.23            0    1.006    0.006
        20  -8.1460     71.7551    164.4966   5.8153441308e+01   3.1356737281e+01    0.2515099    0.2111745 -67.03 0.0005383931    1.280    0.219
        21  -8.0760     77.0089    160.2029   5.5844370023e+01   3.1701338402e+01    0.2251106     0.159922 -30.98 0.0007314435    1.626    0.385
        22  -9.2425     97.3401    153.0534   4.8413924525e+01   3.0373307750e+01    0.2124522    0.2024128 -58.31  0.001161149    1.118    0.106
        23  -7.7133     14.2535    152.9040   7.6144696526e+01   4.0659346652e+01    0.2543904    0.1693077  31.58 0.0006945561    1.413    0.292
        24  -8.8577     86.2192    149.3854   5.1108615825e+01   3.3024193996e+01    0.2275774    0.1316795  40.01 0.0009512238    1.665    0.399
        25  -7.5481     89.3028    145.6304   4.9447234849e+01   3.3464333938e+01    0.1599929    0.1176368  68.81 0.0007033026    1.747    0.428
        26  -7.8403     14.1074    143.1053   7.5408986366e+01   4.3340775178e+01    0.2067432    0.1901857 -27.30 0.0003504443    1.174    0.148
        27  -7.7186     56.1310    141.1431   5.9741410367e+01   3.9532630235e+01    0.2253743    0.2007795 -11.90 0.0003620167    1.206    0.171
        28  -8.3900    153.0207    139.7499   3.1433407099e+01   2.3836755746e+01    0.2246433    0.1842152 -37.29 0.0004096641    1.149    0.130
        29  -7.3442    166.4302    139.0052   2.8503119965e+01   2.1710087582e+01    0.1883507    0.1218872 -40.54 6.062254e-05    1.422    0.297
        30 -10.4048      3.6609    137.8345   7.8894191021e+01   4.5475978312e+01    0.2508987    0.2340025  20.59 0.0002571068    1.113    0.102
        31  -7.1244    192.3289    138.2460   2.3642081633e+01   1.7702007683e+01    0.1205983   0.09082089  -3.20 0.0002626192    1.542    0.351
        32  -7.4019     87.2443    126.5649   4.6207148976e+01   3.8530584853e+01    0.1995159    0.1496824  20.10 0.0002580456    1.436    0.304
        33  -8.3976    244.5083    124.5136   1.3830034017e+01   1.2470779920e+01    0.1113744   0.08356642 -35.36 0.0005145226    1.015    0.014
        34  -8.2052     81.7011    121.8658   4.7019712370e+01   4.0661298194e+01     0.241153    0.2086214  12.93 0.0003141134    1.224    0.183
        35  -8.1060    241.6718    118.6891   1.3096944412e+01   1.3641074375e+01    0.1074877   0.07584462 -13.02 0.0007041401    1.665    0.399
        36  -7.0485    145.7348    117.3665   2.8066894464e+01   2.9573458797e+01    0.1433235    0.1104943 -73.52 0.0006988053    1.652    0.395
        37  -7.3777    124.9810    112.7485   3.1891122371e+01   3.4584429688e+01    0.1968013    0.1880544  33.99 0.0002183408    1.063    0.060
        38  -7.2967     52.0872    112.8581   5.6120207866e+01   4.7687679994e+01    0.2072155    0.1753778 -17.29  0.001016074    1.298    0.230
        39  -8.7288    134.6468    106.1700   2.7885507947e+01   3.3994652675e+01    0.2469804    0.1922076   1.79  0.001008556    1.749    0.428
        40  -9.0782     57.3949    101.9212   5.1512750666e+01   4.9786483332e+01    0.3830031    0.2787336 -31.78  0.001735316    1.566    0.361
        41  -9.7645    189.3318     99.0714   1.5905722154e+01   2.4680930558e+01    0.4567861    0.1818242 -44.71  0.001991576    2.213    0.548
        42  -9.1652    142.3487     99.0975   2.4365394889e+01   3.3800387949e+01    0.2483086    0.1974868  37.22 0.0008888986    1.383    0.277
        43  -8.1427    241.9940    108.4954   1.1193788819e+01   1.5001588965e+01    0.1365446   0.08983518  18.76 4.940377e-05    2.580    0.612
        44  -8.3949    110.0299     92.0889   3.0484536669e+01   4.2046935762e+01    0.2181233    0.2133512  89.45 0.0003462961    1.011    0.011
        45  -8.4384    150.9884     80.9187   1.7928078825e+01   3.5278835610e+01    0.2379075    0.1944016 -69.88 -0.001877172    1.259    0.206
        46  -9.5326    151.4165     88.4530   1.9796037670e+01   3.3871810800e+01    0.4607705    0.3619582  86.05  0.001538824    1.483    0.326
        47  -9.2167    153.5733     85.3977   1.8604371093e+01   3.3955418302e+01    0.4050848    0.2771846  82.30  0.001950509    1.915    0.478
        48  -7.6684    136.8610     87.9208   2.2651523773e+01   3.7069284002e+01     0.286927    0.1952279 -88.55  0.001251495    2.167    0.538
        49  -7.7517    231.8590     86.8215   8.1378145025e+00   1.9428479977e+01    0.1568668    0.1285714 -32.33 0.0003567709    1.192    0.161
        50  -7.2553     59.9563     84.9903   4.5982380847e+01   5.3627247096e+01    0.1779795    0.1746124 -42.39 0.0003401567    1.050    0.048
        51  -7.2689    206.5233     82.5236   1.0023856587e+01   2.4169939430e+01    0.1227779    0.1003752 -48.87  0.000809695    1.018    0.017
        52 -10.2920    175.7100     73.0831   1.1885559689e+01   3.1385687176e+01    0.5029815    0.2548982 -37.66  0.002381534    1.814    0.449
        53  -9.7605    161.3733     76.0635   1.4840900665e+01   3.3880206918e+01    0.6157663    0.3224055 -63.12   0.00250464    2.677    0.626
        54  -7.4941    145.0000    246.0650   5.0676457298e+01   5.6535208603e+00    0.1611507   0.06499023 -48.91 0.0004424786    2.830    0.647
        55 -10.9976    182.9798     58.2568   7.3443377750e+00   3.2084991626e+01    0.6443638    0.5138372  23.62  0.003181962    1.868    0.465
        56 -11.3325    178.2108     54.3191   6.9638573646e+00   3.3610004147e+01    0.7443694    0.6182105  18.38  0.003080738    1.757    0.431
        57  -9.4561    145.7514     74.9391   1.7323929715e+01   3.7438630201e+01    0.4933065    0.3107583 -69.03  0.002223113    2.048    0.512
        58 -10.3451    163.4064     63.1267   1.1190911552e+01   3.5472884024e+01    0.4906341    0.3819276  31.84  0.001199029    1.751    0.429
        59  -7.0682     38.7038     72.3292   5.2300814202e+01   6.0070460870e+01    0.1510789    0.1142065  64.03 0.0007026052    1.634    0.388
        60  -7.4880     69.3151     63.3465   3.5060828107e+01   5.6746488723e+01    0.1541893    0.1193325   0.04 0.0004202284    1.719    0.418
        61  -9.3176    193.7046     56.7604   5.7692523420e+00   3.0162657629e+01    0.2398126    0.2043024  48.42 0.0007402841    1.491    0.329
        62  -9.8702    159.4887     59.7093   1.0884549086e+01   3.6837209567e+01    0.3996964     0.270522 -32.68 0.0009318789    1.549    0.355
        63 -11.5443    184.6327     46.2490   4.2704416823e+00   3.3368158944e+01     1.627748    0.6746691  75.21  0.007253367    2.833    0.647
        64 -10.3554    185.6966     35.6640   1.6202179073e+00   3.4480126582e+01    0.3467849    0.2508554 -53.53 0.0005513995    1.154    0.133
        65 -10.0250    177.9400     34.0553   1.9727783071e+00   3.6296435075e+01    0.2676854    0.2503189  59.94 0.0005002674    1.339    0.253
        66  -7.6974    236.3390    237.6688   3.3159492595e+01  -1.6758185348e+00   0.08349954   0.07414726  -9.69 0.0007051821    1.741    0.426
        67  -9.0514    190.2198     51.5086   4.9248031060e+00   3.1550882575e+01    0.2238876    0.1472547 -42.42 0.0006147651    1.316    0.240
        68  -7.9218    166.6297     50.1766   7.3737736588e+00   3.6644280640e+01    0.1781209    0.1208766 -25.53 0.0006826532    1.732    0.423
        69 -10.2035    184.0198     39.9644   2.8183283860e+00   3.4295829993e+01    0.4005611     0.258635  82.40  0.000523237    1.577    0.366
        70  -7.8567    141.3215     41.7046   8.6318138865e+00   4.3556661462e+01    0.2228537    0.1541956  72.84 0.0006363289    1.382    0.277
        71  -7.4445     78.6320     42.6893   2.3628924603e+01   5.8537343663e+01    0.1523892    0.1091463  25.56 0.0007036828    1.764    0.433
        72  -7.9769    222.6578     40.6963   3.5969810122e+02   2.6852635267e+01   0.09658241   0.08667739  14.76  0.000633292    1.681    0.405
        73  -9.8384    203.4546     38.1555   6.3697437053e-01   3.0658862921e+01    0.2324849    0.2028017 -48.72 0.0004922833    1.187    0.158
        74  -7.8227     79.0446     37.2968   2.1268076368e+01   5.9296338649e+01    0.2128435    0.1945093  -6.36 0.0001990887    1.266    0.210
        75  -8.1147     63.7118     38.2666   2.7339093799e+01   6.2645825740e+01     0.241129     0.162071  17.15  0.001061176    2.153    0.536
        76  -8.2658    218.1964     37.5708   3.5937460692e+02   2.8007482491e+01    0.1924593    0.1023643  84.84  0.001125951    2.111    0.526
        77 -10.1522    196.6969     31.8949   3.5977966929e+02   3.2711992632e+01    0.2286625     0.214689 -82.79 0.0005067083    1.265    0.209
        78  -9.9304    212.0434     29.8760   3.5818637922e+02   3.0013070785e+01     0.262286    0.2187248 -26.49 0.0006319424    1.456    0.313
        79  -7.7995    109.7127     29.4253   1.0213134065e+01   5.2873227736e+01    0.2188514    0.1470143 -72.66 0.0001148265    1.671    0.402
        80  -8.1236    101.0221     27.0905   1.1177850560e+01   5.5334767100e+01      0.21048    0.1838775  86.60 0.0003876584    1.067    0.063
        81  -8.7010     85.1353     26.0278   1.4666439126e+01   5.9414648016e+01     0.224484    0.2151083  88.45  0.000336782    1.095    0.087
        82 -10.1640    204.3775     23.1790   3.5725771426e+02   3.2204413396e+01    0.2534687    0.2198024 -43.12  0.000624654    1.268    0.211
        83 -10.0008     21.8368    236.0414   7.8761707106e+01   2.0079496468e+01    0.3432038    0.2444711  49.16  0.001223463    1.218    0.179
        84  -8.3252     14.9338    228.8873   8.0169736949e+01   2.2134913930e+01    0.2654884     0.177425  65.02   0.00104374    1.460    0.315
        85  -7.1922    133.9864     20.2330   3.1144335728e+00   4.7961482799e+01    0.1762057   0.09955923  74.16  0.000669772    1.608    0.378
        86  -9.7510     69.0566    226.5391   6.6206736935e+01   1.7455652514e+01     0.256992     0.209641 -24.67 0.0004338715    1.392    0.281
        87 -11.9907     40.6560    218.3695   7.2944392540e+01   2.2109812539e+01    0.9374253    0.8315269  55.28  0.002497643    1.135    0.119
        88 -11.1525     31.2409    211.8834   7.5037497327e+01   2.4440079571e+01    0.7538527    0.5984581 -64.65  0.002025041    1.438    0.305
        89  -8.0356     75.5736    225.4471   6.4445398977e+01   1.6964879071e+01    0.2664023    0.1118945  23.49 0.0005593776    2.017    0.504
