#   1 NUMBER                 Running object number                                     
#   2 MAG_AUTO               Kron-like elliptical aperture magnitude                    [mag]
#   3 X_IMAGE                Object position along x                                    [pixel]
#   4 Y_IMAGE                Object position along y                                    [pixel]
#   5 X_WORLD                Barycenter position along world x axis                     [deg]
#   6 Y_WORLD                Barycenter position along world y axis                     [deg]
#   7 A_WORLD                Profile RMS along major axis (world units)                 [deg]
#   8 B_WORLD                Profile RMS along minor axis (world units)                 [deg]
#   9 THETA_WORLD            Position angle (CCW/world-x)                               [deg]
#  10 FWHM_WORLD             FWHM assuming a gaussian core                              [deg]
#  11 ELONGATION             A_IMAGE/B_IMAGE                                           
#  12 ELLIPTICITY            1 - B_IMAGE/A_IMAGE                                       
         1 -13.6860     58.5695     64.0252   9.3541310719e+01   5.7251226035e+01     1.591524    0.8401268 -26.13  0.006726706    2.520    0.603
         2 -13.8476     86.7213     66.1540   8.4338331564e+01   5.2494455606e+01     1.353487    0.8109847  -7.06  0.004956568    3.132    0.681
         3 -15.2447      6.1537     69.1963   1.1467324846e+02   6.0798928280e+01      1.65698    0.6520681 -58.43  0.006092581    1.779    0.438
         4 -14.7443    119.8304     54.5206   7.0278917333e+01   4.8005401221e+01     1.207826    0.8506171  21.43  0.002070593    1.697    0.411
         5 -13.5840    131.7479     32.6499   5.9480657779e+01   4.8531928776e+01    0.9179926    0.5068401 -30.72  0.003439194    1.852    0.460
         6 -14.3754    121.9903     37.4268   6.3553058463e+01   5.0182676998e+01      1.02566    0.5708895  30.83  0.002403331    2.196    0.545
         7 -12.2080    232.5779      2.2222   3.6599249367e+01   2.7073891782e+01    0.4472251      0.23767  59.78  0.001915826    1.972    0.493
         8 -15.4739    218.4187     16.2903   4.1214749589e+01   2.8845755065e+01     2.164906     1.192989 -27.67   0.01062144    1.920    0.479
         9 -14.1068    188.8916     25.9555   4.7228129074e+01   3.4995500884e+01     1.801218    0.6356334 -55.27  0.005226805    4.782    0.791
        10 -14.4197    189.7614     15.5971   4.4171858704e+01   3.5967126565e+01     1.475988    0.6837292 -51.44  0.006207741    2.340    0.573
        11 -13.3146      2.6316     10.7526   9.9468586816e+01   7.2636417281e+01    0.5388273    0.2677027 -50.36  0.003217082    1.702    0.413
        12 -13.0146      8.0287      2.7053   9.2625774140e+01   7.3555794964e+01    0.3729398    0.3246857  11.23  0.002346276    1.497    0.332
        13 -15.9715     11.5887     23.9086   9.9963504468e+01   6.9752444255e+01     1.880455    0.9590206 -33.39   0.01104202    1.609    0.379
        14 -14.3767     24.1657     13.9926   8.9322064079e+01   7.0380286122e+01    0.7217773    0.3530138  18.64  0.002190634    2.265    0.558
        15 -13.3300    139.3569     21.9699   5.4056559456e+01   4.7988421913e+01    0.6445939    0.3315812  55.27  0.001029317    1.748    0.428
        16 -14.8023    166.7890     29.6862   5.1663069494e+01   4.0162953450e+01     1.162901     1.086944  72.52   0.00422042    1.015    0.015
        17 -14.9854    147.2066     29.9522   5.5280440742e+01   4.5082354083e+01     1.477437     0.988263  57.21  0.004835709    1.401    0.286
        18 -13.0182    120.3654     26.7085   5.9941888662e+01   5.1988184980e+01    0.7948073    0.4588638  38.79  0.003669583    1.734    0.423
        19 -12.6846     71.6327     16.9907   7.0168881452e+01   6.3308956600e+01    0.4760652    0.2878764 -29.60  0.002576755    1.605    0.377
        20 -15.4304     97.6996     12.3575   5.9956192609e+01   5.8706751772e+01     1.652382     0.766311  50.52  0.005817317    1.929    0.481
        21 -11.7435     60.0151     17.2730   7.4653619883e+01   6.5236161820e+01    0.3371476    0.1618192 -36.58  0.001656526    2.059    0.514
        22 -14.5181     42.6501      3.8634   7.5254101968e+01   6.9568827961e+01     1.233409    0.6429287 -21.29  0.006024119    1.782    0.439
        23 -15.1462    212.4736     41.1318   4.8297781928e+01   2.7167572295e+01     2.926451    0.8610393  71.17   0.00853734    4.650    0.785
        24 -11.8761    153.2347      8.6408   4.7064502408e+01   4.5913636585e+01    0.2433403    0.2287243  33.38 0.0007699625    1.117    0.105
        25 -11.0264     59.4164      6.6923   6.9734830718e+01   6.6651919524e+01    0.1925451    0.1546353  37.73  0.001250345    1.345    0.256
        26 -10.9290    160.9050      6.0570   4.5097688219e+01   4.4224187112e+01    0.2243897    0.1432533  39.68 0.0009973149    1.688    0.407
        27 -11.1477     68.2804      5.2467   6.5759295962e+01   6.5272594059e+01     0.244122    0.1328161 -43.49  0.001178642    2.617    0.618
        28 -12.0202    182.8461      2.4868   4.1267863744e+01   3.9029583154e+01    0.4170491    0.2414764 -75.38  0.001980131    1.946    0.486
        29 -12.2412    118.5232      2.8113   5.1129480153e+01   5.4915809867e+01    0.5090097     0.293537  86.88  0.002243628    2.577    0.612
        30 -11.0974    112.3032      1.8710   5.2055877977e+01   5.6440755037e+01    0.2954811    0.1698825  66.48  0.001464297    1.751    0.429
        31 -11.9083     78.2754      2.5077   6.1140432150e+01   6.3667037192e+01    0.3565256    0.2245317  39.12  0.001803013    1.390    0.280
        32 -10.8918     82.9995      1.2335   5.9121193276e+01   6.2847156273e+01     0.194012    0.1206476  48.99 0.0008217105    1.464    0.317
        33 -12.0453     61.5867      2.0013   6.6537141898e+01   6.6793304080e+01    0.3124771     0.202559  47.22   0.00133668    1.616    0.381
        34 -12.1962     48.9859      3.6647   7.2386639177e+01   6.8662030543e+01    0.1686034    0.1457459   5.93 0.0003497933    1.200    0.167
        35 -12.8030      1.9312     21.7625   1.0413679286e+02   7.0733724148e+01    0.2132756    0.1326735 -51.44 0.0005264494    1.314    0.239
        36 -12.4570     57.0780    246.9065   1.2192680077e+02   1.6812403669e+01    0.4431049    0.1385961  41.22  0.002204379    2.532    0.605
        37 -11.9580     52.4839    250.4984   1.2294268761e+02   1.6754145432e+01    0.1807897   0.09595878  63.83 0.0008098233    1.532    0.347
        38 -13.6225     28.2457    246.1807   1.2669185704e+02   2.0300812256e+01     0.445479    0.2535031  63.54  0.003147597    1.290    0.225
        39 -11.8740      2.6767    249.8353   1.3085868599e+02   2.2281781804e+01    0.2916013     0.155228  59.94  0.001803979    1.306    0.234
        40 -13.8554      9.0036    245.5787   1.2972337321e+02   2.2402811577e+01    0.6945864    0.3277846  59.29   0.00329921    1.514    0.340
        41 -13.3431     73.8858    153.4478   1.0865643228e+02   3.4153430158e+01    0.6411449    0.4817114  38.61  0.002690363    1.438    0.304
        42 -12.7449    208.6334    154.6549   7.7579683152e+01   8.6361028598e+00    0.6199474     0.393284  45.22  0.002948083    1.627    0.385
        43 -13.1678     14.5858    158.7224   1.2356118837e+02   3.9497496032e+01    0.5193641    0.3207778 -83.95  0.003197829    1.281    0.220
        44 -10.9030     56.3024    156.3184   1.1344627454e+02   3.5781714310e+01    0.1277428   0.09555952 -43.65 0.0007025154    1.624    0.384
        45 -11.7977     85.9927    152.7452   1.0548387822e+02   3.2543216484e+01    0.4483825    0.2117468 -52.82  0.001901819    2.057    0.514
        46 -11.1923    133.0462    152.5795   9.3727941546e+01   2.4358443467e+01    0.2217768    0.1967014 -56.09  0.000276722    1.133    0.118
        47 -11.8594    103.1715    150.2332   1.0068173383e+02   3.0357448882e+01    0.4060485    0.2678503 -39.26   0.00187773    1.802    0.445
        48 -11.5872     24.3755    150.4908   1.2052715932e+02   4.0544713399e+01    0.2690615    0.1796125 -57.54  0.001623877    1.496    0.331
        49 -10.9878     60.3334    149.2831   1.1146613949e+02   3.6958748317e+01    0.1282376    0.1000675 -37.25 0.0003363497    1.616    0.381
        50 -13.2113    164.2311    194.9788   9.4709068808e+01   9.7600534120e+00    0.5828022    0.3317209 -65.26  0.002415166    2.930    0.659
        51 -11.2420    154.8233    157.6053   8.9644433175e+01   1.8961603854e+01    0.2232095    0.1361871  52.97 0.0009557513    1.761    0.432
        52 -11.4664     88.7934    140.1910   1.0253066679e+02   3.5114978863e+01    0.1996559    0.1732545 -31.55  0.001087558    1.361    0.265
        53 -12.2678     45.2867    134.1817   1.1320913101e+02   4.2369187354e+01    0.3883867    0.2936964 -89.51   0.00227681    1.233    0.189
        54 -12.9862    246.1705    133.2825   6.6090819831e+01   5.0118954429e+00    0.4841803     0.353079 -34.27  0.002636375    1.222    0.182
        55 -14.6462    230.2910    129.2058   6.7801567799e+01   8.7853659786e+00     1.275776     1.030804  58.03  0.006891052    1.466    0.318
        56 -13.5986    120.4268    102.3335   8.5078443159e+01   3.8312292918e+01    0.6880455    0.3453389  38.76  0.002538856    2.162    0.537
        57 -14.8153    105.8354    121.7710   9.4037737474e+01   3.6641582187e+01     1.693674     1.114665  42.27  0.007811991    1.587    0.370
        58 -15.2723    106.4253    106.0680   9.0011202915e+01   4.0209952866e+01     1.770206     1.469119  26.46  0.007640534    1.343    0.255
        59 -11.7413    181.1869    121.1911   7.5284693328e+01   2.0869475607e+01    0.2820642    0.2149974  60.58 0.0007094815    1.475    0.322
        60 -12.7395     28.7401    122.4227   1.1606955606e+02   4.6824602294e+01    0.2913484    0.2268254 -74.55  0.001832474    1.041    0.039
        61 -12.7220     77.1028    117.1962   1.0119170827e+02   4.2472485847e+01    0.5825368    0.3969418 -77.09  0.002797823    1.646    0.392
        62 -13.3123     85.2243    115.5323   9.8457520739e+01   4.1635717022e+01     0.712197    0.3850173  30.48  0.002160649    2.196    0.545
        63 -12.5686     88.2289    109.5426   9.6187099532e+01   4.2586323573e+01     0.511709    0.3160738 -57.80  0.002020988    1.540    0.351
        64 -11.9093      3.7217    119.8941   1.2260388071e+02   4.9269183199e+01    0.4094524    0.1784749  16.87  0.002083658    3.164    0.684
        65 -13.4060     16.5544     78.6177   1.1273762858e+02   5.8075301605e+01     1.258774    0.5734106 -81.11  0.005432987    2.857    0.650
        66 -13.9113     17.7797    111.0253   1.1762034129e+02   5.0421807444e+01    0.9467804    0.5763211 -50.22  0.005460151    1.542    0.351
        67 -14.1196     10.8725    101.6783   1.1837959236e+02   5.3091756651e+01    0.8373227     0.666523 -62.41  0.005703743    1.098    0.089
        68 -13.4774      2.2257     97.2132   1.2040190365e+02   5.4625813923e+01    0.8532591    0.2059987 -73.26  0.003222771    3.315    0.698
        69 -13.6147     20.4380     96.3886   1.1461088100e+02   5.3690279748e+01    0.8131368    0.4412989 -70.33  0.004337064    1.521    0.343
        70 -13.9373     28.7745     92.6858   1.1126241980e+02   5.3917000455e+01    0.9551044    0.7750445  65.85  0.006035985    1.453    0.312
        71 -11.7320    176.7402    110.6262   7.3518834242e+01   2.3999342065e+01    0.4251705    0.2868862 -13.26  0.001717221    2.078    0.519
        72 -11.1549     25.6561    127.1026   1.1753802130e+02   4.5969034591e+01    0.1879715    0.1349442 -70.30  0.001144128    1.129    0.114
        73 -11.7060     45.5206    110.2059   1.0922844373e+02   4.8160837626e+01    0.3479647    0.2608398 -83.12  0.001978199    1.327    0.247
        74 -10.3658     11.3236    134.2803   1.2209886581e+02   4.5400666129e+01     0.116811   0.07734954 -51.21 0.0006221244    1.590    0.371
        75 -12.3537     33.3603    104.6616   1.1196148419e+02   5.0681307240e+01     0.397781    0.2794535 -49.51  0.001867029    1.310    0.237
        76 -12.3881    135.9783    103.1715   8.1156206113e+01   3.4833201497e+01    0.7127939    0.2875946  46.42   0.00243589    2.551    0.608
        77 -12.5871     62.7766    100.0188   1.0176813636e+02   4.8586153429e+01    0.8157356    0.4984999  68.92  0.003484655    2.650    0.623
        78 -11.6400     43.0610     91.2991   1.0624570749e+02   5.2929343496e+01    0.7576095    0.3027824 -73.37  0.002539748    3.917    0.745
        79 -12.7277     51.3680     98.8904   1.0516232009e+02   5.0239436495e+01    0.7900722    0.4789549 -13.81  0.003168713    2.710    0.631
        80 -12.5344     49.1325     94.4847   1.0493232491e+02   5.1534725071e+01    0.4160794    0.3065678  75.45  0.001787569    1.742    0.426
        81 -13.4316    248.9887     96.4036   5.7154497719e+01   1.0466598737e+01    0.8141547    0.2162202 -36.97  0.002720206    3.116    0.679
        82 -12.7341    136.9842     95.7573   7.8814353059e+01   3.6198407992e+01    0.5141369    0.3889996  67.74  0.002038854    1.601    0.375
        83 -11.2449     59.6141    125.6165   1.0787262060e+02   4.2791530526e+01    0.2562154    0.1795952   7.03    0.0012002    2.093    0.522
        84 -10.4381     52.3047     90.6553   1.0301411631e+02   5.2077551259e+01    0.1348166    0.1018109  84.21 0.0007041287    1.689    0.408
        85 -12.1853     89.8598     88.2841   9.0141921798e+01   4.7237428372e+01    0.4602012    0.3560872  44.74  0.001847844    1.415    0.293
        86 -12.3414    149.6633     85.0320   7.2519011499e+01   3.5473035417e+01    0.5775986     0.360354  30.71  0.002308789    2.034    0.508
        87 -13.1275    135.6215     79.9584   7.4468716642e+01   3.9737358499e+01    0.7689863    0.4419763  44.68  0.003175928    1.777    0.437
        88 -12.5424    127.0935     85.5996   7.8439938560e+01   4.0505526970e+01    0.4747257    0.4145911  46.06  0.002424814    1.181    0.153
        89 -11.1853     34.3797     86.8631   1.0822494660e+02   5.4797637202e+01    0.2177038    0.1812731 -16.49 0.0007934817    1.382    0.276
        90 -13.7073    237.2203     80.3046   5.4945157179e+01   1.5531557020e+01    0.8603434    0.4445934  77.03  0.003279146    3.168    0.684
        91 -12.9449    188.5463     84.2847   6.3960784371e+01   2.6207545299e+01    0.8107958    0.3445446  41.78  0.002726886    2.898    0.655
        92 -13.5344    164.2236     71.4455   6.5137969493e+01   3.4484120232e+01     1.595086    0.5267781  44.07  0.004717868    3.556    0.719
        93 -13.0386    159.5799     68.3785   6.5198944748e+01   3.6170720848e+01    0.6697577     0.483641 -40.58  0.002057869    1.371    0.271
        94 -13.7464    160.7970     80.8244   6.8693041959e+01   3.3613399095e+01    0.9658619    0.6905374  13.74  0.003182027    1.975    0.494
        95 -14.6355    169.3076     77.1433   6.5764694202e+01   3.2210594594e+01     1.409055    0.6936197  51.27  0.005160077    2.035    0.509
        96 -14.0816    171.2040    243.0983   1.0074368055e+02   7.1911472299e-01    0.9107639    0.5096278  34.16  0.005137452    1.513    0.339
        97 -13.8382     81.5274     54.6371   8.2102003905e+01   5.5630379439e+01     1.314041    0.4589067  43.04  0.004819599    3.081    0.675
        98 -13.9033     96.6741    238.9291   1.1419487678e+02   1.2883556856e+01    0.5681047    0.3868558  53.08  0.002533832    1.176    0.150
        99 -13.8995     61.0209     75.4930   9.6090261371e+01   5.4461465277e+01    0.7021508    0.4298406 -39.85  0.001438062    1.505    0.336
       100 -13.2118     70.7111     75.8471   9.2818986310e+01   5.3036851575e+01      0.55738     0.442285 -13.76  0.001595581    1.391    0.281
       101 -12.2252     77.1489     73.8640   9.0022880152e+01   5.2486812115e+01    0.3954696    0.2644385 -43.41  0.001267779    1.352    0.260
       102 -13.2480    213.0951     78.3875   5.8066891866e+01   2.1334898217e+01     1.080652     0.625226  78.99  0.004261502    2.559    0.609
       103 -12.8213    216.7686     73.4972   5.6212649391e+01   2.1273860801e+01    0.6780638    0.4404206 -78.57  0.002931271    2.154    0.536
       104 -12.0897    114.0930     80.3120   8.0445563997e+01   4.4363784548e+01    0.4215663    0.3348946 -48.60  0.001270163    1.258    0.205
       105 -12.4427     79.5410     60.9932   8.5020046485e+01   5.4746843474e+01    0.4593781    0.4179721   0.02   0.00202554    1.088    0.081
       106 -12.6346     22.8961     71.7706   1.0901786109e+02   5.9183077138e+01    0.2982455    0.2223562   9.57 0.0007926612    1.629    0.386
       107 -12.0757    147.3286    239.0260   1.0467854491e+02   5.1143773522e+00    0.1642501    0.1491492  50.55 0.0008840857    1.126    0.112
       108 -12.9820      7.3327     51.0384   1.1027059447e+02   6.4668964632e+01    0.8627669     0.348316 -22.00  0.003857268    3.424    0.708
       109 -13.2960      6.3492     43.7693   1.0882287203e+02   6.6227165509e+01    0.7384225    0.3349282  14.07  0.004036217    2.663    0.625
       110 -12.0040     96.7223     79.5682   8.5418712207e+01   4.7920550783e+01    0.2762454    0.1459051  36.26  0.001137069    2.072    0.517
       111 -11.2334     42.1051     76.9262   1.0322671894e+02   5.6341851904e+01    0.2099264    0.1947365  11.62  0.001333873    1.252    0.201
       112 -13.9640    198.9631     69.7533   5.8064605902e+01   2.6164420113e+01    0.9750363    0.6325001  40.79  0.003122495    1.783    0.439
       113 -12.1485    199.8532     62.2800   5.5854686212e+01   2.7150840569e+01    0.3937131    0.2831236 -45.44  0.001060824    1.334    0.251
       114 -12.1538    242.1260     71.5481   5.2158171156e+01   1.5831458503e+01    0.4201389    0.2720089 -69.06  0.002009363    1.897    0.473
       115 -13.5094    133.4770     65.9911   7.0577941280e+01   4.2876706074e+01    0.9182945    0.7339796  -5.20  0.003622247    1.449    0.310
       116 -12.5311     38.2058     68.3321   1.0243910213e+02   5.8643518435e+01    0.5709054    0.2711842  29.53  0.002777058    2.419    0.587
       117 -11.8202    100.2818     65.0457   7.9619353765e+01   5.0198567120e+01    0.3822581    0.2972333 -25.63  0.001956133    1.277    0.217
       118 -14.0421    178.0936     57.5986   5.8238135628e+01   3.3330001316e+01    0.9491478    0.7214364 -42.94  0.002870258    1.299    0.230
       119 -12.0446     24.3821     59.9121   1.0556313446e+02   6.1675498282e+01    0.2996336    0.1902389 -48.87 0.0008507246    1.233    0.189
       120 -11.5199     14.4151    223.8190   1.2784690852e+02   2.5834323846e+01    0.4014298    0.1869249  68.87  0.001933428    1.745    0.427
       121 -12.1087     25.1737    217.5666   1.2561780993e+02   2.5944218067e+01    0.4959611    0.2672236  73.89  0.003104921    1.542    0.352
       122 -13.8257     25.7079    227.4674   1.2610366239e+02   2.3984278676e+01    0.6020012    0.3176415 -63.12  0.003769611    2.150    0.535
       123 -12.9457    109.9851     42.3709   6.8593420654e+01   5.2146939179e+01    0.5708585    0.2454471  46.99  0.001368758    2.250    0.556
       124 -13.0526    113.6247     38.0826   6.5976323352e+01   5.1989106017e+01    0.4306024    0.3730478  12.80  0.002042671    1.133    0.117
       125 -10.5507     38.5013     60.0109   9.9991682417e+01   6.0409468016e+01    0.1748684    0.1097648 -78.53 0.0008105552    2.578    0.612
       126 -10.7223     47.6165     56.8197   9.5423493581e+01   6.0095373081e+01    0.1900246    0.1144373 -59.48 0.0009493073    1.807    0.446
       127 -13.1289    248.2791     51.7015   4.6696325618e+01   1.7420169677e+01    0.6662635    0.4095796 -32.57  0.003430521    1.531    0.347
       128 -11.6444    230.6171     55.5474   4.9696282113e+01   2.0817599826e+01    0.4481201    0.1355111  63.20  0.001537817    3.490    0.714
       129 -12.8937    135.5855     50.4485   6.4843454316e+01   4.5022589351e+01     0.606857    0.3493902  31.40  0.002440764    2.195    0.544
       130 -13.6791    103.0465     50.4429   7.3616169454e+01   5.2303785692e+01     0.832415    0.5454834 -59.09  0.001188163    2.218    0.549
       131 -12.4347     98.3079     50.8639   7.5221838920e+01   5.3189435058e+01    0.5244369    0.3566787 -59.16  0.001300022    2.074    0.518
       132 -13.3617     65.9436     48.9515   8.5627787308e+01   5.9204838498e+01    0.4949003    0.4735423  78.09  0.003115613    1.408    0.290
       133 -11.8239     24.1583     49.2738   1.0266805150e+02   6.3926970795e+01    0.3359084     0.133134 -34.69  0.001362585    2.620    0.618
       134 -12.9474     54.9538     81.8544   9.9944679297e+01   5.3798081509e+01    0.5587487    0.3376426 -42.94  0.001705962    1.494    0.331
       135 -13.5371     20.9211    225.1137   1.2679887908e+02   2.4931038692e+01     0.424164    0.3224805  83.54  0.002520389    1.155    0.134
       136 -12.5222    237.4968    230.8316   8.6880751596e+01  -7.7886169008e+00    0.2731903    0.1346036  48.49  0.001319024    2.883    0.653
       137 -11.9054     40.3139    243.5215   1.2455174890e+02   1.9417736037e+01    0.2449778    0.1463583  83.64  0.001677862    1.453    0.312
       138 -13.1072     66.5912    223.3640   1.1839738177e+02   1.9916427204e+01    0.6451538    0.4875312  39.63  0.004318635    1.431    0.301
       139 -11.8832    169.6901     43.9915   5.5627316385e+01   3.7509793064e+01    0.3159707    0.2476803 -86.23  0.001456488    1.438    0.305
       140 -10.6413     55.5004     41.0978   8.6711768214e+01   6.2137959698e+01    0.1857498    0.1136516 -39.25 0.0003729439    1.445    0.308
       141 -12.6308     75.7774     37.4021   7.7529321517e+01   5.9631820768e+01    0.3387592    0.2382641  37.40 0.0008546724    1.459    0.315
       142 -12.1624     69.5461     36.7673   7.9543224323e+01   6.0779669940e+01    0.4116145    0.2204966  32.12  0.001091258    1.969    0.492
       143 -13.7489    241.9474     34.6579   4.3347900631e+01   2.1133903800e+01    0.8262769    0.6127505  76.42  0.003016834    1.379    0.275
       144 -11.2205    104.4820     37.0261   6.8122440577e+01   5.4136237307e+01    0.2173095    0.1349666 -29.82  0.001035968    1.601    0.375
       145 -11.7925     58.4699     35.3942   8.3251837275e+01   6.2713911442e+01    0.4987159    0.2225644  32.79  0.002267973    2.408    0.585
       146 -12.2931     46.1990     33.9126   8.7719848341e+01   6.4623630606e+01    0.4713355    0.2700855 -30.32  0.002525908    1.575    0.365
       147 -12.7377     94.5819    218.4832   1.1248091068e+02   1.6940419123e+01    0.3349023     0.184894  49.38  0.001578122    1.543    0.352
       148 -12.3747    185.6195    213.7538   9.3576746400e+01   2.7832989452e+00    0.2131274    0.1735327 -50.53  0.001293649    1.515    0.340
       149 -13.2426      9.1146    210.8655   1.2810327639e+02   2.8855285566e+01      0.61159    0.4111074  41.10  0.004420164    1.607    0.378
       150 -11.0974    157.3154    212.9712   9.9071204496e+01   7.7704824193e+00    0.1945408    0.1087716 -73.39 0.0007047972    4.318    0.768
       151 -11.5308    136.8425    211.3427   1.0299871157e+02   1.1555551528e+01    0.2118791    0.1784133 -82.76 0.0007903407    1.361    0.265
       152 -12.3687     41.8679    206.7628   1.2176137057e+02   2.6277693807e+01    0.3109785    0.1423294  77.57  0.001522383    2.383    0.580
       153 -13.9757     63.0551    214.5081   1.1829559033e+02   2.2114151349e+01     0.719897     0.389677  59.40  0.004045097    1.636    0.389
       154 -11.3936     31.4023     31.0809   9.3159853697e+01   6.6786982322e+01    0.2114802    0.1519587   3.80 0.0006953357    1.424    0.298
       155 -11.1258     91.0045     34.1726   7.1074350318e+01   5.7318943564e+01    0.2339303    0.1427866  22.66  0.001078576    1.930    0.482
       156 -11.3937    150.9686    206.8929   9.9425029098e+01   9.9459223530e+00    0.3007568    0.1674059  28.32  0.001374142    2.074    0.518
       157 -12.9190     56.6096     27.5460   8.0683719833e+01   6.4261654751e+01    0.5773011    0.2856062  42.23  0.001919539    2.291    0.563
       158 -12.8489     67.6835     24.5387   7.5030757103e+01   6.2971318193e+01    0.6515892    0.3205583  39.21  0.003153836    2.026    0.506
       159 -11.6248     27.5820     33.2567   9.5759117468e+01   6.6758933070e+01    0.3590258    0.2033441 -51.44  0.002020312    1.649    0.394
       160 -10.9404     97.9266     27.1666   6.6098759960e+01   5.6897785379e+01    0.1992858    0.1920447  73.66  0.001220499    1.280    0.219
       161 -12.0534     46.4304     21.0696   8.2079013205e+01   6.6689669157e+01    0.3345167    0.2212119 -23.52  0.001200072    1.312    0.238
       162 -10.8406     89.2792     30.1005   6.9955280196e+01   5.8248089951e+01    0.1833121    0.1597446  -8.85 0.0002551471    1.073    0.068
       163 -12.4607     57.2338    203.1594   1.1841676935e+02   2.5174347023e+01    0.4961699    0.2194474 -85.02  0.002269467    2.624    0.619
       164 -12.9171     40.6023    195.4556   1.2109796877e+02   2.8785313668e+01    0.4115696    0.1630789 -86.62  0.001799921    2.852    0.649
       165 -12.8186     16.9860    195.1691   1.2574047988e+02   3.1303403904e+01    0.7711843    0.2395519 -71.11  0.003700064    2.641    0.621
       166 -13.5068     29.8798    169.4985   1.2109255723e+02   3.5644571198e+01    0.7006953    0.4126977 -48.08   0.00265757    2.165    0.538
       167 -13.4822     22.3094    181.2422   1.2369920366e+02   3.3771508816e+01    0.5876666    0.4157104 -64.05   0.00272669    1.481    0.325
       168 -14.8277      8.0978    183.6974   1.2674383731e+02   3.4536030033e+01     1.068574    0.8222775  80.16  0.007886883    1.065    0.061
       169 -14.9522     16.0196    175.7130   1.2458953939e+02   3.5569418404e+01     2.048165    0.6295034  56.98  0.008610499    3.415    0.707
       170 -12.6799    201.0196    192.1071   8.6733359726e+01   3.5946979405e+00    0.3662549    0.2810623 -12.00  0.001595402    1.370    0.270
       171 -10.5421    212.3194    200.3492   8.6098502167e+01   3.1913947794e-01    0.1388157   0.09266491   4.54 0.0007048417    1.737    0.424
       172 -11.8385     49.1041    181.5077   1.1802804376e+02   3.0843661357e+01    0.3520496    0.2262803 -56.44  0.002019497    1.699    0.412
       173 -13.1214    198.4538    181.6100   8.5217910952e+01   5.8308519065e+00    0.3269921    0.2883292 -42.73  0.001520597    1.274    0.215
       174 -13.0936    124.6015    167.8165   9.8678397266e+01   2.2552907599e+01    0.4868765    0.2674804 -57.77  0.002126439    1.915    0.478
       175 -12.4806     22.4822    166.4977   1.2246242833e+02   3.7035990642e+01    0.2267043     0.177483  88.03  0.001350549    1.015    0.014
       176 -13.0324     22.5586    162.4280   1.2208723301e+02   3.7953721767e+01    0.3998928    0.2079483  62.82   0.00215561    1.895    0.472
       177 -11.5558     26.7324    158.5238   1.2076942431e+02   3.8461866342e+01    0.3119148    0.1172698  44.28  0.001471731    2.569    0.611
       178 -13.1996    157.7981     43.6575   5.7751111427e+01   4.0571622803e+01    0.8289501      0.54359  29.94  0.003676441    1.885    0.469
       179 -12.0470     77.3627    156.9323   1.0832241577e+02   3.2830340091e+01     0.371524    0.3099713  39.70  0.001378811    1.311    0.237
