#   1 NUMBER                 Running object number                                     
#   2 MAG_AUTO               Kron-like elliptical aperture magnitude                    [mag]
#   3 X_IMAGE                Object position along x                                    [pixel]
#   4 Y_IMAGE                Object position along y                                    [pixel]
#   5 X_WORLD                Barycenter position along world x axis                     [deg]
#   6 Y_WORLD                Barycenter position along world y axis                     [deg]
#   7 A_WORLD                Profile RMS along major axis (world units)                 [deg]
#   8 B_WORLD                Profile RMS along minor axis (world units)                 [deg]
#   9 THETA_WORLD            Position angle (CCW/world-x)                               [deg]
#  10 FWHM_WORLD             FWHM assuming a gaussian core                              [deg]
#  11 ELONGATION             A_IMAGE/B_IMAGE                                           
#  12 ELLIPTICITY            1 - B_IMAGE/A_IMAGE                                       
         1 -13.5513    221.0732      7.3142   3.6001577633e+01   2.9195086634e+01     1.640809     1.074367  51.90   0.00703419    1.751    0.429
         2 -14.2537    195.2128     37.5754   4.6558682265e+01   3.1884196923e+01     2.752521     1.617786  28.13   0.01137546    2.728    0.633
         3 -10.2576     79.3502     14.9601   6.3202339639e+01   6.1977265973e+01    0.3791213    0.1907192  60.18  0.001395671    2.739    0.635
         4 -12.6418    179.5127     51.8204   5.3023501895e+01   3.3834530563e+01    0.7967212    0.7165195   7.19 0.0009696984    1.256    0.204
         5 -10.7188    248.6129    249.0435   8.4917109785e+01  -1.1356457790e+01    0.3594189    0.2286616   9.50  0.002403502    1.272    0.214
         6 -11.2289    247.9001    243.3022   8.4104265841e+01  -1.0620942546e+01    0.3668187    0.1964225   9.65  0.002066015    1.910    0.476
         7 -19.4973     12.7673    144.3921   1.2103716318e+02   4.2983110685e+01     19.04213     4.377285 -76.57   0.06423679    4.074    0.755
         8  -9.3631     50.4504    224.7098   1.1981350967e+02   2.1475615205e+01    0.1769691   0.09810131 -88.18 0.0006773885    1.789    0.441
         9 -10.5948     40.3722    224.2314   1.2168585951e+02   2.2742869106e+01    0.2196938    0.1250207  75.92  0.000788981    1.603    0.376
        10  -8.3472     76.5201    224.3561   1.1468982922e+02   1.8213019616e+01    0.1227459   0.09612027  59.51  0.000184827    1.060    0.056
        11  -8.6037     65.0000    223.8557   1.1692286513e+02   1.9835789679e+01    0.1603284   0.06345943 -69.17 0.0007502653    2.593    0.614
        12 -10.7139     54.6973    222.1606   1.1879053948e+02   2.1465024044e+01    0.2266143    0.1309428  53.10 0.0006112393    1.456    0.313
        13  99.0000     56.6237    218.3081   1.1808746839e+02   2.1998290280e+01    0.4989184    0.1964552  57.74  0.002265602    2.597    0.615
        14  -9.0252     80.9947    220.4479   1.1339683362e+02   1.8365924404e+01    0.1831293    0.1071982  40.93 0.0004169743    1.535    0.349
        15  -8.8082     85.5067    218.4787   1.1226573278e+02   1.8122234248e+01    0.2162235    0.1182091  26.55  0.001033711    2.360    0.576
        16  -9.3947     48.5275    217.4784   1.1961172315e+02   2.3145039589e+01    0.1926743     0.114951  19.86 0.0008978597    2.665    0.625
        17 -10.3401     72.1523    250.2778   1.1780135006e+02   1.4007355562e+01    0.1821927    0.1187087  52.28 0.0003349999    1.200    0.167
        18 -10.0811    184.3301    212.3115   9.0736342025e+01   3.2404227402e+00    0.2938727    0.2197407 -69.59  0.001528648    2.242    0.554
        19  99.0000     57.6596    208.2549   1.1697493561e+02   2.3934435001e+01    0.4054824    0.1944698 -52.39   0.00198679    2.548    0.608
        20 -10.1162     28.8639    209.6426   1.2285414287e+02   2.6933348750e+01     0.151994    0.1074375  59.10 0.0003992292    1.200    0.166
        21 -10.4309    171.4284    212.4357   9.3394120895e+01   5.4140653084e+00    0.4244331    0.1149896  32.60  0.001151992    5.358    0.813
        22  -8.6533     42.5662    208.9439   1.2010240272e+02   2.5587048962e+01    0.2050217    0.1193213  75.35 0.0009081353    1.610    0.379
        23 -11.0067     65.5023    204.8019   1.1499846065e+02   2.3663255125e+01    0.3422455    0.1960305 -75.32 0.0009620684    1.732    0.423
        24  -8.8857     69.7059    199.2753   1.1350952143e+02   2.4290763411e+01    0.1774168    0.1497471  16.96 0.0006203411    1.572    0.364
        25  -8.8057    223.9991    206.5078   8.1953370626e+01  -2.3928086199e+00    0.1832827    0.1145366  33.29 -0.0001344629    1.484    0.326
        26 -10.7352     30.1579    205.3075   1.2229206306e+02   2.7698820558e+01    0.3321626    0.1130264  49.01  0.001459596    2.494    0.599
        27  -8.3161     93.2904    205.3701   1.0909585764e+02   1.9654793237e+01     0.124097    0.1015086 -26.47 0.0007024044    1.717    0.417
        28  -9.2615     96.4922    201.5735   1.0791083405e+02   1.9966195779e+01    0.2564851    0.1278016 -61.94  0.001194691    2.109    0.526
        29 -10.7656    193.2545    195.3967   8.5866360822e+01   4.5330191451e+00    0.9273978    0.4886947 -61.83  0.002843738    5.782    0.827
        30 -12.6857     54.1293    198.4319   1.1677789538e+02   2.6460653153e+01    0.5305921    0.2902029 -51.68  0.002751847    2.189    0.543
        31  -9.9594    204.4993    199.5041   8.4386863015e+01   1.8981951272e+00    0.2139716    0.1157382  28.25 0.0009911611    1.846    0.458
        32 -11.9371    133.6005    196.7505   9.8936239704e+01   1.4899499950e+01    0.4679964    0.2967805 -54.52  0.001443138    1.726    0.420
        33  -9.4291     38.3211    199.0802   1.2015613731e+02   2.8146743312e+01    0.1569369    0.1163924  80.55 0.0002501603    1.118    0.105
        34  -9.1349     81.9905    194.5647   1.1024224744e+02   2.3613676860e+01     0.240846    0.2025541  74.06   0.00118455    1.079    0.073
        35 -10.9823    127.0072    192.3533   9.9708459204e+01   1.6937894909e+01    0.3179458    0.2288104  60.80  0.001166488    1.518    0.341
        36  -8.1076     77.6431    192.3303   1.1094272564e+02   2.4719888048e+01    0.1387953    0.1119157  70.67 0.0008196741    1.136    0.120
        37  -9.8057     74.1001    188.6423   1.1129156711e+02   2.6030297783e+01    0.2935347    0.1755878  69.92  0.001206201    1.887    0.470
        38 -11.5316     61.5037    187.2292   1.1398328433e+02   2.8015433233e+01    0.7114257     0.470277  48.48  0.002874378    1.425    0.298
        39 -11.9539     67.2001    182.7896   1.1215866237e+02   2.8280885201e+01    0.5772455    0.4722821  74.27  0.002508163    1.107    0.097
        40  -8.8507     96.9563    190.5220   1.0630595737e+02   2.2265344820e+01    0.2000821    0.1249114  41.06 0.0006734664    1.514    0.339
        41 -10.8274    149.0567    188.3789   9.4044931750e+01   1.3837284780e+01    0.3442733    0.2621151  48.84  0.001808646    1.301    0.231
        42  -8.8186     42.7051    188.6006   1.1829762222e+02   2.9952708672e+01    0.1665584   0.09752037  50.13  0.000926941    1.584    0.369
        43 -10.7331    123.4957    186.6186   9.9574209109e+01   1.8750139090e+01    0.2869261    0.1939583  81.63  0.001294544    2.164    0.538
        44  -9.2467     94.1162    186.8130   1.0643573542e+02   2.3520504826e+01    0.2243475    0.1853624 -75.53 0.0005939046    1.204    0.169
        45 -10.8552     98.6590    181.4893   1.0458475412e+02   2.4000073633e+01    0.4472535    0.3207498 -27.88  0.001983071    2.002    0.501
        46  -8.5841     38.3176    186.2147   1.1903176505e+02   3.0965403867e+01    0.1014911   0.09273658 -38.79 0.0006155236    1.484    0.326
        47 -11.4855    115.2246    182.2240   1.0078108062e+02   2.1117203757e+01    0.4200696    0.3282143 -50.24  0.002263184    1.353    0.261
        48 -10.2661    150.1568    178.3677   9.1945487156e+01   1.5667479072e+01    0.4407241    0.2785179 -70.73  0.001822522    2.500    0.600
        49 -11.0913    144.1753    178.6266   9.3370498238e+01   1.6728705685e+01    0.4475545    0.2501211 -49.00  0.001560518    1.880    0.468
        50 -10.2708    189.1055    177.1470   8.3134922684e+01   8.5302622604e+00    0.6219842    0.3770463 -56.38  0.002685687    2.327    0.570
        51  -8.6154    156.4381    189.7642   9.2650448505e+01   1.2218650335e+01    0.1876676    0.1344188 -32.90 0.0008413731    1.555    0.357
        52 -10.4545     53.3228    230.5750   1.1972421878e+02   1.9991002746e+01     0.294099    0.1568684 -89.48  0.001665264    1.943    0.485
        53  -9.8238     55.7470    174.5624   1.1384778502e+02   3.1627540804e+01    0.3062432    0.1868011  53.84  0.001623998    1.607    0.378
        54 -10.4402     46.3126    172.7084   1.1585844758e+02   3.3163590503e+01    0.3934947     0.323061  10.81   0.00120862    1.677    0.404
        55 -10.6359    138.8803    171.0383   9.3169326064e+01   1.9327078751e+01    0.4138102    0.2235167  35.93    0.0013402    1.860    0.462
        56  -9.2316    240.3097    169.3363   7.1604353950e+01   6.3268871139e-01    0.1420019   0.09404472  -1.35 0.0003849516    1.681    0.405
        57  -9.4694    230.2294    166.0132   7.2706986492e+01   2.9108536304e+00    0.1860539    0.1049537 -33.69 0.0005329202    1.638    0.390
        58 -10.5826    249.6128    228.9659   8.1386960539e+01  -9.1591845906e+00    0.2552427    0.1007625 -32.47  0.001264639    2.482    0.597
        59 -11.7138     93.9723    151.7919   1.0078842780e+02   3.1673708275e+01    0.7124013    0.5056354 -35.95  0.003440351    1.671    0.401
        60 -10.8163    133.8274    145.7259   8.9175022825e+01   2.5923157440e+01     1.293095    0.3383996 -54.97  0.002918772    6.228    0.839
        61  -9.7903    187.2115    151.6362   7.8030857899e+01   1.3755622241e+01     0.263439    0.2403013 -87.16  0.001378159    1.385    0.278
        62  -9.5271    112.7821    150.9171   9.5685358535e+01   2.8683437083e+01    0.2439957    0.1726956 -86.23 0.0009206206    1.903    0.475
        63  -9.2351    143.5687    145.8429   8.6765523934e+01   2.3951557741e+01    0.3746096    0.1469666 -55.48   0.00114421    3.362    0.703
        64  -9.6196    174.7001    149.2177   8.0210732827e+01   1.6815510390e+01    0.2577868    0.2433499 -83.98 0.0006696749    1.243    0.195
        65  -9.9492     85.2542    143.1704   1.0152839945e+02   3.5129845667e+01    0.4164588    0.1809415  45.39  0.001609639    2.456    0.593
        66 -10.6928    106.1660    137.8827   9.4735776490e+01   3.2954133418e+01    0.5388291    0.3471977 -30.27  0.002281909    2.014    0.503
        67 -11.5968     94.0203    137.8027   9.8059618363e+01   3.5045637905e+01    0.2856547    0.2577226 -41.95   0.00037778    1.136    0.120
        68 -10.4282    105.9481    130.6265   9.3195647497e+01   3.4727642924e+01    0.3943351    0.3281559 -58.61  0.001277279    1.176    0.150
        69  -9.5779    136.1660    129.3645   8.4763412589e+01   2.9163683533e+01     0.306045    0.1123493 -44.51 0.0009826274    2.692    0.629
        70 -10.2766    113.9724    129.1298   9.0630632185e+01   3.3609212209e+01    0.3374253    0.2916928 -16.88  0.000951314    1.302    0.232
        71  -8.4979     99.1006    130.5631   9.5099973903e+01   3.5944308314e+01    0.2078137    0.1471418  41.16 0.0004842519    1.471    0.320
        72  -8.9305    160.4829    127.4644   7.8263150440e+01   2.4389454354e+01    0.3029075    0.1443996 -52.85  0.001037695    2.530    0.605
        73 -10.3446    101.4200    124.9460   9.3171264683e+01   3.6890745458e+01    0.3119709    0.2427197 -29.11 0.0007583139    1.440    0.306
        74 -10.5797    120.4483    123.2091   8.7428691703e+01   3.3747862299e+01    0.4609216     0.353269 -19.46  0.002119776    1.582    0.368
        75  -9.3804    109.4724    118.3901   8.9297896252e+01   3.6981962963e+01    0.2543363    0.2410627 -45.73 0.0001826498    1.013    0.013
        76  -9.9884    231.2420    113.7183   6.0662377327e+01   1.1622399925e+01    0.2927456    0.2594113 -17.22 0.0007731358    1.089    0.082
        77  -9.1188    167.7122    112.6903   7.2755671896e+01   2.5850169872e+01    0.3201495    0.2314986 -76.62   0.00131564    2.086    0.521
        78 -11.2823    118.2411    110.0961   8.4672085962e+01   3.7197788745e+01    0.6275531    0.4577901  63.69  0.002527653    1.736    0.424
        79  -9.5061    205.3126    110.2557   6.4342874706e+01   1.7779962010e+01    0.2962731    0.2518142  52.39  0.001044967    1.267    0.211
        80  -9.6781    134.5697    105.0895   7.8837206100e+01   3.4893468624e+01    0.5461546    0.1520348 -43.61  0.001534397    3.511    0.715
        81  -9.4659     64.3128     99.6795   9.8576004635e+01   4.8714384336e+01    0.2266486    0.1795616  32.81 0.0007721171    1.406    0.289
        82 -10.3566     58.9392    229.8206   1.1860302481e+02   1.9444561677e+01    0.1733342     0.136147  81.58 0.0004019286    1.136    0.120
        83 -11.2537     51.9214     89.5933   1.0032646951e+02   5.2621641432e+01    0.3433944    0.3202768  83.69  0.001347082    1.260    0.206
        84  -8.9565    184.1462     77.1915   5.9486327051e+01   2.8648170108e+01    0.2323575    0.2069052  22.92 0.0005960597    1.233    0.189
        85  -9.4557     65.6147     70.5423   9.0055824141e+01   5.5119434978e+01    0.2717432    0.2154942  54.33  0.001394737    1.668    0.400
        86  -9.7348     72.3292    245.4017   1.1737525228e+02   1.4843535017e+01     0.242648     0.118142  59.82 0.0002725818    1.930    0.482
        87  -9.9064    158.1611    235.4868   9.9633221355e+01   3.7962675498e+00    0.2237103    0.2124551  41.96  0.001030651    1.179    0.152
        88  -7.1986     44.5729    230.4850   1.2134755266e+02   2.1046960198e+01    0.1177403   0.08492131  68.14 0.0002089069    1.091    0.083
        89  -9.8032    189.3519     14.9687   4.1111761990e+01   3.5976364883e+01     0.184366    0.1682929 -49.97  0.000710068    1.140    0.122
        90  -9.3492    168.0000    233.4168   9.7386804383e+01   2.5472056396e+00    0.2794262    0.1786096  53.39  0.001503955    1.820    0.451
