#   1 NUMBER                 Running object number                                     
#   2 MAG_AUTO               Kron-like elliptical aperture magnitude                    [mag]
#   3 X_IMAGE                Object position along x                                    [pixel]
#   4 Y_IMAGE                Object position along y                                    [pixel]
#   5 X_WORLD                Barycenter position along world x axis                     [deg]
#   6 Y_WORLD                Barycenter position along world y axis                     [deg]
#   7 A_WORLD                Profile RMS along major axis (world units)                 [deg]
#   8 B_WORLD                Profile RMS along minor axis (world units)                 [deg]
#   9 THETA_WORLD            Position angle (CCW/world-x)                               [deg]
#  10 FWHM_WORLD             FWHM assuming a gaussian core                              [deg]
#  11 ELONGATION             A_IMAGE/B_IMAGE                                           
#  12 ELLIPTICITY            1 - B_IMAGE/A_IMAGE                                       
         1 -12.8912      4.4577    135.2031   1.2763664639e+02   4.6156826549e+01     2.799751    0.7065277 -78.02   0.01191951    3.178    0.685
         2 -13.1161    179.5638     38.4126   5.8778199351e+01   3.5166149906e+01     1.315789     1.069847  21.94  0.006629553    1.391    0.281
         3 -13.3942    197.6230      7.7023   4.6831226229e+01   3.3911568339e+01     1.530977     1.090209  55.17  0.005857766    1.403    0.287
         4 -10.6370    181.3799      2.5864   4.7058906471e+01   3.8697152235e+01    0.4866555    0.2875652 -78.26  0.002162289    1.958    0.489
         5 -11.5128    172.6578      2.5898   4.8101795358e+01   4.1027300200e+01    0.5383307    0.3593541 -88.64   0.00147453    1.589    0.371
         6  -9.3025    139.0336      1.4107   5.2527690147e+01   5.0052666449e+01    0.2082318    0.1303217  67.06 0.0009879067    1.508    0.337
         7 -10.8234    184.4722    215.2761   9.9213652790e+01   5.8462003533e+00     0.396489    0.1716145  34.18  0.001909302    2.142    0.533
         8 -10.9676    248.9390    247.7154   9.3310668342e+01  -7.2958664304e+00    0.3952502    0.1839948 -30.45  0.002527338    2.586    0.613
         9 -10.1515    188.0827    249.0079   1.0311232830e+02   1.2649208920e+00    0.2540962     0.169747 -39.43  0.001271074    2.026    0.506
        10 -10.4955    140.8727    248.9033   1.1095234321e+02   8.3136776898e+00    0.2240457     0.179796 -66.73  0.001744907    1.680    0.405
        11 -14.1912     13.3289    249.0233   1.3154948637e+02   2.4309099113e+01    0.6704434    0.1695288  40.88  0.003904384    2.716    0.632
        12 -18.2411     38.6885    244.0422   1.2745407300e+02   2.2450224294e+01     3.998301     3.173183  46.97   0.02520857    1.441    0.306
        13  -9.1339    105.6779    199.3398   1.1194664751e+02   2.1190708661e+01    0.2555306     0.110267  52.70  0.001004217    2.129    0.530
        14  -9.4983    130.7853    214.6652   1.0894760611e+02   1.4716770200e+01     0.204571    0.1614556  70.88 0.0003635123    1.332    0.249
        15  -9.7228     31.6169    199.2167   1.2622033846e+02   3.0822783156e+01    0.1852228    0.1450981  41.90 0.0005937662    1.459    0.315
        16  -9.9509    192.6940    195.4616   9.4651639768e+01   7.1039408982e+00    0.6349945    0.3157586 -58.49  0.002245893    5.645    0.823
        17  -9.6418    139.4541    199.0244   1.0527873714e+02   1.5801227448e+01    0.2719923    0.1495056  44.45  0.001451451    1.509    0.337
        18  -9.7685    133.0150    198.9918   1.0653030203e+02   1.6881635002e+01     0.178771    0.1479195  49.60            0    1.010    0.010
        19  -8.5715    120.9345    198.3002   1.0881197648e+02   1.8974261652e+01    0.1704466    0.1332175  49.89 0.0002715394    1.066    0.062
        20  -8.0326     22.0948    203.4223   1.2819159843e+02   3.1026365715e+01    0.8464563    0.3828731  25.49  0.004465227    3.534    0.717
        21 -12.0815     15.7211    207.2440   1.2950561447e+02   3.0961582155e+01    0.2258505    0.1363005  32.45  0.001587156    1.976    0.494
        22  -9.4888     99.6997    193.1187   1.1241067918e+02   2.3217186320e+01    0.2167563    0.1529647  44.23  0.000265257    1.272    0.214
        23  -8.1599      7.9972    192.9215   1.3021504430e+02   3.4278464171e+01     0.133712    0.1056632 -66.17 0.0006907349    1.628    0.386
        24 -10.2607     45.4418    188.7934   1.2285765988e+02   3.1272849146e+01    0.2607891    0.1505543  50.79 0.0004805045    1.445    0.308
        25  -9.7364     42.0177    178.2704   1.2270992665e+02   3.3717244710e+01    0.3748897    0.1737465  36.16  0.002068765    2.166    0.538
        26 -11.7146     30.3733    188.5593   1.2578073568e+02   3.2955882874e+01    0.6791601     0.302889  30.79  0.002771265    2.654    0.623
        27 -10.9922     31.2664    178.3369   1.2490364089e+02   3.4853829598e+01    0.6592205    0.4159947  23.18  0.004092231    2.276    0.561
        28 -10.4744    242.3144    187.9478   8.4758118357e+01  -3.9420428274e-01    0.2497078    0.2186777 -50.05   0.00143832    1.782    0.439
        29  -9.5989    222.9983    188.0097   8.7995754704e+01   2.8241105246e+00    0.1773136    0.1447337  22.00  0.001157294    1.021    0.021
        30  -9.1983    230.0667    182.9491   8.5874494199e+01   2.2447461639e+00    0.1859908    0.1537105  18.89  0.000325743    1.034    0.033
        31  -9.1536    231.0717    178.0216   8.4788846084e+01   2.6858266772e+00      0.18768    0.1533814  16.71 0.0003066016    1.009    0.009
        32  -8.7789    126.5557    174.4922   1.0431947223e+02   2.2298846594e+01    0.1314069    0.1155958  56.22 1.704925e-06    1.007    0.007
        33 -13.0215     10.8408    206.4619   1.3031731111e+02   3.1560161521e+01    0.3771559    0.2391614  50.82  0.001762794    1.328    0.247
        34  -8.4596     13.9314    174.3723   1.2812123588e+02   3.7303167691e+01    0.1419481   0.08788656  44.69 0.0004899722    1.534    0.348
        35  -9.4118    231.3349    173.0157   8.3793801517e+01   3.2736832314e+00    0.1742123    0.1467147   1.63 0.0003569846    1.088    0.081
        36  -9.9334    104.2765    172.6647   1.0883084801e+02   2.6374879584e+01    0.2351838    0.2157366 -83.38  0.001545451    1.156    0.135
        37  -8.2354    151.9964    172.5217   9.8671348585e+01   1.8077722149e+01    0.1863645    0.1190247  43.86  0.000107848    1.384    0.277
        38 -10.6354    199.5672    170.1808   8.8887222159e+01   9.4690702687e+00    0.2836553    0.2196086  37.34 0.0003387401    1.151    0.132
        39  -9.6486    204.4503    166.3195   8.7239364102e+01   9.1140368968e+00    0.3578758    0.2542924 -50.18  0.001423662    1.833    0.455
        40  -8.7346    100.9813    215.0228   1.1455083086e+02   1.9208144210e+01    0.1665453    0.1265852  55.98            0    1.029    0.028
        41 -14.3300     29.7615    234.5758   1.2842823146e+02   2.4906869584e+01    0.3005253     0.235961  33.14  0.001697999    1.764    0.433
        42 -10.9748     20.9895    167.1154   1.2622124068e+02   3.8112622028e+01    0.5030214    0.2533883  32.82  0.002262936    2.178    0.541
        43 -10.6002     12.2495    160.2738   1.2760001321e+02   4.0286719000e+01     0.524899    0.3437316  44.91  0.003684701    1.509    0.337
        44 -11.3657     10.1999    154.2135   1.2764415700e+02   4.1706681585e+01    0.5649018    0.3236502  36.70  0.002897535    1.849    0.459
        45 -10.8455      4.0611    147.0597   1.2852629988e+02   4.3677717029e+01    0.3103964    0.2410022  42.58 0.0006601329    1.456    0.313
        46 -10.4354    241.2186    248.1156   9.4542710240e+01  -6.2852768112e+00    0.2118536    0.1542885 -10.38 0.0003605034    1.474    0.322
        47  -9.1300    189.9701    161.7850   8.9078675676e+01   1.2594136287e+01     0.221679    0.1976403 -28.53 0.0006496148    1.216    0.178
        48 -10.1238     97.3901    159.7790   1.0850285173e+02   3.0061289196e+01    0.2278832    0.2020406  60.51 0.0003788618    1.069    0.064
        49 -12.9187     28.3307    145.2741   1.2285098478e+02   4.1997813440e+01    0.8929617    0.3592648 -72.06  0.004538828    2.097    0.523
        50 -10.9605     22.3902    156.9019   1.2517802793e+02   4.0085883790e+01    0.3209007    0.2550539  61.56 0.0009213145    1.187    0.157
        51  -9.3237    189.2938    155.6655   8.7986785038e+01   1.3703657168e+01    0.2982011    0.2355886 -26.33  0.001661491    1.350    0.260
        52 -10.9262     90.1616    204.9226   1.1557618589e+02   2.2500518638e+01    0.5962406    0.2435115  58.36  0.002739869    2.655    0.623
        53 -11.0281     35.1276    154.6285   1.2214872737e+02   3.9322052609e+01    0.3655803    0.1634361 -78.39  0.001895459    2.023    0.506
        54  -8.5134      5.4400    214.3476   1.3155198332e+02   3.0674460605e+01   0.09274334    0.0707576  69.90 0.0006076065    1.172    0.147
        55 -10.7531    101.7580    153.2640   1.0649075927e+02   3.0704564528e+01    0.4821676    0.3877116 -26.93  0.002697104    1.752    0.429
        56  -9.9325    193.7690    167.2461   8.9414261805e+01   1.1011378827e+01    0.2629964    0.2516124  15.52 0.0007184002    1.129    0.114
        57  -9.9640     44.8080    154.1679   1.1989761529e+02   3.8382176515e+01    0.1887776    0.1365258  74.57 0.0005291757    1.196    0.164
        58  -8.5453    219.2301    153.2760   8.1939593214e+01   8.1779139810e+00    0.1570349    0.1540266  41.96 0.0002500814    1.266    0.210
        59  -9.9853    244.0362    205.9790   8.7628735101e+01  -2.6523008206e+00    0.1782419    0.1343137  17.12 0.0003308628    1.022    0.022
        60  -9.2195     84.9055    143.1180   1.0889980667e+02   3.5527672092e+01    0.2115013    0.1595687  73.45 0.0007537087    1.323    0.244
        61  -9.4815    111.4155    139.0490   1.0172712004e+02   3.2041857704e+01    0.3620289    0.2310257 -35.15  0.001674431    2.120    0.528
        62 -10.5265     27.1166    151.8499   1.2371507177e+02   4.0706110277e+01    0.2656285    0.1761757  84.20  0.001032647    1.255    0.203
        63 -10.8458    100.3855    138.4763   1.0431501669e+02   3.4067166770e+01    0.2565792    0.2305372  53.40 0.0005087148    1.109    0.098
        64 -12.5167     34.3338    134.7756   1.2034304211e+02   4.3709506028e+01    0.5320194    0.3955926  64.23  0.003250621    1.252    0.202
        65  -8.3428    237.3071    128.2972   7.3444515847e+01   8.1869024554e+00    0.1395493   0.09691954  12.69 0.0002267965    1.590    0.371
        66  -9.4924    105.4740    125.8206   1.0062452321e+02   3.5935016443e+01    0.2311245    0.2146112  11.00 0.0004752688    1.288    0.223
        67  -7.9277    222.7732    125.7766   7.5281273742e+01   1.1501502009e+01    0.1263799   0.09764514  12.49 0.0006529978    1.349    0.259
        68 -10.0685     36.9967    124.6758   1.1847936847e+02   4.5699648531e+01     0.170076    0.1482113  81.52  0.001165676    1.092    0.084
        69  -8.7734    117.2487    129.8065   9.8484861013e+01   3.2939158025e+01    0.1887934    0.1685851 -18.02 0.0006632782    1.365    0.267
        70  -8.5182     78.5296    120.4771   1.0667222537e+02   4.1511095344e+01    0.1344494    0.1226037 -81.78 2.147274e-05    1.026    0.025
        71  -8.1859    111.9630    119.2389   9.7572059583e+01   3.6186755108e+01    0.1752604    0.1182451  45.47 0.0003372965    1.472    0.321
        72  -8.6917    167.3047    112.8094   8.2839764569e+01   2.5896084426e+01    0.2851737    0.2037259  77.08  0.001246147    1.964    0.491
        73 -10.1037     42.5637    112.6872   1.1532207549e+02   4.7850781566e+01    0.2495853   0.09966239 -63.00  0.001137685    2.088    0.521
        74 -11.7367     30.1230    205.0912   1.2684170430e+02   2.9906759254e+01    0.1997167    0.1759256  58.69 0.0004373601    1.377    0.274
        75 -10.7796     26.9828    158.3585   1.2428546408e+02   3.9348161457e+01    0.3401797    0.2211752 -70.29  0.001144409    1.439    0.305
        76  -7.9808    162.5871    104.4446   8.1730384019e+01   2.8532990483e+01    0.1488417    0.1463267  16.63 9.574518e-05    1.011    0.011
        77  -9.4320    218.9641     98.8415   6.9410274686e+01   1.6404458376e+01    0.2090122    0.1989525   8.24 0.0003729359    1.033    0.032
        78  -8.4060    127.9950     91.1360   8.6401678380e+01   3.8909201281e+01    0.1872854    0.1820783  48.74  0.001022198    1.036    0.035
        79  -8.5333      9.8686     85.8816   1.2128656675e+02   5.6707502190e+01    0.1517691    0.1149162  82.42  0.001021276    1.272    0.214
        80  -7.8740    152.3154    212.2890   1.0463882069e+02   1.1590970167e+01    0.1163879   0.08596317  20.56 0.0001878839    1.590    0.371
        81 -10.1945    120.7266     62.0194   7.9405824968e+01   4.6191315164e+01    0.2424932    0.2128779  46.83 0.0002656637    1.158    0.136
        82 -11.6637    165.6047     53.3989   6.6094276997e+01   3.6680733593e+01    0.6155339    0.5065182 -61.14  0.001552731    1.345    0.257
        83  -8.5824    216.4705     50.2866   5.6827192237e+01   2.4053072146e+01    0.2808987    0.1442043 -22.10  0.001138998    2.085    0.520
        84  -9.9836    172.0081     49.9832   6.3780868262e+01   3.5531495599e+01    0.2522658    0.2191549 -14.83  0.001289691    1.207    0.172
        85 -10.4733      2.6637    243.2753   1.3295344470e+02   2.6200124721e+01    0.1194616   0.08392021  72.51 0.0003376443    1.157    0.136
        86 -12.0165    183.8326     31.8054   5.6016603408e+01   3.4885546632e+01    0.5935233    0.5101446  17.56  0.001218758    1.295    0.228
        87  -8.1897    221.9741     22.0054   4.8347378396e+01   2.6154060674e+01     0.159521    0.1478112 -59.23 0.0009375132    1.007    0.007
        88  -8.2775     18.0101     21.0114   1.0274667386e+02   7.0058446861e+01    0.1390025     0.108623 -38.75            0    1.003    0.003
        89 -10.5104    102.0908    200.3045   1.1276261863e+02   2.1565280595e+01    0.2429031    0.2083044  32.63 0.0009165191    1.380    0.276
        90  -9.2334     14.9841     17.9907   1.0313918701e+02   7.0868140620e+01    0.1678398    0.1304289 -39.45            0    1.013    0.012
        91  -9.3740    168.3361    234.2283   1.0460518629e+02   6.0097233023e+00    0.1936889    0.1544244  49.63 0.0005116008    1.206    0.171
        92  -9.4357     11.1661    217.0164   1.3070546947e+02   2.9687462053e+01    0.1280185    0.1161818  69.42 0.0005144422    1.496    0.332
