#   1 NUMBER                 Running object number                                     
#   2 MAG_AUTO               Kron-like elliptical aperture magnitude                    [mag]
#   3 X_IMAGE                Object position along x                                    [pixel]
#   4 Y_IMAGE                Object position along y                                    [pixel]
#   5 X_WORLD                Barycenter position along world x axis                     [deg]
#   6 Y_WORLD                Barycenter position along world y axis                     [deg]
#   7 A_WORLD                Profile RMS along major axis (world units)                 [deg]
#   8 B_WORLD                Profile RMS along minor axis (world units)                 [deg]
#   9 THETA_WORLD            Position angle (CCW/world-x)                               [deg]
#  10 FWHM_WORLD             FWHM assuming a gaussian core                              [deg]
#  11 ELONGATION             A_IMAGE/B_IMAGE                                           
#  12 ELLIPTICITY            1 - B_IMAGE/A_IMAGE                                       
         1 -15.4602    240.8636      6.7529   5.6381197111e+01   2.4706470584e+01      1.20325    0.6091318 -62.61   0.00646387    1.819    0.450
         2 -12.6065    142.0415      6.3658   6.7854201186e+01   4.8074913817e+01    0.2521679    0.1962153  43.87  0.001398924    1.222    0.182
         3 -11.3667    119.0306      7.0232   7.2352553162e+01   5.3319540665e+01    0.1589077     0.129273  49.17 0.0008426551    1.014    0.014
         4 -13.2235    150.1986      3.4313   6.5687722157e+01   4.6387428559e+01    0.4899615    0.1910549  45.75  0.002097109    2.513    0.602
         5 -12.0344    191.9713      4.5233   6.0522189309e+01   3.6226313347e+01    0.1884518   0.07593428  52.03 0.0008098182    2.519    0.603
         6 -11.4793    125.5015      4.5066   7.0242365868e+01   5.2068399144e+01    0.1293696    0.1055913  51.53 0.0001100749    1.013    0.013
         7 -11.7016    164.3204      1.6683   6.3177380323e+01   4.3151026132e+01    0.1315795   0.08730825 -73.01 0.0007048966    1.695    0.410
         8 -13.1715     24.1854    146.8246   1.3833395025e+02   4.2360480630e+01    0.2325042       0.1929 -50.38 0.0003756545    1.296    0.228
         9 -17.3437    243.3683    220.4993   1.0108039646e+02  -9.9352468743e+00     4.857784     1.276195 -37.24   0.01778072    3.813    0.738
        10 -20.5687    101.2163    181.1204   1.2443511777e+02   2.3944387360e+01     11.64172     7.097363  37.20   0.05405118    1.708    0.414
        11  99.0000    179.6605    217.6136   1.1310127789e+02   1.5607669758e+00    0.7306504    0.3191362  47.82  0.002953315    2.275    0.561
        12 -14.8211     47.4685    148.8820   1.3269827875e+02   3.9493485119e+01    0.4775085    0.2800887  39.00  0.002073824    1.853    0.460
        13 -12.2756    191.8460    218.4471   1.1073028046e+02  -8.3427536965e-01    0.2087574    0.1222834  37.35  0.001003466    1.539    0.350
        14 -11.3156    204.6604    212.3181   1.0700906865e+02  -2.1156084948e+00    0.2274954    0.1185959 -28.78 0.0009749601    2.341    0.573
        15 -12.2903    159.1247    140.5198   1.0192458489e+02   2.1705052436e+01    0.4686971    0.2993215  78.18  0.001661252    2.754    0.637
        16 -12.7354    171.5731    138.0150   9.8430419345e+01   1.9432871258e+01    0.5385792      0.23456  57.20   0.00133923    3.038    0.671
        17 -12.2037    206.5945    206.3546   1.0549728676e+02  -1.4440444851e+00    0.2452842    0.2266894 -44.32  0.000951647    1.262    0.207
        18 -12.4250    194.3665    202.9168   1.0734420244e+02   1.4511558772e+00    0.2890589    0.2563113 -30.46  0.001659265    1.186    0.157
        19 -12.2107    199.7522    199.3921   1.0555245222e+02   1.0681679615e+00    0.2436297    0.2035137 -59.85  0.001273691    1.488    0.328
        20 -12.1770    219.9153    198.0870   1.0124595598e+02  -2.4467558588e+00    0.2041152    0.1828223   5.81 0.0004211525    1.002    0.002
        21 -13.2521    206.1149    192.9559   1.0298289731e+02   1.0256831476e+00    0.4584824    0.3847802 -74.53  0.002338493    1.651    0.394
        22 -12.0855    149.2119    234.3810   1.2215214028e+02   4.1163683943e+00    0.6045231    0.2059654  40.14  0.002309144    2.569    0.611
        23 -11.9089    177.1286    134.9174   9.6436290395e+01   1.8822114323e+01    0.2311187    0.2264704 -53.44 0.0004005431    1.021    0.021
        24 -11.9125    169.1214    229.5163   1.1729447773e+02   1.3860853496e+00    0.2026602    0.1184675  42.76 0.0009917532    1.488    0.328
        25 -11.7563    174.4754    130.8390   9.6041068794e+01   2.0297260926e+01    0.2345476    0.2098763  49.24 0.0005945789    1.114    0.102
        26 -11.7338     43.2981    233.5815   1.4302120768e+02   2.0977369363e+01    0.2672718    0.1169042 -87.87  0.001280221    2.504    0.601
        27 -11.6563    197.7914    191.3687   1.0437817170e+02   2.9259257394e+00     0.196367    0.1281049  31.64 0.0001537319    1.544    0.352
        28 -12.5571    200.8116    184.2838   1.0231774546e+02   3.6679541205e+00    0.4346759    0.2244808 -44.60  0.001707303    2.018    0.504
        29 -13.9571     54.5602    125.9802   1.2687175442e+02   4.4110194788e+01     0.326966    0.2588441  79.21  0.001287033    1.447    0.309
        30 -11.5543    197.4796    186.3240   1.0342679142e+02   3.9403131954e+00    0.1762553    0.1418677 -53.64 0.0009029515    1.415    0.293
        31 -13.2615     47.4055    123.0931   1.2839200685e+02   4.5617285481e+01    0.3027231    0.1840258 -41.00 0.0008348707    1.703    0.413
        32 -12.3161    147.2500    122.6324   1.0043266456e+02   2.8331171028e+01    0.3519037    0.2606935  74.07  0.000691573    1.713    0.416
        33 -13.4449    137.5276    119.9429   1.0220742897e+02   3.1094736525e+01    0.3310743    0.2901175 -30.11 0.0004614549    1.212    0.175
        34 -12.8623     20.1330    116.3820   1.3510140420e+02   4.9724947212e+01    0.3124077    0.2317507  73.58 0.0008223014    1.582    0.368
        35 -11.0984    198.6262    120.2170   8.8332297044e+01   1.6854480357e+01    0.1998026     0.145395 -32.19 0.0002239945    1.453    0.312
        36 -11.5214    208.7049    184.7327   1.0079390907e+02   2.0357915577e+00     0.179016    0.1680427 -75.81 0.0005141661    1.301    0.231
        37 -13.0599    214.6101    181.2848   9.8898388375e+01   1.5275737105e+00    0.3744877    0.2663784 -46.45  0.001323913    1.500    0.334
        38 -13.3613    144.1454    115.4449   9.9364938030e+01   3.0598935381e+01    0.3457096    0.2925483  73.99 0.0006494672    1.321    0.243
        39 -12.2014    221.5532    232.7290   1.0738029048e+02  -8.2549998462e+00    0.2819961     0.215418 -58.14  0.001240024    2.044    0.511
        40 -11.9945    153.5258    115.0958   9.6960722545e+01   2.8521407574e+01    0.2343799    0.2108919  50.18 0.0003201865    1.100    0.091
        41 -12.4017     20.9646    120.5251   1.3551203426e+02   4.8715973041e+01    0.2437699    0.1634836 -34.61  0.001040731    1.672    0.402
        42 -12.7245    158.9044    112.4483   9.4986714945e+01   2.7822302363e+01    0.2865022    0.2505199 -54.49  0.000325318    1.166    0.142
        43 -13.5810    151.6335    107.9984   9.5555270066e+01   3.0455708351e+01    0.5580798    0.3399479  73.13  0.001811261    2.671    0.626
        44 -13.2865     79.2335    108.0938   1.1564267781e+02   4.4878645234e+01     0.281347    0.2484443  10.14 0.0005374392    1.236    0.191
        45 -11.5670    193.8077    176.0698   1.0207820421e+02   6.6700424583e+00    0.2038019    0.1967402  84.16 0.0003596927    1.162    0.139
        46 -12.0941    222.0784    172.0956   9.5508537967e+01   1.7688394530e+00    0.2095578    0.1978698 -15.51 0.0003528697    1.047    0.045
        47 -12.9772    140.5565    106.9581   9.8030024912e+01   3.3224465882e+01    0.3196568     0.216005  32.88  0.001214593    1.669    0.401
        48 -11.3457    176.1429    223.6511   1.1487235958e+02   1.1361728197e+00    0.3684942     0.290398  88.64  0.001956207    1.860    0.462
        49 -11.8960    197.7201    170.8738   1.0015152691e+02   6.8899566121e+00    0.2395315    0.1953506  28.64  0.000433767    1.244    0.196
        50 -12.4237    210.1791    169.4440   9.7288135134e+01   4.6199430194e+00    0.3991171    0.2576007 -15.70  0.001703363    2.107    0.525
        51 -13.1801    144.8862    102.6195   9.5767949058e+01   3.3136926401e+01    0.3937813    0.2927665 -11.74 0.0009460711    1.819    0.450
        52 -12.8980     97.5118    103.1309   1.0887985270e+02   4.2914515687e+01    0.2535811    0.2087697  37.36 0.0003807069    1.255    0.203
        53 -12.5345     80.9136    103.3187   1.1393761911e+02   4.5684930084e+01    0.1950224    0.1832418  13.35 0.0004596341    1.116    0.104
        54 -10.9594    198.7139    225.2851   1.1054835531e+02  -3.2183407804e+00    0.1219896    0.1040928  65.11 0.0003778343    1.527    0.345
        55 -12.8347    129.3148    101.1198   9.9367059498e+01   3.6955840247e+01    0.2927342    0.2273648  52.66 0.0005181663    1.318    0.241
        56 -13.2372    142.6104     96.1648   9.4561684323e+01   3.4973751187e+01    0.4020643    0.3043364 -21.11  0.001841802    1.574    0.365
        57 -12.9544    131.6976     96.8824   9.7561156390e+01   3.7304922052e+01     0.312897    0.2293709  55.34  0.001446741    1.427    0.299
        58 -12.4069    165.0245    234.1307   1.1886986361e+02   1.3205864468e+00    0.2082234     0.164306  12.56   0.00117276    1.477    0.323
        59 -12.6769     61.9351     95.3121   1.1788961768e+02   5.0183504427e+01    0.3814336    0.2357742 -27.70  0.001833602    1.880    0.468
        60 -11.9381     19.3447     94.8452   1.3158841597e+02   5.4578578148e+01    0.1821433    0.1664758  51.89 0.0008504022    1.360    0.265
        61 -11.5717     97.5305     93.5099   1.0624866595e+02   4.4969319553e+01    0.1455684    0.1384584 -19.96 0.0001262934    1.003    0.003
        62 -13.4667    131.8154     91.3984   9.5982259151e+01   3.8381255890e+01    0.3099899    0.2930178  73.15  0.001653535    1.121    0.108
        63 -13.4722    110.7646     89.1539   1.0111544285e+02   4.3316126407e+01       0.4111    0.2637114  51.84  0.001115356    1.698    0.411
        64 -13.3203     89.5044     85.9232   1.0654168020e+02   4.7962652321e+01    0.3433558    0.2808203  69.33  0.001223976    1.634    0.388
        65 -13.2172     73.1094     87.9206   1.1232185420e+02   5.0196268491e+01    0.3282385    0.2633825   6.15  0.000901476    1.356    0.263
        66 -12.1253     36.0398     88.2997   1.2473227918e+02   5.4604777119e+01    0.1664872    0.1509492 -34.08 0.0003744457    1.099    0.090
        67 -12.7924    123.1904     87.0452   9.7029108668e+01   4.1136160468e+01    0.2709574    0.2193308  51.14 0.0002745989    1.255    0.203
        68 -12.5570    116.5923     87.2833   9.8919069384e+01   4.2492588260e+01    0.2705398    0.1814641  54.82 0.0006920834    1.645    0.392
        69 -11.9996    186.0910    162.0876   1.0072332475e+02   1.1118065861e+01    0.2298002    0.2194244  -5.93 0.0008645669    1.061    0.058
        70 -11.7401    195.5952    158.0128   9.7787540325e+01   9.9089197226e+00    0.2222982     0.194012  41.09 0.0001898128    1.144    0.126
        71 -11.7900     81.4626     76.4810   1.0630357872e+02   5.1189799444e+01    0.1392899    0.1258685 -14.25 0.0001183629    1.011    0.011
        72 -14.5250     96.8929     72.0260   1.0007107169e+02   4.9310740374e+01    0.6366171    0.4527718 -17.64  0.003165086    1.587    0.370
        73 -12.1241     67.0358     73.9755   1.1034034825e+02   5.3889977168e+01    0.2117174    0.1789538 -22.51 0.0006987268    1.066    0.061
        74 -13.2325     82.5658     71.3930   1.0438551189e+02   5.1972791039e+01     0.408098     0.295183 -69.02  0.001972481    2.177    0.541
        75 -11.6706     44.4775    223.4835   1.4195663484e+02   2.2894749475e+01    0.4390645    0.1288704  38.81  0.001874999    3.152    0.683
        76 -12.6769    116.9650     53.9092   8.8483974859e+01   4.8270801377e+01    0.2887296    0.2255755  67.72 0.0006904437    1.531    0.347
        77 -11.5505     70.2257     49.5604   1.0133163450e+02   5.7747440883e+01    0.1698488    0.1133614  21.55 0.0002775632    1.500    0.334
        78  99.0000    154.9450    233.9989   1.2091655046e+02   3.1561442619e+00    0.4843751     0.227338  52.93  0.002048342    2.287    0.563
        79 -12.7945     96.5978     39.5064   8.9295065547e+01   5.4557155434e+01    0.3834623    0.2203534  32.90  0.001430804    1.718    0.418
        80 -13.6295     18.0566    153.2413   1.4060026763e+02   4.1411279557e+01    0.2498658    0.1978284 -67.82 0.0004079703    1.132    0.117
        81 -11.8688     60.3071     28.1521   9.6951231636e+01   6.2378061495e+01    0.2031693    0.1353551  -8.67  0.001200858    1.459    0.315
        82 -12.4476     22.4983    248.3610   1.4766561107e+02   2.0582725995e+01    0.1984511    0.1601267  67.80  0.001413791    1.257    0.204
        83 -11.9048     28.9609    246.2991   1.4646086277e+02   2.0227295559e+01    0.2224211    0.1256908 -61.18  0.001376459    2.108    0.526
        84 -13.4415     20.1035    149.5117   1.3967173274e+02   4.2096403131e+01    0.2541389    0.1943092  67.26 0.0008776112    1.347    0.257
        85 -10.7791     41.0720    245.1946   1.4431246462e+02   1.8970040912e+01    0.2934741   0.09764861  47.69  0.001447672    2.357    0.576
        86  99.0000     62.6041    237.2623   1.3976794146e+02   1.7682023738e+01    0.3354514    0.1809751  63.76  0.001834251    1.676    0.403
        87 -14.0040     27.8046    149.5474   1.3778056943e+02   4.1392230278e+01    0.3292861    0.2348382 -74.81 0.0007274514    1.157    0.135
