#   1 NUMBER                 Running object number                                     
#   2 MAG_AUTO               Kron-like elliptical aperture magnitude                    [mag]
#   3 X_IMAGE                Object position along x                                    [pixel]
#   4 Y_IMAGE                Object position along y                                    [pixel]
#   5 X_WORLD                Barycenter position along world x axis                     [deg]
#   6 Y_WORLD                Barycenter position along world y axis                     [deg]
#   7 A_WORLD                Profile RMS along major axis (world units)                 [deg]
#   8 B_WORLD                Profile RMS along minor axis (world units)                 [deg]
#   9 THETA_WORLD            Position angle (CCW/world-x)                               [deg]
#  10 FWHM_WORLD             FWHM assuming a gaussian core                              [deg]
#  11 ELONGATION             A_IMAGE/B_IMAGE                                           
#  12 ELLIPTICITY            1 - B_IMAGE/A_IMAGE                                       
         1 -13.5321    244.0971    105.9999   4.4244378192e+01   1.2124585885e+01     1.894821    0.7194448 -41.11   0.00833706    2.161    0.537
         2 -12.1053    248.5494     23.5657   2.7955853749e+01   2.3229574560e+01     0.583734    0.3237467 -32.38  0.003501334    2.134    0.531
         3 -11.1891    249.2388     16.3824   2.6632379887e+01   2.3939040067e+01    0.3142042     0.248541 -23.03  0.002260047    1.939    0.484
         4 -11.4668    238.3519     15.6748   2.7218325605e+01   2.6041133189e+01    0.3599946    0.2110438  55.20  0.002210503    2.277    0.561
         5 -11.2045    242.8480      9.3636   2.5787431743e+01   2.5896558683e+01    0.2711906    0.1865129 -34.30  0.001893984    1.739    0.425
         6  -9.9373      6.7679      8.6589   7.9481492006e+01   7.3313693527e+01     0.281415    0.1913737 -15.02  0.001953093    1.154    0.134
         7 -10.2693    164.3571      7.1857   3.1820518560e+01   4.2542355514e+01     0.383866    0.2528133 -69.48  0.002288249    1.510    0.338
         8 -10.0651    167.5247      3.6890   3.0615699972e+01   4.2139677351e+01    0.3377632    0.2753429 -50.43  0.002321551    1.313    0.238
         9 -10.5292    249.3561      2.7431   2.4256572234e+01   2.5412449803e+01    0.2736348    0.2267857  57.83  0.002153418    1.789    0.441
        10 -11.5671    236.1894      3.0667   2.5063830467e+01   2.7815816565e+01    0.5045241    0.2604477 -80.11  0.003131727    1.694    0.410
        11  -9.9008    219.5559    220.4357   7.0761861579e+01  -4.2497605668e+00    0.2390357    0.1881109  42.56  0.001439082    1.763    0.433
        12  -8.0248      3.3376    250.2986   1.2151227993e+02   1.8876197793e+01   0.09917615   0.08474107 -47.78 0.0005432235    1.658    0.397
        13  -9.2173     20.3287    217.2760   1.1608800223e+02   2.4418824370e+01    0.2156454    0.1629667  50.08  0.000831646    1.222    0.182
        14 -10.6738      7.9410    213.4733   1.1858095825e+02   2.6459171681e+01    0.3415725    0.2116909  68.24  0.001906977    1.426    0.299
        15  -8.3474     14.9787    214.3530   1.1707850312e+02   2.5612293103e+01    0.1840992   0.09995002 -10.86 0.0007046129    4.530    0.779
        16 -12.2040    247.4660    196.6466   6.1422303307e+01  -3.9072459587e+00    0.6435449    0.5266167 -52.00  0.004125602    1.657    0.396
        17 -11.1278    247.0586    205.3135   6.3074855507e+01  -5.2578540800e+00    0.3968231    0.2191936 -28.78  0.001806965    1.504    0.335
        18  -9.7698    238.0322    207.3200   6.4999618877e+01  -4.4641508394e+00    0.1792386    0.1452297 -10.91  0.001169974    1.074    0.069
        19  -8.3772     10.5431    207.4427   1.1760332622e+02   2.7638276259e+01    0.1263563    0.1035354  78.32  0.000147977    1.009    0.009
        20  -8.5661      1.7519    226.5772   1.2065416303e+02   2.4043757399e+01    0.1623612   0.09038355  45.72 0.0009419754    1.573    0.364
        21 -11.0754      5.4770    201.5091   1.1835900289e+02   2.9483594186e+01    0.4421719    0.2951324 -12.84  0.002400968    2.377    0.579
        22  -9.3429     15.8998    220.0227   1.1725990723e+02   2.4217338879e+01    0.2742312    0.1113993  52.90  0.001269662    2.244    0.554
        23 -11.0142    228.2590    191.1116   6.3718731921e+01  -4.1733132063e-01    0.5065791    0.1933973 -33.57  0.002052622    2.514    0.602
        24 -10.4988      2.7028    193.5870   1.1847089431e+02   3.1612765849e+01    0.3273556    0.1532262  84.19   0.00153804    2.070    0.517
        25 -10.0441     20.6917    190.4903   1.1386445637e+02   3.0835954362e+01    0.2466502    0.2183767 -47.35  0.001035351    1.311    0.237
        26 -11.2402    249.6862    208.6617   6.3235413440e+01  -6.1038404660e+00    0.5171294    0.3095278 -17.11  0.002963224    1.565    0.361
        27  -8.5370      7.1583    226.8399   1.1954971551e+02   2.3501072514e+01     0.153663      0.13425 -65.68   0.00106953    1.356    0.262
        28 -10.0554      3.6289    178.6586   1.1716488226e+02   3.5216123803e+01    0.2861218    0.1792407 -46.12  0.001547064    1.805    0.446
        29  -9.9614      2.1577    186.0992   1.1808032763e+02   3.3482148076e+01    0.2740838    0.1365497 -65.77  0.001053107    1.751    0.429
        30 -10.3527      5.1472    182.3538   1.1706965296e+02   3.4180885692e+01    0.2640444    0.1477961 -61.31  0.001382062    1.643    0.391
        31 -12.2764    244.0787    183.2331   5.9480112552e+01  -1.2316673904e+00    0.7983028    0.3552577 -26.82  0.003426533    2.542    0.607
        32 -10.8626     23.5205    185.5023   1.1269109134e+02   3.1823894351e+01    0.2774234    0.1972029  68.64  0.001272215    1.358    0.264
        33 -10.2284    230.0153    179.5023   6.1165361015e+01   1.3862240471e+00    0.2336917    0.2150537 -76.08  0.001464315    1.569    0.363
        34 -11.9813     12.3244    178.0725   1.1489940848e+02   3.4687155594e+01    0.7912773    0.3516538  58.83  0.003401964    2.506    0.601
        35 -12.1948      5.5340    158.6154   1.1495482222e+02   4.0162041702e+01    0.9753137    0.4480851  82.82  0.004114967    2.472    0.596
        36  -9.8698      1.7298    162.7669   1.1636639127e+02   3.9357553848e+01    0.3194515    0.1955684 -81.06  0.001467932    1.378    0.274
        37 -10.6857    242.6933    154.7814   5.4196160585e+01   3.9003061148e+00    0.3150959    0.1552181 -36.61  0.001520938    1.704    0.413
        38 -11.8713    248.3955    159.4974   5.4235425943e+01   2.2408961380e+00    0.7507153    0.2907183 -49.53  0.003037697    2.825    0.646
        39 -11.7797    247.6273    149.4982   5.2403202833e+01   4.0847987370e+00    0.5175807    0.4170712 -67.66  0.003172811    1.608    0.378
        40 -11.0083    248.2557    142.6509   5.0966606979e+01   5.1773916535e+00    0.4341723    0.2669297 -53.70  0.002325897    1.690    0.408
        41 -12.1884      7.4253    167.0478   1.1521211242e+02   3.7869497895e+01    0.8499807    0.6232218 -39.84  0.004909632    1.564    0.360
        42  -9.7190     81.4861    144.5410   8.9779915708e+01   3.5461444565e+01    0.3347493    0.3220154 -51.86  0.001788806    1.010    0.010
        43 -10.5816     12.6872    138.8728   1.1072345570e+02   4.4780595554e+01    0.3492029    0.1893855  57.39  0.001596427    2.244    0.554
        44 -12.3161    240.4112    129.9481   4.9577610785e+01   8.6353529369e+00     0.721073    0.5653945 -68.71  0.004295999    1.511    0.338
        45 -12.2312    248.7966    125.1876   4.7445840098e+01   8.0991143421e+00     1.131456    0.4276984 -35.81  0.004703635    2.512    0.602
        46 -11.3526    250.1083     85.1894   3.9412139529e+01   1.4445234578e+01     1.097425    0.2231755 -39.41  0.003650354    4.204    0.762
        47  -8.0287     16.9802    249.0000   1.1880922004e+02   1.7811390069e+01    0.1829192   0.05922039  30.05 0.0008042171    2.955    0.662
        48 -10.1795     20.1321    135.1376   1.0787251740e+02   4.5205988190e+01    0.2231171    0.1664089 -48.58  0.001226356    1.246    0.198
        49  -9.6781     11.3755    131.7649   1.1024205040e+02   4.6714420788e+01    0.2096047   0.09825212 -60.72 0.0009534055    1.704    0.413
        50 -10.9751     57.3586    128.3122   9.4267866152e+01   4.3172284822e+01    0.7066478    0.3871624 -42.36  0.002965029    1.818    0.450
        51 -10.8211      7.1650    125.6204   1.1081752861e+02   4.8562178684e+01       0.3187    0.1661033  45.61  0.001497855    2.295    0.564
        52  -9.8480    116.7811    123.4944   7.4156534139e+01   3.4405033584e+01    0.3208217    0.2261016 -46.58  0.001420188    1.390    0.281
        53 -11.8347      3.1821    109.9598   1.1004233349e+02   5.2750523429e+01     0.821322     0.298688 -58.92  0.003582893    2.014    0.504
        54 -11.7598    240.2981     89.1419   4.1322690119e+01   1.5558877308e+01    0.6338865    0.2281996 -44.53  0.002762359    2.248    0.555
        55  -9.1840     48.4968     99.2332   9.0886371930e+01   5.1599706231e+01    0.3080187    0.1910014 -48.06  0.001460386    1.441    0.306
        56 -11.4931     14.1308     96.0044   1.0361145425e+02   5.5570113440e+01    0.7159768     0.330032 -52.38  0.003356539    1.706    0.414
        57  -9.9840     38.1676     98.3508   9.4665962840e+01   5.2974832160e+01    0.4085583    0.2881285   2.59  0.002100084    1.564    0.361
        58  -9.1106     85.5112     82.0005   7.2305499809e+01   4.9747124576e+01    0.2181016    0.1222953 -22.85 0.0008103317    2.559    0.609
        59 -11.7427      5.8779     68.0475   1.0114322361e+02   6.2544214926e+01    0.7906084     0.603799  78.01  0.004644722    1.928    0.481
        60 -11.0833    248.6518     43.9170   3.1670961210e+01   2.0662108681e+01    0.3127633    0.2890683  41.69  0.002331776    1.662    0.398
        61 -12.6371    248.9765     62.5699   3.5162292643e+01   1.8034198225e+01    0.8588181    0.5084019 -44.78  0.004832903    1.403    0.287
        62  -9.9543     21.8674     55.2141   8.9921967219e+01   6.4094841882e+01    0.4549018    0.2641128 -22.73   0.00239638    1.654    0.395
        63 -11.3549    250.0723     51.5485   3.2976396408e+01   1.9380063052e+01    0.6400003    0.2081246 -42.46  0.003004184    2.413    0.586
        64  -8.9725     96.4974     54.4643   5.9615662007e+01   5.2536665319e+01    0.1419436    0.1283245  27.69 -0.0002293224    1.005    0.005
        65 -11.3864    233.6686     47.3091   3.3642505399e+01   2.3023480584e+01    0.4032778    0.2728905 -26.77  0.002369756    1.954    0.488
        66  -9.0107     14.2568     49.3593   9.1819025527e+01   6.5881867676e+01    0.2453621    0.1180468 -42.01  0.001040904    1.694    0.410
        67 -10.1854     81.8044     45.1985   6.0969607131e+01   5.6946077908e+01    0.2910719    0.2105443  26.44  0.001501809    1.327    0.246
        68  -9.8036     50.3970     42.9367   7.2107398435e+01   6.2840412383e+01    0.4463449    0.2870355 -13.85  0.002350409    1.663    0.399
        69 -10.5891    249.4004     36.6531   3.0268883196e+01   2.1466264760e+01    0.3086287    0.1029284 -43.53  0.001523514    2.320    0.569
        70  -9.4067    109.8976    245.4902   9.8448716181e+01   6.9074015366e+00    0.2113635    0.1836964  -8.74  0.001288824    1.299    0.230
        71  -9.7293     41.2868     32.6847   7.1987753943e+01   6.5768683315e+01     0.507561     0.168147 -39.99  0.002091702    3.095    0.677
        72  -9.6859    235.8044     33.5754   3.0773445076e+01   2.4399053652e+01    0.1634773   0.09365264 -87.46 0.0009505483    1.729    0.422
        73  -9.8464     66.3658     24.5309   5.8157272525e+01   6.2652744866e+01    0.3212604    0.2349294 -64.20  0.001667608    2.590    0.614
        74  -9.2065    248.1896    240.1917   6.8968394081e+01  -1.0648307446e+01    0.2600628    0.1808157 -41.19  0.001682945    1.760    0.432
        75  -9.1500    202.3319     18.4564   3.0605193925e+01   3.2990440283e+01    0.2084256    0.1565836  62.79  0.001348392    1.436    0.304
        76  -8.9995     26.1272    233.7454   1.1598334447e+02   2.0111345486e+01    0.2338855    0.1423637 -49.01  0.001269624    2.123    0.529
        77  -9.5538     13.7574    231.9323   1.1847293164e+02   2.1757535518e+01    0.4113954    0.1528285 -77.95  0.001902339    2.508    0.601
        78 -10.8906     39.2756    223.9836   1.1233624298e+02   2.0868038359e+01    0.7554349    0.3986973  78.89  0.003575135    2.138    0.532
        79 -11.5191     32.5640    216.7203   1.1326261179e+02   2.3288586313e+01    0.4604794    0.3116041 -77.75  0.001532274    1.388    0.280
        80 -12.8375     35.0724    207.8447   1.1189837796e+02   2.5126017663e+01     1.566419    0.7114208  73.97  0.006191828    2.921    0.658
        81  -8.7498     10.5138    221.4685   1.1852117886e+02   2.4395672679e+01    0.2497075    0.1065016 -80.82  0.001039261    2.143    0.533
