#   1 NUMBER                 Running object number                                     
#   2 MAG_AUTO               Kron-like elliptical aperture magnitude                    [mag]
#   3 X_IMAGE                Object position along x                                    [pixel]
#   4 Y_IMAGE                Object position along y                                    [pixel]
#   5 X_WORLD                Barycenter position along world x axis                     [deg]
#   6 Y_WORLD                Barycenter position along world y axis                     [deg]
#   7 A_WORLD                Profile RMS along major axis (world units)                 [deg]
#   8 B_WORLD                Profile RMS along minor axis (world units)                 [deg]
#   9 THETA_WORLD            Position angle (CCW/world-x)                               [deg]
#  10 FWHM_WORLD             FWHM assuming a gaussian core                              [deg]
#  11 ELONGATION             A_IMAGE/B_IMAGE                                           
#  12 ELLIPTICITY            1 - B_IMAGE/A_IMAGE                                       
         1 -12.7715    199.4918     34.2843   6.1539086494e+01   3.1549354246e+01    0.9595355    0.8062198  58.85  0.005855437    1.338    0.252
         2 -13.6135    215.0400     17.5941   5.6344742144e+01   3.0152314107e+01     1.152696    0.8744579  44.49   0.00730914    1.876    0.467
         3 -10.3842      2.0768      4.3349   1.0350424410e+02   7.1811111250e+01    0.3293011   0.09487748 -35.79   0.00168536    2.998    0.666
         4 -10.9514     88.8697    246.8638   1.2944725964e+02   1.0394745291e+01    0.4307142    0.2689686 -29.89  0.001886555    3.375    0.704
         5 -11.5404    175.0120    249.5074   1.1204080845e+02  -4.0049363338e+00    0.6756178    0.2819112  52.46  0.002379263    4.019    0.751
         6 -11.3506    162.1017    249.4435   1.1466243890e+02  -1.9152840206e+00    0.4043894    0.1871671  33.69  0.001817273    2.033    0.508
         7 -11.6059    139.9820    248.4523   1.1908384396e+02   1.8889045476e+00     0.427215     0.309851 -60.04  0.002415597    1.595    0.373
         8 -11.4681    126.5296    249.5392   1.2202433862e+02   3.8882749192e+00    0.3755552    0.2308098  40.42   0.00176416    1.433    0.302
         9  -9.4034     62.9752    250.4943   1.3497966158e+02   1.3427718967e+01    0.1845732    0.1054567  44.93 0.0004833055    1.543    0.352
        10 -14.5294     93.0451    230.3262   1.2657900076e+02   1.3234197593e+01     3.709245    0.9087301  43.15   0.01246072    3.466    0.712
        11 -15.2044     14.3372    241.5443   1.4337605749e+02   2.1328629666e+01     16.43524     4.095511 -77.47   0.06341722    3.919    0.745
        12 -11.2854    148.9638    228.7085   1.1418709854e+02   4.1919853829e+00    0.5011007    0.1524843  40.08  0.001735444    2.993    0.666
        13  -8.9465     45.2705    247.3283   1.3809334322e+02   1.6450633558e+01    0.1067652   0.09081303 -55.08 0.0003466932    1.581    0.368
        14 -10.7850    100.5171    249.3927   1.2736460761e+02   8.0842693314e+00    0.2498687      0.18619  51.86   0.00107371    1.158    0.137
        15  -8.4463     95.4795    219.4897   1.2460655299e+02   1.5244674361e+01    0.1384565    0.1259844  71.36 0.0007149305    1.034    0.033
        16 -10.6745    225.3532    199.9601   9.3268420175e+01  -3.3541685190e+00     0.450414    0.2592583 -57.69  0.001040631    2.547    0.607
        17  -9.8641    176.4996    242.9865   1.1070216144e+02  -3.1166233155e+00     0.171315    0.1196898 -77.24 0.0008105189    2.590    0.614
        18  -9.5307    192.1460    193.4080   9.8535698471e+01   3.6008133101e+00    0.4376927     0.196721 -60.87  0.001244133    5.048    0.802
        19 -11.4454     57.4847    191.8728   1.2962041456e+02   2.7446990052e+01    0.3926538    0.2610415 -45.17 0.0007559432    1.792    0.442
        20  -8.5236    181.5335    192.4263   1.0057698400e+02   5.7564367618e+00     0.143205    0.1387019  -3.39 0.0001221777    1.014    0.014
        21 -11.5375     63.7982    184.5356   1.2709034755e+02   2.8385081888e+01    0.3149197    0.2463127 -49.36 0.0006717189    1.389    0.280
        22 -12.5439     28.9598    223.7113   1.3925362463e+02   2.3537304602e+01    0.3337863    0.3004228 -77.07 0.0008446701    1.313    0.238
        23 -13.8013     35.2915    216.0083   1.3727074881e+02   2.4533460906e+01     0.903906    0.7146174  70.07  0.002934354    1.103    0.093
        24 -10.6960     74.3804    172.9308   1.2264451026e+02   2.9745623709e+01    0.2746596     0.232358 -60.58 0.0004417693    1.137    0.120
        25 -13.0275     60.9395    170.1735   1.2566015263e+02   3.2355983959e+01    0.5698284    0.2946159 -44.60  0.001932164    2.228    0.551
        26 -11.7105     82.4550    164.4108   1.1906750759e+02   3.0640239444e+01    0.6486807    0.6001043  62.56  0.003637278    1.107    0.097
        27 -13.8114     10.3936    207.0615   1.4159880286e+02   2.9272567315e+01     1.499217    0.9207777  88.59  0.002849171    1.348    0.258
        28  -9.9019     95.8161    149.3267   1.1253726009e+02   3.2192258228e+01    0.3496196    0.3088762   6.88 0.0008483415    1.343    0.255
        29  -9.0143     98.8738    145.4119   1.1087315529e+02   3.2621536713e+01    0.2413467    0.2047482 -19.24 0.0007315162    1.401    0.286
        30 -12.7507     65.9541    141.7566   1.1934471698e+02   3.8776282387e+01     1.924489     1.044697  89.86  0.004952883    3.958    0.747
        31 -11.7947     84.2132    148.0197   1.1545548456e+02   3.4460931448e+01    0.3201439    0.2574747 -44.19 0.0006160205    1.253    0.202
        32  -9.0717     58.6433    145.2951   1.2208327375e+02   3.8892245754e+01    0.1461802    0.1044511  71.88 0.0007032481    1.695    0.410
        33  -9.3411    108.3714    135.2982   1.0601083932e+02   3.3337537897e+01    0.3374498    0.2507619 -13.20  0.001483355    1.887    0.470
        34  -9.7930     68.8043    134.8838   1.1714652306e+02   4.0064127157e+01    0.2191687       0.1873 -40.62 0.0004883771    1.169    0.145
        35 -10.3721     95.3178    132.2285   1.0893164172e+02   3.6457786453e+01     0.276756    0.2480015 -23.43 0.0006767462    1.210    0.174
        36  -9.0096    105.9293    122.3761   1.0359548578e+02   3.6842851847e+01    0.2009689    0.1854083  34.26 0.0003566691    1.130    0.115
        37  -9.7543    167.6563    112.7537   8.5824656936e+01   2.5805193291e+01    0.3706534    0.2641871 -79.34    0.0011085    1.851    0.460
        38  -9.1950    203.4886    111.5082   7.8562926548e+01   1.8083117117e+01    0.1453737    0.1358968 -55.53 -2.858988e-05    1.071    0.067
        39 -11.1019    243.2421     92.2386   6.8361259413e+01   1.3354535699e+01    0.2550157    0.2093492   0.34  0.001422951    2.006    0.501
        40 -13.9053     44.1736    205.6505   1.3431545371e+02   2.5858796682e+01     2.262107     1.139183  54.22   0.00614367    1.965    0.491
        41 -14.4947     28.8546    185.1018   1.3551072682e+02   3.2548827596e+01     6.495361     2.521909  78.23  0.001507136    8.305    0.880
        42 -10.3138     12.9869     61.0290   1.1851435101e+02   6.2242765459e+01    0.2044456    0.1083353 -29.70  0.001144618    1.726    0.421
        43  -9.9961    244.8074    249.6078   9.8677518989e+01  -1.4109683733e+01    0.1563011    0.1014546  36.43 0.0009560899    1.697    0.411
        44  -9.8437     49.5109    237.1047   1.3636554060e+02   1.8061924412e+01    0.3077402    0.1118271 -69.80 0.0009761964    2.639    0.621
        45 -10.6103    139.2975    230.4318   1.1655094086e+02   5.5135917147e+00    0.2765414    0.1287211  34.53  0.001143632    2.143    0.533
        46 -10.5469     18.5482     26.2798   1.0477690414e+02   6.7469973354e+01    0.3429283    0.1558918  41.86  0.001677394    3.634    0.725
