#   1 NUMBER                 Running object number                                     
#   2 MAG_AUTO               Kron-like elliptical aperture magnitude                    [mag]
#   3 X_IMAGE                Object position along x                                    [pixel]
#   4 Y_IMAGE                Object position along y                                    [pixel]
#   5 X_WORLD                Barycenter position along world x axis                     [deg]
#   6 Y_WORLD                Barycenter position along world y axis                     [deg]
#   7 A_WORLD                Profile RMS along major axis (world units)                 [deg]
#   8 B_WORLD                Profile RMS along minor axis (world units)                 [deg]
#   9 THETA_WORLD            Position angle (CCW/world-x)                               [deg]
#  10 FWHM_WORLD             FWHM assuming a gaussian core                              [deg]
#  11 ELONGATION             A_IMAGE/B_IMAGE                                           
#  12 ELLIPTICITY            1 - B_IMAGE/A_IMAGE                                       
         1 -16.8077    137.1361    147.3149   8.2083190268e+01   2.4761255510e+01     6.617497     3.019766 -52.89   0.02396829    2.345    0.573
         2 -15.8105      6.2463    101.4903   1.1253971905e+02   5.4078644430e+01     2.294946     1.034851 -73.06  0.004829867    1.957    0.489
         3 -15.2241    107.2985     55.3747   6.4535542792e+01   5.0044411202e+01     1.755137     1.250007 -41.63  0.008896121    1.495    0.331
         4 -15.0777    222.4851     33.0134   3.7827754552e+01   2.6227013990e+01     1.441891     1.134495 -14.36   0.00869355    1.736    0.424
         5 -14.2153     38.6293     30.8117   7.9933944420e+01   6.5954567002e+01     1.283478    0.8065813 -15.57  0.005848408    1.575    0.365
         6 -15.5848     31.6915      6.5679   7.1981816629e+01   7.0213713456e+01     2.146579     1.017953  36.09  0.008653264    1.984    0.496
         7 -13.3380    244.3051     11.4485   3.1477543924e+01   2.4198011382e+01    0.6076829    0.3981014 -64.86  0.002861727    1.255    0.203
         8 -12.8831     84.7414     11.1850   5.4315119638e+01   6.0494347867e+01    0.6289718    0.3509541  46.48  0.003286045    1.512    0.339
         9 -14.3912     13.5158     21.3949   8.8376563166e+01   7.0167954566e+01     1.085633    0.7448579  42.09  0.005196806    2.274    0.560
        10 -14.8143     59.3170    220.6113   1.1265759193e+02   2.0634244091e+01     1.492722     0.731418  61.73   0.00672762    2.187    0.543
        11 -14.2243    111.7209    242.5756   1.0398143066e+02   8.9091999668e+00    0.9703985    0.6751608  40.65  0.003570257    1.215    0.177
        12  99.0000     27.8519    237.3673   1.2030789731e+02   2.0902010821e+01     1.280394    0.3286033  54.22  0.005152314    3.590    0.721
        13 -13.0726     35.6029    244.1875   1.1928917070e+02   1.8710866023e+01    0.4187737     0.328439  74.14  0.002109019    1.075    0.070
        14 -14.2290     48.2541    244.0848   1.1688055510e+02   1.7254448245e+01    0.9795856    0.3898668  66.23  0.004251585    3.167    0.684
        15 -12.6489     40.9130    236.5995   1.1774979702e+02   1.9590212331e+01    0.4257381    0.3166681  56.73  0.001599639    1.109    0.098
        16 -13.6284      1.8549    243.6574   1.2535535426e+02   2.2303198979e+01    0.3518358    0.1850914  89.61  0.001431072    1.622    0.383
        17 -14.9941      6.4303    236.2228   1.2419960301e+02   2.3306064094e+01    0.9675673    0.4702263 -78.67  0.004150319    1.846    0.458
        18 -13.1489     12.2501    230.7222   1.2284534913e+02   2.3835602033e+01    0.3642466    0.1778877  44.50  0.001327497    1.730    0.422
        19 -16.7491     62.3186    202.8873   1.1017176198e+02   2.4116218284e+01     2.213288     1.458433  86.33   0.00751564    1.585    0.369
        20 -17.1377      8.7738    200.4194   1.2171531196e+02   3.0543402787e+01     2.158676    0.9801074  81.77   0.01091063    2.137    0.532
        21 -16.3306     33.2709    203.4127   1.1671778667e+02   2.7465721675e+01      1.36448     1.187223 -72.41  0.005925594    1.246    0.198
        22 -15.4733    205.6322    196.4329   7.6982257669e+01   2.0525554567e+00      1.49497     1.294693 -57.97  0.006462635    1.553    0.356
        23 -15.0364    190.3288    194.6129   7.9715873241e+01   4.9408368730e+00     1.557616    0.6739751 -36.05  0.005930743    2.441    0.590
        24 -14.2670    169.4761    218.9267   8.8413777020e+01   4.0705610161e+00     1.131106    0.6613943 -10.40   0.00466199    2.995    0.666
        25 -14.3718    176.9241    207.8685   8.4949032276e+01   4.8139926936e+00    0.8371642     0.644005  18.52  0.003177204    1.246    0.197
        26 -13.3287     41.8578    222.7762   1.1650232147e+02   2.2307080979e+01    0.4705761      0.28202  78.91  0.002110123    1.615    0.381
        27 -11.8063    219.3569    187.9830   7.2715355828e+01   1.2543234939e+00    0.2986635    0.1866629 -18.79  0.001269406    1.709    0.415
        28 -13.1673    114.9058    183.7029   9.4858911152e+01   2.0534504134e+01    0.9205597    0.6045898  44.62  0.003406854    1.471    0.320
        29 -11.0449     69.9992    163.9865   1.0314878177e+02   3.2288375545e+01    0.2978679    0.2036255  29.09  0.000375687    1.610    0.379
        30 -13.4014     93.5272    178.7799   9.9371860265e+01   2.5202923318e+01     1.175394    0.8027495 -82.33   0.00559577    1.739    0.425
        31 -13.0363     84.7054    153.1206   9.7302852868e+01   3.2801361863e+01     1.297414    0.4982886  29.23  0.004420734    3.166    0.684
        32 -14.3775     86.0898    160.9058   9.8319466298e+01   3.0673193957e+01     1.483786     1.258716  50.43  0.006125425    1.184    0.156
        33 -10.9620     85.4520    248.6770   1.0997764912e+02   1.1561090870e+01    0.2048825    0.1173187 -75.43  0.001122315    2.080    0.519
        34 -13.3645    204.5245    173.4354   7.2648887956e+01   6.3279401192e+00    0.5283067    0.4231172 -20.43  0.001854279    1.183    0.155
        35 -12.9185    210.0746    170.2249   7.0906694301e+01   5.9290371495e+00    0.8327222    0.3752022 -46.43  0.003391727    2.353    0.575
        36 -10.3453     69.5790    173.7416   1.0471938598e+02   2.9965625877e+01    0.1963576    0.1280201 -79.38 0.0009246391    1.612    0.380
        37 -11.1886     58.4347    174.0418   1.0761616967e+02   3.1371972016e+01    0.2148744    0.1904905 -10.53 0.0005763115    1.443    0.307
        38 -15.4615     18.6859    127.6106   1.1233650547e+02   4.6942073345e+01     2.671565     1.319256 -52.24   0.01096829    1.787    0.441
        39 -12.4217    220.0198    244.7171   8.2700021893e+01  -7.4859677768e+00    0.5148315    0.2625605 -15.51  0.002538229    2.506    0.601
        40 -14.7305     17.0238    163.4484   1.1689087551e+02   3.8347271447e+01    0.9178647    0.6461224  45.06  0.003537496    1.482    0.325
        41 -14.5945      9.2429    157.7277   1.1830152997e+02   4.0347487406e+01    0.6802598    0.6535863  24.59  0.002448719    1.317    0.241
        42 -13.0402     55.9446    160.5602   1.0640315606e+02   3.4986878586e+01    0.4632922    0.2647597 -40.30  0.001394482    2.176    0.540
        43 -12.3637    167.5460    157.5698   7.7085448133e+01   1.6440394156e+01    0.4030425    0.3492523 -89.36  0.001577253    1.467    0.318
        44 -12.7301    171.1559    152.9285   7.5252528792e+01   1.6689462789e+01    0.6036714    0.3557278 -49.49  0.002580886    1.768    0.434
        45 -11.5097     69.9761    145.5140   1.0007170562e+02   3.6874130353e+01    0.3046288    0.2862848  25.62   0.00107068    1.171    0.146
        46 -11.4454     67.5345    142.5016   1.0023399553e+02   3.7965838149e+01    0.3544681    0.2382125  54.29  0.001677072    1.660    0.398
        47 -11.9705     81.2774    141.7708   9.6118386100e+01   3.6139677955e+01    0.2739295    0.2338669 -51.94 0.0004378358    1.130    0.115
        48 -12.2899    171.8545    141.1647   7.2422366195e+01   1.8995111646e+01    0.4092723    0.3630859  43.50  0.001483534    1.164    0.141
        49 -12.8294    106.6579    131.5009   8.6634156846e+01   3.4342274311e+01    0.3462583    0.2886017   4.33  0.001295057    1.420    0.296
        50 -11.2123     52.1660    179.7116   1.0990893172e+02   3.0787508248e+01    0.3158172    0.1885068 -43.37  0.001353191    2.083    0.520
        51 -13.3725     48.6234    103.6524   9.8422441984e+01   4.9935575108e+01    0.6186749    0.5213869 -40.59  0.001906992    1.098    0.089
        52 -14.3456     44.7256     97.6968   9.8436637885e+01   5.1789130190e+01     1.758072      1.18939 -31.01  0.004597208    1.544    0.352
        53 -14.6185     96.1763    103.2757   8.2684256070e+01   4.2864155105e+01     1.372349     1.201762   2.51  0.005092481    1.231    0.187
        54 -14.0734    210.9050     88.5295   5.2257035355e+01   2.0584267622e+01      1.13148    0.5952307  53.29  0.005075697    2.021    0.505
        55 -10.6755     27.0521    246.4643   1.2101300356e+02   1.9220494084e+01    0.1564135   0.09165687  42.63 0.0005554652    1.491    0.329
        56 -13.5866     94.7941    233.7167   1.0649308015e+02   1.3080072421e+01    0.7179236    0.5805655  20.11  0.002585677    1.448    0.309
        57 -13.8392     86.1265    226.8391   1.0756429363e+02   1.5701124160e+01    0.9496076    0.6543519  29.61  0.005366882    1.527    0.345
        58 -13.9557    146.9839    229.2158   9.4788803412e+01   5.8747086858e+00     1.314889    0.8698249 -46.90  0.005908967    1.708    0.414
        59 -15.0314    135.1954    221.7567   9.6219083629e+01   9.1570376175e+00     1.458224     1.211492  30.88  0.005824612    1.103    0.093
        60 -14.4208    120.8893    221.6635   9.9338543192e+01   1.1473223276e+01     1.108271     1.069151 -78.40  0.004910725    1.145    0.126
