#   1 NUMBER                 Running object number                                     
#   2 MAG_AUTO               Kron-like elliptical aperture magnitude                    [mag]
#   3 X_IMAGE                Object position along x                                    [pixel]
#   4 Y_IMAGE                Object position along y                                    [pixel]
#   5 X_WORLD                Barycenter position along world x axis                     [deg]
#   6 Y_WORLD                Barycenter position along world y axis                     [deg]
#   7 A_WORLD                Profile RMS along major axis (world units)                 [deg]
#   8 B_WORLD                Profile RMS along minor axis (world units)                 [deg]
#   9 THETA_WORLD            Position angle (CCW/world-x)                               [deg]
#  10 FWHM_WORLD             FWHM assuming a gaussian core                              [deg]
#  11 ELONGATION             A_IMAGE/B_IMAGE                                           
#  12 ELLIPTICITY            1 - B_IMAGE/A_IMAGE                                       
         1 -14.6026      5.8082    145.2356   1.4674337014e+02   4.3840418351e+01     3.906739     0.958961 -77.14   0.01583637    3.522    0.716
         2 -13.7760    196.4298     23.6951   7.0957052088e+01   3.2656910161e+01     1.888549     1.479073  29.57  0.007987908    1.457    0.314
         3 -13.4320    210.6656      6.1355   6.4425705465e+01   3.0879907972e+01    0.9863833     0.795526  67.84  0.005766004    1.194    0.162
         4 -11.9726      3.5418     19.9935   1.2486642014e+02   7.0117606868e+01    0.4297876    0.1638317 -43.14  0.002366018    1.867    0.464
         5 -11.8675      2.9473      6.0869   1.1949567417e+02   7.2510170422e+01    0.6456932    0.2094849 -45.93  0.003349025    2.252    0.556
         6 -11.1436     19.8073    247.6223   1.5067987138e+02   2.3370962589e+01    0.3318549    0.1888281  40.41  0.002118249    1.850    0.459
         7 -11.5694    173.5284    249.1956   1.2605229611e+02   2.2466537725e+00    0.4214363    0.2012261  55.04  0.002161681    2.446    0.591
         8 -13.5243    132.9002    246.2427   1.3254302841e+02   8.9448448498e+00     1.004111    0.3900351  46.84  0.005229663    2.003    0.501
         9 -13.0109    141.4555    249.8649   1.3150305950e+02   7.1361293832e+00      1.61388    0.1784206  42.27  0.004388764    7.390    0.865
        10  -8.9958     73.8005    250.4040   1.4262151616e+02   1.6685085973e+01    0.1385962   0.08426769  40.53 0.0007669074    1.626    0.385
        11 -10.3953     29.8640    248.9154   1.4926542406e+02   2.2111987208e+01    0.2531697    0.1187193 -88.27   0.00172424    1.979    0.495
        12 -10.7832    237.9474    247.3608   1.1523229243e+02  -7.3909048363e+00    0.1996127    0.1673435  61.08  0.001431419    2.036    0.509
        13 -11.5351    179.4960    245.5906   1.2458758608e+02   1.7532194267e+00    0.2453907    0.2020233  24.00  0.001810594    1.189    0.159
        14 -11.5831     37.6364    215.4417   1.4603652396e+02   2.6916770013e+01    0.7075341     0.534442 -79.32   0.00551064    1.336    0.252
        15 -13.1420     49.4033    218.1989   1.4422764828e+02   2.5075327841e+01     1.174076    0.6705496 -85.03  0.007753372    1.627    0.385
        16 -13.9887     39.5546    230.4649   1.4671445877e+02   2.4074107513e+01    0.6937162    0.4505871  58.93  0.002640579    1.188    0.159
        17  -9.2973     27.0480    241.7912   1.4931807614e+02   2.3554225675e+01    0.1495578   0.09076173  65.62 0.0003645223    1.174    0.148
        18 -11.5239    183.5253    236.3481   1.2265350559e+02   2.2659534812e+00    0.3421649    0.2353682 -65.24  0.002025981    2.495    0.599
        19 -10.2567     23.0724    238.6617   1.4975788492e+02   2.4481933240e+01    0.2142545    0.1981432 -56.55  0.001594332    1.877    0.467
        20 -10.5245     96.0128    238.9961   1.3804238198e+02   1.5468939900e+01    0.1846934    0.1063559  66.23 0.0008977278    1.692    0.409
        21 -12.3157     86.8123    226.1606   1.3841912497e+02   1.8858757709e+01     1.286229    0.1423985  49.25  0.003238494    9.053    0.890
        22 -12.7311    137.2098    231.7478   1.3014160159e+02   1.0392351493e+01    0.8042836    0.2591042  35.60  0.002993311    3.980    0.749
        23 -13.1784    116.7721    232.1012   1.3377727150e+02   1.3514998459e+01     1.035706     0.212788  44.86  0.003879706    3.740    0.733
        24 -12.2470    102.5121    230.1340   1.3606531828e+02   1.5956131931e+01    0.8324105    0.1121244  45.70   0.00268999    5.202    0.808
        25  -9.3613      3.3415    227.8738   1.5223304380e+02   2.8215023509e+01    0.1780058   0.09233877  56.75  0.001330992    1.446    0.308
        26  -9.4789    245.3313    233.6644   1.1193489133e+02  -7.1172952781e+00   0.09695546   0.08799067  51.42 0.0007052159    1.733    0.423
        27  -9.6538    171.9895    222.7711   1.2274925256e+02   5.9962485388e+00    0.1726508   0.08456112  42.60 0.0006486626    1.676    0.404
        28 -10.1535     27.4646    221.8800   1.4814120673e+02   2.6871692953e+01    0.1987582     0.161989  32.23   0.00147124    1.801    0.445
        29 -11.1780     57.4159    211.9794   1.4233256065e+02   2.5229307339e+01    0.3685203    0.1645673  57.36  0.001634364    1.985    0.496
        30  -9.9093     20.4426    211.8197   1.4869668228e+02   2.9382432965e+01    0.2822875    0.1391995  36.68   0.00180854    2.213    0.548
        31 -12.2313     10.4020    206.8214   1.5008179344e+02   3.1259647120e+01    0.5018104    0.3176133  34.45  0.002876907    1.965    0.491
        32 -11.4722     48.5678    206.1827   1.4343217023e+02   2.7364065570e+01     0.541948    0.1987417  65.20  0.002339342    3.543    0.718
        33 -13.0314     35.0983    236.9637   1.4781624152e+02   2.3478355296e+01    0.2993341    0.2101529 -83.04  0.000768021    1.379    0.275
        34 -11.7561     61.3207    201.9468   1.4073290469e+02   2.6604957156e+01    0.2202076    0.1900867  88.54 0.0005663564    1.193    0.162
        35  -9.5856    194.8217    198.8509   1.1478016112e+02   5.4569588427e+00    0.2694147     0.157276 -63.83  0.001059585    4.159    0.760
        36 -12.0554     67.6865    193.1942   1.3865976940e+02   2.7465103962e+01    0.2284715    0.2021605  87.97 0.0004290102    1.178    0.151
        37 -13.2167     64.6352    178.1009   1.3762012582e+02   3.0874230886e+01    0.4510099    0.2555605 -47.66  0.002029334    2.314    0.568
        38 -10.7890     77.9986    179.6591   1.3505143965e+02   2.8757718747e+01    0.2137443    0.1833674  81.31  0.000330896    1.030    0.029
        39  -8.7893    102.4297    178.9106   1.2986209100e+02   2.5255561107e+01    0.1661198    0.1029237  87.88 0.0004772924    2.157    0.536
        40 -12.8689      2.4510    112.4966   1.4434270126e+02   5.1101858427e+01     1.103314    0.3356824 -71.06  0.005199712    2.398    0.583
        41 -11.1588    190.7382    247.4837   1.2295491748e+02  -2.4112359288e-01    0.3021022    0.2191178 -75.46  0.001811769    2.820    0.645
        42 -10.4692    100.9341    150.7237   1.2570252102e+02   3.1333005247e+01    0.3594248    0.2560005 -74.44  0.001198851    1.487    0.328
        43 -11.9172     86.3730    153.2275   1.2948920720e+02   3.3084360606e+01    0.2678501     0.236286 -45.98 0.0006998598    1.313    0.238
        44  -9.6104    133.6898    145.3317   1.1712375715e+02   2.6601967256e+01    0.5955234     0.128699 -52.94  0.001375924    6.887    0.855
        45 -12.2004     67.2066    143.4951   1.3245516336e+02   3.7920136260e+01    0.6286085    0.3915251  65.23  0.003306997    1.805    0.446
        46 -10.0083    109.2711    138.4541   1.2143465183e+02   3.2556433334e+01    0.4217923    0.2852569 -21.04  0.001395238    2.469    0.595
        47  -8.6652     81.3837    133.1158   1.2724689309e+02   3.8242416980e+01     0.176375    0.1180497 -72.15 0.0003415874    1.510    0.338
        48 -10.0650     33.6949    132.9902   1.3904328307e+02   4.4092709994e+01     0.264229    0.1153072  57.90  0.001202807    2.894    0.655
        49 -10.5182     96.6507    135.7470   1.2396427345e+02   3.5283864894e+01    0.2348608    0.2234199 -41.30 0.0004422296    1.174    0.148
        50  -9.0572    106.7776    124.5302   1.1913748890e+02   3.6016820279e+01    0.1866052    0.1400518  42.36  0.000513478    1.389    0.280
        51 -10.2712      2.7423    153.5257   1.4805669518e+02   4.2339877798e+01    0.2658509    0.1926679 -69.97  0.001211873    1.294    0.227
        52 -11.9052     85.4351    170.2667   1.3224504536e+02   2.9616427973e+01     0.611318     0.535495 -27.74  0.002206378    1.585    0.369
        53 -10.2674    157.2759     75.8194   9.3750271980e+01   3.5145414402e+01     0.264679    0.2150264  66.92 0.0006120873    1.367    0.269
        54 -10.1259    104.7601    154.1939   1.2542963844e+02   2.9961208391e+01    0.2536945    0.2177539 -85.54 0.0006285014    1.139    0.122
        55 -10.4175     13.9606     54.9835   1.3104515205e+02   6.2726654732e+01    0.1666108     0.132478  82.32 0.0006419907    1.668    0.400
        56 -10.5077     97.6972    154.0136   1.2701547983e+02   3.1155572728e+01    0.3183942    0.2594641 -56.37 0.0008334018    1.244    0.196
        57 -12.5630    144.1883    244.0608   1.3038626437e+02   7.5131880717e+00    0.4412444     0.383898  83.72  0.003359546    1.343    0.255
        58 -10.9040     99.0924    249.1231   1.3844822986e+02   1.3477291007e+01     0.275459    0.1180809  48.40  0.001588419    1.774    0.436
        59  -9.6519     81.2439    248.9711   1.4132643202e+02   1.5933472748e+01     0.122776   0.08182768 -77.98 0.0008887204    1.616    0.381
