#   1 NUMBER                 Running object number                                     
#   2 MAG_AUTO               Kron-like elliptical aperture magnitude                    [mag]
#   3 X_IMAGE                Object position along x                                    [pixel]
#   4 Y_IMAGE                Object position along y                                    [pixel]
#   5 X_WORLD                Barycenter position along world x axis                     [deg]
#   6 Y_WORLD                Barycenter position along world y axis                     [deg]
#   7 A_WORLD                Profile RMS along major axis (world units)                 [deg]
#   8 B_WORLD                Profile RMS along minor axis (world units)                 [deg]
#   9 THETA_WORLD            Position angle (CCW/world-x)                               [deg]
#  10 FWHM_WORLD             FWHM assuming a gaussian core                              [deg]
#  11 ELONGATION             A_IMAGE/B_IMAGE                                           
#  12 ELLIPTICITY            1 - B_IMAGE/A_IMAGE                                       
         1 -14.7524    106.9133    105.5051   7.7643111152e+01   4.0558340861e+01     2.194744     1.545797 -24.98  0.009669858    1.649    0.394
         2 -13.6544     65.9150     49.2969   7.3570746683e+01   5.9380611028e+01     1.409025    0.6820087 -27.76  0.005972233    2.357    0.576
         3 -15.0620      6.7050     71.7115   1.0602302921e+02   6.1241394417e+01     1.731801    0.6169525 -51.89  0.007276529    1.994    0.499
         4 -13.7991    188.7840     25.9440   3.7290593923e+01   3.4975840836e+01     1.692618    0.7268283 -60.80  0.006743155    3.047    0.672
         5 -13.9186    187.6110     12.6891   3.4163764449e+01   3.6692328191e+01     1.083675    0.5452094 -50.27  0.005532017    1.955    0.489
         6 -13.1233    120.0945     26.3763   4.8516993500e+01   5.1335216481e+01    0.8692232    0.5362191  21.56  0.004121715    2.125    0.529
         7 -14.6067    166.4537     29.0325   4.1028237469e+01   3.9908959424e+01     1.032948     0.915053  80.87  0.004405705    1.007    0.007
         8 -14.7724    147.3856     29.5829   4.4224429810e+01   4.4452358572e+01     1.344389     0.864428  58.93  0.005415477    1.385    0.278
         9 -13.9469    122.0632     37.1994   5.1764824824e+01   4.9585838202e+01    0.9811052    0.4659752  38.90   0.00241589    2.330    0.571
        10 -13.3927    132.0658     32.7574   4.8110492635e+01   4.7767289442e+01    0.7443914    0.5332726 -37.82  0.003484551    1.522    0.343
        11 -13.4471      3.0157     10.5921   8.8125216148e+01   7.3226635410e+01    0.7741304    0.3473882 -46.08  0.004354903    2.114    0.527
        12 -13.2428      8.0098      2.5729   8.0917092393e+01   7.3950348761e+01    0.5417165     0.394386  38.05  0.002200245    2.153    0.535
        13 -13.9822     16.4425     30.9837   8.9163477577e+01   6.8817580752e+01    0.7699355    0.4358111  24.15  0.002493709    1.835    0.455
        14 -15.9747     14.3386     20.1953   8.5785538052e+01   7.0792682479e+01     2.008481    0.9724307 -18.63   0.01031761    2.199    0.545
        15 -14.2168     25.1365     14.0999   7.6931246905e+01   7.0560604935e+01    0.8328525    0.3467103  28.69   0.00424039    2.264    0.558
        16 -12.8544     44.4292     32.3912   7.5802529483e+01   6.5405924321e+01    0.6168388    0.5109294  16.94  0.003894602    1.186    0.157
        17 -14.3866    217.4278     12.1935   3.1299272614e+01   3.0094771668e+01    0.9699915    0.8630257  76.56  0.006246075    1.269    0.212
        18 -15.1787     99.1531     11.7369   4.8025282396e+01   5.7589410185e+01     1.374604    0.7282689  58.63  0.004728532    1.658    0.397
        19 -12.3153     70.2261     16.5339   5.8399765205e+01   6.3150305013e+01    0.3536353    0.3073769  75.90  0.001635583    1.671    0.401
        20 -11.3227     60.1555     16.6536   6.2114432585e+01   6.4998479604e+01    0.2884571    0.2203267 -45.91  0.001690029    1.883    0.469
        21 -11.5205     46.7564     13.2529   6.5993617288e+01   6.7647898922e+01    0.2443178    0.2005661  31.62  0.001404345    1.297    0.229
        22 -13.8803     41.8714      4.4360   6.3729213278e+01   6.9388543678e+01    0.6613001    0.4536591  13.65  0.003550281    1.226    0.184
        23 -13.4048    138.3302     21.9416   4.3463882443e+01   4.7477186572e+01    0.8713203    0.3145535  64.56  0.002386858    2.498    0.600
        24 -11.9702    152.2449      8.3801   3.7227544414e+01   4.5449211256e+01    0.4213094    0.2244588 -87.61  0.001948763    2.256    0.557
        25 -10.2166    145.2999      8.3117   3.8181285834e+01   4.7115211026e+01    0.1303089   0.08584718  42.17  0.000326723    1.605    0.377
        26 -11.6530    120.1897      3.7885   4.0777864248e+01   5.3440223650e+01    0.2320301    0.1620041  62.02 0.0006482479    1.198    0.165
        27 -11.1386    117.4954      1.4775   4.0471766647e+01   5.4244581755e+01    0.2398821    0.1118033  69.15 0.0006617323    1.942    0.485
        28 -10.4611     67.4905      4.4411   5.3881531689e+01   6.4849051250e+01    0.1248897   0.09943992  30.72 0.0003644359    1.010    0.009
        29 -11.2180    232.5858      1.7703   2.8062061064e+01   2.8025654178e+01    0.2106824    0.1352854  84.83  0.001135169    1.367    0.268
        30 -11.4257     61.3171      1.5776   5.4622748353e+01   6.6272753146e+01    0.3094939    0.1218578  52.39  0.001453293    2.270    0.560
        31 -12.5613     85.3639     14.6515   5.2825202406e+01   6.0299394038e+01    0.3838357    0.3268458 -30.76  0.001780685    1.388    0.279
        32 -11.6111     81.5597      1.4258   4.8358152189e+01   6.2247980147e+01    0.3755353    0.1006389  58.01  0.001436634    3.100    0.677
        33 -11.2400      1.7838    159.1156   1.1943583119e+02   4.0299573507e+01    0.3156098    0.1450552 -80.70  0.001286883    1.823    0.452
        34 -13.2455    107.6655    246.3960   1.0353839217e+02   7.9919400039e+00    0.8048738    0.5433278 -82.15  0.004443698    1.974    0.493
        35 -14.4994     97.2054    239.5480   1.0499828645e+02   1.0820294720e+01     1.042043    0.7715845 -78.41  0.006155675    1.561    0.359
        36 -13.6428     28.4226    246.4557   1.1971355062e+02   1.8174643094e+01     0.510271    0.3150262  57.60  0.003225266    1.298    0.230
        37 -12.7539      2.8741    248.4497   1.2451360258e+02   2.0363331188e+01    0.4921262     0.245555 -89.48  0.003042375    1.762    0.432
        38 -13.7008      9.3926    245.8945   1.2322714310e+02   2.0237709042e+01    0.7277021    0.3590912  63.51  0.003430611    1.656    0.396
        39 -11.5797     26.2206    158.8722   1.1296990251e+02   3.8444929782e+01    0.3464536    0.1917007  29.20  0.001691795    1.990    0.497
        40 -13.2060     74.2800    154.3771   9.8694574695e+01   3.3981915601e+01    0.9052873    0.5733829  50.96  0.004101507    1.728    0.421
        41 -11.4382    103.1237    150.3953   8.9616897996e+01   3.0380123693e+01    0.3425602    0.2274545 -31.34  0.001447923    1.822    0.451
        42 -12.7321    245.3159    148.6800   5.7432901158e+01   3.8236771274e+00    0.4051285    0.2295802 -45.62  0.002032319    1.651    0.394
        43 -12.1909     59.4278    148.6330   1.0206022151e+02   3.7479639543e+01    0.2654009    0.2336315  49.80  0.001476603    1.196    0.164
        44 -12.3764      7.2305    146.3169   1.1683643667e+02   4.3097060900e+01    0.5432618     0.322179 -60.06  0.002985487    1.453    0.312
        45 -12.4293     44.9994    134.5811   1.0409728196e+02   4.2815495573e+01    0.4522334     0.294672 -59.94  0.002259586    1.346    0.257
        46 -12.5195    246.6999    136.2566   5.4642041914e+01   5.7250008201e+00    0.2658721    0.2363101  86.02  0.001661297    1.491    0.329
        47 -10.6172     62.9767    138.7212   9.9238005840e+01   3.9582415892e+01    0.1969419    0.1887263 -62.63 0.0004607902    1.039    0.037
        48 -11.3334    133.5271    125.9899   7.5468000209e+01   3.0420392265e+01    0.3863578    0.1478202 -40.85  0.001221169    2.748    0.636
        49 -12.1194    121.0342    112.2912   7.5343085903e+01   3.6157373857e+01    0.5228544    0.3215854  43.62  0.001541502    1.658    0.397
        50 -12.5321    134.3400    103.1672   6.9188843397e+01   3.5316793867e+01     1.957617    0.3456957  48.71  0.004026037    6.991    0.857
        51 -14.0367    108.2169    122.8005   8.1807405414e+01   3.6251617818e+01     1.161894     1.097367  -8.75  0.006070399    1.074    0.069
        52 -13.5068     85.3327    114.2723   8.6769066964e+01   4.2427136011e+01     1.210601    0.9533128  23.37  0.004235847    1.359    0.264
        53 -12.9185     28.6792    122.3999   1.0730805164e+02   4.7522225596e+01    0.4775108     0.326298 -55.51  0.002578899    1.253    0.202
        54 -11.9652      4.0410    119.9230   1.1487093824e+02   4.9868549993e+01    0.4512959    0.1937122  13.84  0.002071284    2.906    0.656
        55 -11.7576     34.4434     86.8480   9.8175842427e+01   5.5742912171e+01    0.3494184    0.2139592 -40.54 0.0009590188    1.444    0.307
        56 -14.1179     18.2074    110.6663   1.0891436522e+02   5.1287824901e+01     1.018124    0.5686162 -49.30  0.003659205    1.533    0.348
        57 -14.4241     11.1717    103.1044   1.1013987452e+02   5.3608464437e+01     1.304396    0.7573742 -54.14  0.007036704    1.382    0.276
        58 -13.3884      2.2138     97.1623   1.1239100349e+02   5.5525526503e+01    0.8220441    0.2668822 -71.54  0.003327335    2.634    0.620
        59 -14.5926     22.7741     95.5948   1.0458043039e+02   5.4653271096e+01     1.508377    0.9615403  15.51  0.008131247    1.803    0.445
        60 -11.7935     63.1860    111.4305   9.3479778828e+01   4.6488747593e+01    0.4250762    0.2270087  48.86  0.001714904    2.396    0.583
        61 -10.6401     46.3316    110.3208   9.9078103207e+01   4.8843532246e+01    0.1526896   0.09671424 -32.43  0.000704917    1.696    0.410
        62 -12.5324    249.3764    106.7632   4.8084418987e+01   1.0236564331e+01    0.2520144    0.1538804 -33.40  0.001326186    1.503    0.335
        63 -12.4389     32.3023    110.8353   1.0407869465e+02   5.0119882521e+01    0.3190366    0.2163365 -50.44  0.001694356    1.271    0.213
        64 -13.2148     29.6895     89.8019   1.0072014550e+02   5.5479097419e+01     1.001814    0.5657172  64.29  0.004005537    3.471    0.712
        65 -12.1610     42.6307     90.8939   9.5992034546e+01   5.3965570374e+01    0.4665997    0.2931928 -68.97 0.0005876321    1.812    0.448
        66 -11.7672     47.5695    100.2222   9.6388599613e+01   5.1189187364e+01    0.4298335    0.3292655  68.04  0.002209992    1.757    0.431
        67 -12.0923     52.5374     97.9733   9.4029008894e+01   5.1144864299e+01    0.4434627    0.2407981 -19.92    0.0017131    2.779    0.640
        68 -12.6282     49.3650     94.2991   9.4291333532e+01   5.2401526759e+01     0.479311    0.3912533  66.49  0.001566797    1.615    0.381
        69 -11.3285    163.5415     98.3604   6.0808813971e+01   2.9686219003e+01    0.2665054    0.2423524  35.72 0.0006650523    1.151    0.131
        70 -12.1031     60.9796     97.7792   9.0904920538e+01   5.0101285683e+01    0.4202215    0.3357084  88.62  0.002125762    1.694    0.410
        71 -12.4935    136.0690     95.2936   6.6516482764e+01   3.6573491608e+01    0.3885127    0.2942828  46.07  0.001241384    1.324    0.245
        72 -13.3786     95.5160    110.7762   8.2606207821e+01   4.1491698148e+01     1.093081     0.681997 -61.67  0.004539935    1.879    0.468
        73 -12.2599    188.2780     84.4328   5.2252191194e+01   2.6573279272e+01    0.5592058    0.2389095  44.38  0.002053877    2.780    0.640
        74 -12.5822    237.8253     80.5645   4.3984244008e+01   1.6637756689e+01    0.3635376    0.2337974  78.83  0.001918343    1.909    0.476
        75 -13.4748    163.8591     71.6133   5.3392240579e+01   3.4484034527e+01     1.380032    0.8398498  57.84  0.006245791    1.634    0.388
        76 -13.0287    161.0179     80.8045   5.6542348284e+01   3.3565069032e+01    0.8480558    0.5520443  16.48  0.002816133    2.658    0.624
        77 -13.8992    169.3115     77.0151   5.3813649904e+01   3.2271408214e+01      1.04067    0.5437549  50.68  0.003293432    1.914    0.477
        78 -13.5056    171.1403    243.0345   8.9593146703e+01  -8.8834117875e-01    0.6140558     0.446966   9.05  0.003612473    1.333    0.250
        79 -12.4066     40.1835     68.3956   9.0812889206e+01   5.9280043823e+01    0.8267819     0.232863  28.84  0.002977434    3.614    0.723
        80 -12.0329    147.4091    239.2128   9.4050167684e+01   3.3446657738e+00     0.164148    0.1300509 -66.80 0.0009481671    1.683    0.406
        81 -13.4585     91.5624     58.0970   6.7637738081e+01   5.3177291441e+01    0.5465049    0.4822643 -20.36  0.002412488    1.126    0.112
        82 -13.3182     52.1939     69.5863   8.6197714994e+01   5.7577294013e+01    0.7991139    0.6775287 -38.14   0.00469647    1.134    0.118
        83 -13.7839     87.2169     65.4388   7.1647600957e+01   5.2719153216e+01     1.120109    0.6355236  15.51  0.004226464    2.839    0.648
        84 -13.1126     54.1606     82.3714   8.9269006945e+01   5.4558941767e+01    0.6343884     0.390036 -44.21  0.002149385    1.457    0.314
        85 -14.1203     61.0638     75.8128   8.4638508637e+01   5.5045289398e+01     1.287236    0.5690339 -50.53  0.005238021    2.212    0.548
        86 -12.8450     70.8114     75.5206   8.0853914109e+01   5.3621838742e+01    0.6220766    0.4501047  -4.84  0.002458473    1.576    0.366
        87 -12.2141     77.1278     73.3863   7.7853977046e+01   5.3009883520e+01    0.5397212    0.3115701 -28.02  0.002264765    1.959    0.490
        88 -12.1414     47.1465     81.7250   9.1831457356e+01   5.5571171405e+01    0.4148283    0.2900027 -48.34  0.001822222    1.286    0.222
        89 -11.9297     42.0633     77.6209   9.2722338462e+01   5.7068644909e+01    0.5409423    0.2475778 -58.78  0.002210437    2.251    0.556
        90 -12.7435    135.6450     79.9192   6.2124899059e+01   3.9673350897e+01    0.6916109    0.3749245  50.60  0.002590751    1.827    0.453
        91 -12.7077    212.6123     78.4462   4.6882388835e+01   2.2170524731e+01    0.7539197    0.4233483  88.83    0.0029824    3.031    0.670
        92 -11.8897    114.2429     80.1924   6.7989099277e+01   4.4411713351e+01     0.394059    0.3240152 -65.22  0.001178896    1.485    0.326
        93 -13.6199      6.4443     43.4131   9.8799237938e+01   6.7233841965e+01     1.012719    0.8220909 -51.21  0.006973867    1.281    0.220
        94 -12.2440     17.6271     40.6769   9.2180932669e+01   6.6971491049e+01    0.2257903    0.1647869 -26.16 0.0003151008    1.085    0.078
        95 -13.0748     57.0077    246.6407   1.1411780889e+02   1.4818488900e+01       0.6297    0.3770221  30.13   0.00359328    1.734    0.423
        96 -14.0877      4.2738     63.5559   1.0525110477e+02   6.3167539379e+01    0.6415556    0.5134546 -18.27  0.003536755    1.238    0.192
        97 -11.7236     27.3083     76.1775   9.8407703652e+01   5.8831333721e+01    0.4125952    0.2637677 -81.81  0.001981416    2.329    0.571
        98 -11.8653    218.4800     74.3287   4.5099335116e+01   2.1575504381e+01    0.2290376    0.1246129  62.16  0.001082868    1.974    0.493
        99 -13.2927    199.4473     69.9947   4.6792397547e+01   2.6438068895e+01    0.7226224    0.3888875  51.62  0.002649487    1.977    0.494
       100 -10.4028     95.9941     69.9552   7.0268235940e+01   5.0165924193e+01     0.174495    0.1606554  14.42 0.0003089814    1.026    0.025
       101 -12.1361     31.4381     63.4430   9.3092405716e+01   6.1228799049e+01    0.5686477    0.2684478 -59.59   0.00253523    2.318    0.569
       102 -10.8658    100.0370     65.5097   6.7495017157e+01   5.0159294033e+01    0.2255775    0.1400598  44.00 0.0007288979    1.570    0.363
       103 -12.9531    133.6614     66.7773   5.8605985285e+01   4.2470136614e+01    0.8192571    0.6100485  19.96  0.003171225    1.650    0.394
       104 -13.0157     78.5584     60.8635   7.3080400392e+01   5.5160571423e+01    0.6062851    0.4550547  30.95  0.003220499    1.289    0.224
       105 -13.2919     81.7073     54.7835   6.9781313199e+01   5.5650817792e+01    0.7605944    0.4870482  26.80  0.003349497    1.610    0.379
       106 -13.5589    177.7460     57.5190   4.7013286278e+01   3.3406091988e+01    0.8650246    0.5471957 -50.21  0.002873039    1.599    0.375
       107 -14.6232    119.9416     54.7111   5.8173976699e+01   4.7606357601e+01    0.8767502     0.641579  35.69  0.003964514    1.366    0.268
       108 -14.0945    101.6490     50.5356   6.1804191134e+01   5.2315330437e+01    0.8313448    0.6507194  65.57  0.001389077    1.542    0.352
       109 -12.1437     99.8543     44.1534   6.0035667642e+01   5.3651727988e+01    0.3451994    0.2636047  68.86 0.0007746411    1.651    0.394
       110 -11.2756     38.8353     60.3014   8.8848046399e+01   6.1106097866e+01    0.2389823    0.1838916 -75.63  0.001287107    1.999    0.500
       111 -12.1242     24.7156     59.7440   9.4989269298e+01   6.2613386214e+01    0.4371834    0.2109932 -46.30   0.00146732    1.688    0.408
       112 -10.0685     47.2941     56.6016   8.3919257147e+01   6.0816991340e+01    0.1240449    0.1087372 -88.94  0.000487578    1.801    0.445
       113 -11.8429    246.9728     52.9444   3.7164106572e+01   1.8945559371e+01    0.4808215    0.1348467 -48.14  0.001896491    3.020    0.669
       114 -11.5541    248.9578     49.0000   3.6177391473e+01   1.9104162041e+01    0.2077106    0.1486023  58.29  0.001297837    1.675    0.403
       115 -11.7790     37.2369     53.0636   8.7122682932e+01   6.2714196519e+01    0.2800876    0.1542629 -29.86  0.001390052    1.737    0.424
       116 -12.2510    136.0272     49.9736   5.2782307884e+01   4.4546062367e+01    0.4674667    0.2889667  37.10  0.001668834    1.785    0.440
       117 -10.4602     23.4877     50.4183   9.2627012267e+01   6.4606769465e+01    0.1293021    0.1005621 -24.66 0.0001405542    1.044    0.042
       118 -12.1667    154.2384     46.6179   4.8066200735e+01   4.0632078898e+01    0.4480636    0.2122342  55.08  0.001906121    1.935    0.483
       119 -12.8895    158.8997     43.5904   4.6345863933e+01   3.9914542422e+01    0.5167847     0.391981  57.69  0.001962928    1.238    0.192
       120 -11.3926    247.6570    235.3195   7.3523150089e+01  -1.0086921363e+01    0.0982665   0.09399778   1.53 0.0007049646    1.721    0.419
       121 -12.6696     24.6086    217.4134   1.1858316289e+02   2.4642274745e+01    0.6244407    0.3573819  53.80  0.003594545    1.522    0.343
       122 -12.8832    205.0741     40.3550   3.8860186395e+01   2.9462313273e+01    0.7769616    0.3729527 -84.78  0.003006171    3.275    0.695
       123 -10.7340     50.5250     44.0106   7.7851573616e+01   6.2660391801e+01    0.1799319    0.1188124 -35.53 0.0001205985    1.437    0.304
       124 -12.4279     14.0250    222.1637   1.2106984898e+02   2.4659378310e+01    0.4293661    0.3495499  57.94  0.001799104    1.157    0.136
       125 -13.8160     25.9987    227.0281   1.1895521742e+02   2.2418669597e+01    0.7881842    0.3667233 -57.89  0.004051882    2.415    0.586
       126 -12.6463    109.5970     42.1690   5.6592311116e+01   5.1789719212e+01    0.5836093    0.1884658  50.49  0.001837695    2.730    0.634
       127 -13.1194     20.8461    224.7007   1.1984929980e+02   2.3444769604e+01    0.4875683    0.3863522 -40.92  0.002668978    1.809    0.447
       128 -14.2750     65.6636    223.3424   1.1018160977e+02   1.8542323109e+01     1.058858    0.6610721  44.32  0.005817179    1.417    0.294
       129 -13.1548    113.7061     38.2984   5.4163239123e+01   5.1377794803e+01    0.3839071    0.3525531  75.99  0.001373944    1.212    0.175
       130 -14.1602     64.2171    214.9341   1.0963969103e+02   2.0585419938e+01    0.9182614    0.4770842  38.62  0.004517082    1.752    0.429
       131 -12.6386     75.3091     37.1553   6.5297780118e+01   5.9608782334e+01    0.4271519    0.2391715  43.78  0.001328023    1.692    0.409
       132 -11.7322     70.4723     36.4955   6.6787296456e+01   6.0595264681e+01    0.2622145    0.2246117  -1.41 0.0007027815    1.075    0.070
       133 -12.9106     59.4847    212.9703   1.1051814766e+02   2.1636781255e+01    0.3093746     0.217824 -61.46 0.0009438524    1.479    0.324
       134 -11.8002    249.5135    216.9722   6.9981257731e+01  -7.7438012443e+00      0.18649    0.1009046 -32.93  0.001038117    1.607    0.378
       135 -13.2538     95.0204    218.7728   1.0298426249e+02   1.5426186277e+01    0.5343422    0.2622102  37.27  0.002431512    1.829    0.453
       136 -11.5756    185.5112    213.5100   8.1674994586e+01   1.9745896831e+00    0.1378981    0.1194997   5.19 0.0008104882    1.009    0.009
       137 -10.7434    136.5355    211.4863   9.2238822547e+01   1.0406607120e+01    0.1410074    0.1295601  27.76 0.0001816822    1.008    0.008
       138 -12.7097    241.8537     36.1138   3.4209913526e+01   2.2198885579e+01    0.5329179     0.253459  74.15  0.002125095    2.175    0.540
       139 -11.6163    104.2419     36.4711   5.5988885126e+01   5.3745354190e+01    0.2414261    0.1870781 -23.49 0.0005967398    1.382    0.276
       140 -12.0386     72.5402    207.5378   1.0687118340e+02   2.1150621586e+01    0.4311101    0.3229535 -84.57   0.00240179    1.359    0.264
       141 -13.6599    216.0549     28.2470   3.4913032080e+01   2.8557365806e+01    0.5108279    0.2641533 -56.91  0.002503704    1.833    0.455
       142 -12.9495    223.3781     20.9376   3.2659869290e+01   2.7850377012e+01    0.3295692    0.2418035  73.05  0.001480259    1.343    0.255
       143 -11.9925     41.1517    206.6632   1.1409496092e+02   2.5281740730e+01    0.2296377    0.1580557  85.98  0.001172892    1.357    0.263
       144 -13.0118     55.3650     27.2369   6.8793534821e+01   6.4494042450e+01    0.5925381    0.3111129  42.98   0.00251203    1.929    0.482
       145 -11.7867     63.9226     24.9473   6.4382504894e+01   6.3333706998e+01    0.4676618     0.239293  21.58  0.002079549    2.432    0.589
       146 -11.0459     98.3760     27.2207   5.4143964666e+01   5.6170861126e+01    0.2718681    0.1734132  60.90  0.001213968    1.630    0.387
       147 -11.0461     36.2569     23.8535   7.5879818743e+01   6.7793017213e+01    0.2809854    0.1536885 -35.69  0.001542802    1.768    0.434
       148 -11.9455     48.0132     20.6687   6.8964435258e+01   6.6538972358e+01      0.60229    0.2298167  37.75  0.002729492    2.404    0.584
       149 -11.0194    202.5073     21.5045   3.4728793009e+01   3.2344628003e+01    0.1265666    0.1059709 -79.76 0.0008106328    1.004    0.004
       150 -12.2956     57.4809    203.1673   1.0994922002e+02   2.4142427475e+01    0.5505297    0.2757755 -85.86  0.002373456    2.420    0.587
       151 -13.0002     40.2181    195.1379   1.1322394440e+02   2.8084329735e+01    0.4500362     0.240885  82.30  0.001910415    2.087    0.521
       152 -12.9861     15.5431    196.5347   1.1905101798e+02   3.0244926828e+01    0.5133935    0.4045671 -83.69  0.002569384    1.120    0.107
       153 -12.2855    248.8293    196.9875   6.6418015049e+01  -4.6546559727e+00    0.5436569    0.2565053 -42.94  0.002645647    2.147    0.534
       154 -13.5164     29.7141    169.5404   1.1321445258e+02   3.5437342458e+01      1.03399    0.8965937 -35.69  0.006394183    1.387    0.279
       155 -13.5481     22.2317    181.1966   1.1624412098e+02   3.3273767975e+01    0.9805692     0.394804 -54.37  0.004307976    2.516    0.602
       156 -15.1115      8.1886    183.6062   1.1977828686e+02   3.3914250267e+01     1.295449    0.9975314 -83.89  0.008423082    1.090    0.083
       157 -15.0869     15.7175    175.4992   1.1733371027e+02   3.5237124664e+01     2.104357     1.042852  64.73   0.01004863    2.148    0.534
       158 -10.1103    123.3520     11.2898   4.2728967012e+01   5.2072676825e+01     0.139381   0.08258653  40.58 0.0007026633    1.672    0.402
       159 -12.5100    164.2456    195.5804   8.3046279014e+01   8.9452789709e+00    0.4253692    0.2701913 -66.85  0.001776387    2.559    0.609
       160 -11.5213    200.9023    192.0159   7.4429545176e+01   3.3796925958e+00    0.2863518    0.2208462 -20.02  0.001574737    1.208    0.172
       161 -11.7849     49.1118    182.0394   1.0961912385e+02   3.0246449650e+01    0.3971117    0.2130024 -56.72  0.001875989    1.806    0.446
       162 -11.9066    198.6342    181.8852   7.2872283785e+01   5.6495247332e+00    0.2727532     0.211018  39.65  0.001405444    1.400    0.286
       163 -11.7504     85.3667    180.7881   1.0001148030e+02   2.5681537583e+01    0.2921382    0.2213085  64.85  0.001470088    1.415    0.293
       164 -12.5244    124.2556    166.8778   8.7224154072e+01   2.2546732141e+01    0.6569264    0.4387613 -67.91  0.002821295    1.840    0.456
       165 -13.7749    217.5982     42.3223   3.7897162941e+01   2.6435651296e+01    0.9116729    0.3941715  63.82  0.003642029    2.272    0.560
