#   1 NUMBER                 Running object number                                     
#   2 MAG_AUTO               Kron-like elliptical aperture magnitude                    [mag]
#   3 X_IMAGE                Object position along x                                    [pixel]
#   4 Y_IMAGE                Object position along y                                    [pixel]
#   5 X_WORLD                Barycenter position along world x axis                     [deg]
#   6 Y_WORLD                Barycenter position along world y axis                     [deg]
#   7 A_WORLD                Profile RMS along major axis (world units)                 [deg]
#   8 B_WORLD                Profile RMS along minor axis (world units)                 [deg]
#   9 THETA_WORLD            Position angle (CCW/world-x)                               [deg]
#  10 FWHM_WORLD             FWHM assuming a gaussian core                              [deg]
#  11 ELONGATION             A_IMAGE/B_IMAGE                                           
#  12 ELLIPTICITY            1 - B_IMAGE/A_IMAGE                                       
         1 -13.4453      2.8725     36.3912   9.5504573091e+01   7.1111326838e+01     1.246961    0.1112024 -71.81  0.003183478    6.447    0.845
         2 -12.5669     13.7715     11.2215   7.7530768827e+01   7.6230444287e+01    0.4179532    0.2059838 -38.55  0.001767671    1.923    0.480
         3 -12.4645     16.3614      5.2730   7.1484790280e+01   7.7150618206e+01    0.4619381    0.3038019 -21.19  0.002456306    1.561    0.359
         4 -12.3527      1.8343     23.6485   9.3237310969e+01   7.4216687134e+01    0.6704959    0.1715349 -71.19  0.002395078    3.503    0.715
         5 -13.5476      6.1171      9.1150   8.3859676123e+01   7.7293108501e+01     1.187196    0.5278426 -47.16  0.005753974    1.893    0.472
         6 -14.9125    248.4115      3.4874   1.5194277827e+01   2.4344836632e+01     2.152264    0.6677031 -22.30  0.009450653    3.249    0.692
         7 -13.8513     12.5891     21.8161   8.3579898264e+01   7.4030423418e+01    0.8327095    0.3312977 -43.48  0.003595752    2.258    0.557
         8 -11.8659     26.9890     14.7977   6.8353941675e+01   7.3990381995e+01    0.3325594     0.154986 -34.28  0.001406799    2.402    0.584
         9 -12.3785     20.5374     12.3586   7.2157038787e+01   7.5283697867e+01    0.4497461    0.1790161 -39.67  0.001861768    2.532    0.605
        10 -12.4404     25.3021      3.1361   6.1963388284e+01   7.6349976429e+01    0.4542958    0.2769713  16.77   0.00228946    1.858    0.462
        11 -10.6346     38.7154    239.2729   1.0055186186e+02   2.1016545755e+01    0.2553077    0.1189168  50.02  0.001518268    1.723    0.420
        12 -12.7371    247.8321    225.0029   5.8324627562e+01  -6.5840155447e-01    0.6097113    0.2384695 -15.18  0.003122943    3.162    0.684
        13 -11.8414    233.5567    249.6696   6.3911083130e+01  -1.6503412145e+00    0.2914295    0.1655689  15.52  0.001936991    1.271    0.213
        14 -13.1070    238.0692    239.7750   6.1885815077e+01  -1.1414109322e+00     0.979858    0.3940492   2.09   0.00401213    5.163    0.806
        15 -11.7261    250.0800    231.8083   5.8971322775e+01  -1.5373251546e+00    0.3005481    0.1404278 -23.15  0.002046505    1.848    0.459
        16 -12.2854    243.4003    244.4577   6.1717216515e+01  -2.0946369706e+00    0.3446537    0.1776435 -11.73  0.001938435    1.667    0.400
        17 -12.1904    247.6335    238.1597   6.0223600168e+01  -1.9053188341e+00    0.3800791    0.1770228 -13.53  0.002486041    1.990    0.497
        18 -12.0963    249.0510    247.8100   6.1329794715e+01  -2.9232486541e+00    0.4961401    0.2107185 -26.28  0.003384192    2.141    0.533
        19 -11.6322    241.3525    249.9354   6.2757901022e+01  -2.4087218606e+00    0.3548739    0.1429568  25.49  0.002134111    1.967    0.492
        20 -12.2969    226.4009    246.7003   6.4636475434e+01  -6.7056054123e-01    0.2928679    0.1648052  -0.48  0.002102718    1.483    0.325
        21 -11.4239    104.5462    250.4759   8.7524302988e+01   1.2332422381e+01    0.2497102   0.08331951  29.36  0.001217173    2.191    0.544
        22 -11.8534     87.1758    250.1539   9.1054845356e+01   1.4303179133e+01    0.4030022    0.1261122  27.93  0.001892759    2.436    0.589
        23 -12.2066     75.5041    249.3053   9.3403565602e+01   1.5687717068e+01    0.5477651    0.1197379  37.50  0.002427464    2.774    0.640
        24 -12.1287     66.1002    247.9417   9.5265922562e+01   1.6885668864e+01    0.4128317    0.1714956  43.37  0.002331375    1.838    0.456
        25 -11.7136     51.5421    249.2738   9.8354026283e+01   1.8140077805e+01    0.4916082    0.1323085  37.78  0.002444109    2.275    0.560
        26 -11.3258     45.6717    243.5227   9.9286479612e+01   1.9644029970e+01    0.3353006    0.1586662  45.13   0.00203802    1.589    0.371
        27 -11.8925     37.8827    247.7641   1.0109152102e+02   1.9685249575e+01    0.4853263    0.1655944  49.63  0.002596505    2.282    0.562
        28 -11.8216     20.8208    248.0136   1.0456653870e+02   2.1161940472e+01    0.3688286    0.1746203  50.30  0.001934856    1.580    0.367
        29 -11.5784     12.7182    247.9315   1.0618492066e+02   2.1850906664e+01    0.3576991    0.1621834  46.43  0.001764731    1.524    0.344
        30 -11.8041      4.2449    249.6707   1.0788960607e+02   2.2242003797e+01    0.3310431    0.2092725  29.43  0.001923269    1.311    0.237
        31 -12.2056      3.5625    241.6814   1.0788336319e+02   2.3615872945e+01    0.4507849      0.18781  54.07   0.00209099    1.777    0.437
        32 -10.9658     65.1584    238.2778   9.4851006619e+01   1.8546423088e+01     0.216906     0.112412  58.11  0.001240477    2.066    0.516
        33 -12.0595     16.3838    239.0404   1.0521454469e+02   2.3035516480e+01    0.5995611    0.1540695  40.30  0.003083309    2.245    0.555
        34 -10.8482     45.7129    236.1397   9.8909219118e+01   2.0880203482e+01    0.2309613    0.1264641  52.45  0.001440468    1.568    0.362
        35 -11.5276      6.9438    234.7328   1.0705882181e+02   2.4540984150e+01    0.3130244     0.165868  65.47  0.001462395    1.666    0.400
        36 -12.1348     57.9714    240.9308   9.6551725174e+01   1.8852119347e+01    0.4093452    0.1664521  47.50  0.002222116    2.029    0.507
        37 -11.2258     95.2978    234.6255   8.8072347343e+01   1.5798174715e+01    0.1936958    0.1084964  48.39  0.001126655    1.754    0.430
        38 -12.3360    231.8628    232.5412   6.1839604939e+01   1.9390404950e-01    0.2823261    0.1491482   0.69  0.001848558    1.747    0.428
        39  -9.9828      1.3169    233.4970   1.0819505666e+02   2.5189166732e+01    0.1580898   0.08745411  86.90  0.001052206    1.902    0.474
        40 -11.2152     14.7486    230.7098   1.0532379013e+02   2.4619311490e+01    0.3543751    0.1461072  46.88  0.002071901    1.723    0.420
        41 -11.8883     60.7372    230.3105   9.5292693387e+01   2.0361489454e+01    0.3588354    0.1250931  46.77  0.001719491    2.403    0.584
        42 -11.4338     40.1359    230.0736   9.9815383326e+01   2.2472794631e+01    0.3012731    0.1562565  57.83  0.001794429    1.782    0.439
        43 -12.2372     26.4673    227.1643   1.0267982118e+02   2.4250927334e+01    0.4283151    0.2009941  74.60  0.002413709    2.310    0.567
        44 -10.6309     48.9058    228.7541   9.7814440275e+01   2.1848390952e+01    0.2281705    0.1081666  58.70  0.001239651    2.130    0.530
        45 -11.7386      2.7996    219.1631   1.0761144894e+02   2.7655010202e+01     0.340685    0.2135761  70.30  0.002340569    1.442    0.306
        46 -10.5772     32.9810    227.9761   1.0128668899e+02   2.3516844387e+01    0.1982327   0.09170411  50.35  0.001134274    1.731    0.422
        47 -11.8396    236.8720    226.3407   6.0175457157e+01   3.1292738403e-01    0.2051305    0.1205195 -14.22  0.001479876    1.412    0.292
        48 -11.2960     11.6292    224.5566   1.0582292115e+02   2.5977735472e+01    0.3357344    0.1468985  46.20  0.001740899    1.635    0.388
        49 -11.5607     19.2309    220.7615   1.0404068050e+02   2.6047055349e+01     0.340158    0.1229762  51.92  0.001766344    2.153    0.536
        50 -11.6781      5.1438    226.8088   1.0726704114e+02   2.6081058808e+01    0.4056878    0.1620083  53.72  0.002223586    1.880    0.468
        51 -11.4088    238.9945    217.2337   5.8508698673e+01   1.0348256946e+00    0.1977707    0.1054274 -13.48  0.001298787    1.658    0.397
        52 -11.1238     35.3028    216.1998   1.0021390083e+02   2.5464769389e+01    0.3089677    0.1578555  74.13   0.00170895    2.158    0.537
        53 -11.8107     12.8912    215.5343   1.0528855069e+02   2.7549613996e+01    0.3924205     0.186629  54.09  0.002129136    1.672    0.402
        54 -12.3152    248.5364    213.5944   5.6526151907e+01   4.1727658898e-01    0.3704017    0.1527337 -22.49  0.002179464    2.207    0.547
        55 -10.7817     28.9914    210.6555   1.0141131431e+02   2.7106959396e+01    0.2306705    0.1229098  57.11  0.001332692    1.647    0.393
        56 -11.1646     21.4159    210.1941   1.0315721169e+02   2.7863691555e+01    0.2496412    0.1255184  55.36   0.00143335    1.667    0.400
        57 -12.4285     13.0292    203.4217   1.0487553367e+02   2.9888770841e+01    0.4509728    0.2053356  49.68  0.002513522    1.702    0.413
        58 -10.9320      1.7378    204.4969   1.0753831077e+02   3.0535360914e+01     0.202596    0.1418032  79.93  0.001392997    1.377    0.274
        59 -11.7261      2.7966    210.9988   1.0743963793e+02   2.9194879041e+01    0.3579019    0.1831557  62.58  0.001995534    1.641    0.391
        60 -12.3011      3.9154    195.5703   1.0681330042e+02   3.2166055044e+01    0.4037808    0.1800354  59.78  0.002116373    1.873    0.466
        61 -11.1913     17.5799    194.7108   1.0345882141e+02   3.1285767471e+01    0.2293516   0.09944307  43.76  0.001199264    1.761    0.432
        62 -10.6881     17.9945    188.9947   1.0311754265e+02   3.2445123982e+01    0.2142916    0.1043592  53.65  0.001138507    1.726    0.420
        63 -12.5017      3.8305    186.6233   1.0659431300e+02   3.4028720335e+01    0.5336048    0.1589715  54.61  0.002375396    2.652    0.623
        64 -11.5294     12.1081    182.3962   1.0435303324e+02   3.4320725110e+01     0.257834    0.1243095  68.66  0.001333692    1.948    0.487
        65 -12.0080      2.2693    176.5506   1.0670888176e+02   3.6298926041e+01    0.3334566    0.1869906  74.56  0.001906713    1.617    0.381
        66 -11.0662      9.4939    176.4849   1.0481159776e+02   3.5804290399e+01    0.2179182   0.09379414  76.89  0.001034398    2.301    0.565
        67 -12.0075      6.7953    170.7394   1.0532197759e+02   3.7272012858e+01    0.2708067    0.1499451  89.96  0.001488802    1.743    0.426
        68 -11.1601      1.6746    169.1254   1.0665029370e+02   3.7979002901e+01    0.2767662    0.1271876 -77.24  0.001404601    2.152    0.535
        69 -11.3316     10.9981    165.9501   1.0398047992e+02   3.8053679169e+01    0.2197015    0.1112145  54.64  0.001134705    1.706    0.414
        70 -11.9352      2.1447    163.7093   1.0635495490e+02   3.9170399289e+01    0.2860636    0.1702212  55.41  0.001645563    1.416    0.294
        71 -12.0883     10.1252    154.4344   1.0371153261e+02   4.0788063739e+01    0.2734988    0.1354729  70.33  0.001336483    1.925    0.481
        72 -12.2242      3.8488    152.7128   1.0548453464e+02   4.1608790464e+01    0.2799076    0.1585402 -89.07  0.001505657    1.657    0.397
        73 -11.6863      2.9415    141.9492   1.0533176526e+02   4.4233648850e+01    0.2916066    0.1353992  72.00  0.001373544    2.032    0.508
        74 -11.3746      4.6212    134.8244   1.0448312428e+02   4.5875325504e+01      0.19271    0.1034325  78.66 0.0009348593    1.746    0.427
        75 -10.7012      2.0000     92.9849   1.0300155030e+02   5.6651892199e+01    0.2242861   0.06819074 -81.49 0.0008049088    2.960    0.662
        76 -10.7387     27.3657    248.1552   1.0324999616e+02   2.0571809147e+01    0.3230667   0.07320342  45.02  0.001571411    2.629    0.620
        77 -12.3744    212.5915    245.1894   6.6669457166e+01   8.7856205005e-01     0.321676     0.150164   8.95  0.001854727    2.250    0.555
        78 -10.5416    128.3369    246.6693   8.2359712042e+01   1.0150022355e+01    0.1123373   0.07095457  46.17 0.0007052066    1.734    0.423
        79 -12.2777     98.6297    243.5172   8.8144700647e+01   1.4031254904e+01    0.3636979    0.1533158  43.27  0.001933436    2.065    0.516
        80 -12.5970     85.1670    242.9899   9.0926669168e+01   1.5623103727e+01    0.3117642    0.1611185  45.11  0.001855535    1.671    0.402
        81 -11.6851      8.5270     42.4405   9.2908991949e+01   6.9376071802e+01    0.2835331    0.1186676 -70.70  0.001212666    2.179    0.541
        82 -12.5900     13.5659     36.0032   8.7759189263e+01   7.0651535451e+01    0.4814367     0.198412 -70.74  0.001979023    2.488    0.598
        83 -12.1026     19.5215     28.7970   8.0929729066e+01   7.1864625794e+01    0.4336349    0.1472283 -45.06  0.001666916    2.690    0.628
        84 -11.8412     30.1181    239.3187   1.0236476461e+02   2.1798798438e+01    0.3925183    0.1774454  50.00  0.002221551    1.716    0.417
        85 -12.1636    226.4364    239.3452   6.3640608260e+01   5.6962765587e-02    0.2400611    0.1216081  -2.24  0.001507128    1.975    0.494
        86 -11.8098    108.1233    239.7633   8.5820957310e+01   1.3505500493e+01    0.2880028    0.1057604  41.38  0.001403237    2.320    0.569
        87 -11.9653     73.5449    239.4820   9.3134752802e+01   1.7454179541e+01    0.2549309    0.1566078  45.98  0.001522893    1.379    0.275
