#   1 NUMBER                 Running object number                                     
#   2 MAG_AUTO               Kron-like elliptical aperture magnitude                    [mag]
#   3 X_IMAGE                Object position along x                                    [pixel]
#   4 Y_IMAGE                Object position along y                                    [pixel]
#   5 X_WORLD                Barycenter position along world x axis                     [deg]
#   6 Y_WORLD                Barycenter position along world y axis                     [deg]
#   7 A_WORLD                Profile RMS along major axis (world units)                 [deg]
#   8 B_WORLD                Profile RMS along minor axis (world units)                 [deg]
#   9 THETA_WORLD            Position angle (CCW/world-x)                               [deg]
#  10 FWHM_WORLD             FWHM assuming a gaussian core                              [deg]
#  11 ELONGATION             A_IMAGE/B_IMAGE                                           
#  12 ELLIPTICITY            1 - B_IMAGE/A_IMAGE                                       
         1 -13.5285    230.4240      3.6065   3.5886345712e+01   2.7337016968e+01     1.586211    0.6547366  59.17  0.005922897    2.494    0.599
         2 -13.9547    186.1622     46.5118   5.1925704773e+01   3.2818547620e+01     1.275957     1.024991  25.13 0.0009184629    1.548    0.354
         3 -14.1997    196.4881     38.5117   4.8170978243e+01   3.1331837796e+01     1.464096     1.269497 -32.46  0.003651477    1.233    0.189
         4 -14.6825    206.3002     28.0271   4.4128593592e+01   3.0255665352e+01      1.65747     1.312176  31.48   0.00175304    1.641    0.390
         5 -11.5682     58.9925      2.8557   6.6311979744e+01   6.7117109303e+01    0.2964783    0.1644712  43.91  0.001649758    1.692    0.409
         6 -13.8717     72.5934    156.3041   1.0794157766e+02   3.3849331050e+01    0.6043356    0.5745555 -37.16  0.002491851    1.267    0.211
         7 -12.2352    139.2352    248.1350   1.0569023331e+02   4.6520694111e+00    0.4713006    0.3716547 -61.84  0.003167114    1.587    0.370
         8 -13.9661     48.3427    222.3789   1.2061643019e+02   2.2392455268e+01     1.520998    0.9148412  73.85  0.006462697    1.470    0.320
         9 -14.1448     86.5813    225.1013   1.1338651742e+02   1.6746714734e+01     1.725248     1.269333  47.65  0.004356497    1.189    0.159
        10 -15.3552     68.4923    144.2039   1.0710236967e+02   3.7350681043e+01     6.106958     3.097272  67.70   0.02267466    3.184    0.686
        11  -9.2131     94.3027    186.8986   1.0714699972e+02   2.3495708204e+01     0.184409    0.1592643 -84.88 0.0006277508    1.121    0.108
        12 -15.5094      9.6335    206.4093   1.2687667848e+02   2.9789619591e+01    0.7372965    0.6110278  21.60  0.004641116    1.798    0.444
        13 -10.6179     99.0789    180.9590   1.0517779294e+02   2.4053232303e+01    0.3221489    0.2714637 -11.65   0.00176468    1.675    0.403
        14 -10.5856    146.0375    182.0351   9.4487483807e+01   1.5509668187e+01     0.229634    0.2113429  39.53 0.0004884535    1.032    0.031
        15  -9.4744     41.9999    179.0262   1.1816152982e+02   3.2387210022e+01    0.1866744    0.1517523  84.32  0.001208821    1.010    0.010
        16 -10.2022    204.4298    176.1814   8.0895997927e+01   5.4871281211e+00    0.3322805    0.2325499 -45.81  0.001127562    1.576    0.365
        17  -9.8856    197.1732    176.5986   8.2432306022e+01   6.7789303493e+00    0.2526437    0.2331237  85.83  0.001445989    1.406    0.289
        18 -11.4513    140.6270    173.5561   9.4168189900e+01   1.8305463819e+01    0.6390312    0.4262245  82.55  0.002081543    2.448    0.591
        19 -12.2500     71.8369    174.9801   1.1078013488e+02   2.9547360094e+01    0.4756407    0.2976424 -39.69  0.002278107    2.268    0.559
        20 -12.1079     76.0518    170.1055   1.0910332092e+02   3.0082294058e+01    0.3055424    0.2552796 -45.57  0.001221754    1.418    0.295
        21  -9.7386    188.5598    175.0957   8.3893944316e+01   8.6981974199e+00    0.2518903    0.2076869 -57.14 0.0009212053    1.455    0.313
        22 -10.9143     46.5106    171.6374   1.1635774202e+02   3.3566382688e+01    0.4719174    0.2856735 -82.20  0.001985195    1.508    0.337
        23 -10.7829     33.0434    165.5400   1.1887305208e+02   3.6453383762e+01    0.4206218    0.2052301  86.88  0.001647318    2.185    0.542
        24 -10.1882     37.2277    161.9129   1.1750000254e+02   3.6865677399e+01    0.3560553    0.2224838   4.73  0.001743713    2.894    0.654
        25 -10.2195    230.2241    165.9703   7.3898124763e+01   2.4788683288e+00    0.1838424    0.1047043 -35.34 0.0005772155    1.656    0.396
        26  -9.6538    186.7584    164.9357   8.2172680089e+01   1.0960227106e+01    0.1901573    0.1221304 -38.66 0.0008583679    1.581    0.368
        27 -10.3995     51.5420    164.0473   1.1427884603e+02   3.4748942423e+01    0.3375667     0.190327 -46.58  0.001635497    2.169    0.539
        28 -10.8371    158.9171    161.9963   8.7665344347e+01   1.7157321275e+01    0.4169935    0.3100159 -79.56 0.0008625162    1.902    0.474
        29 -12.2402     90.8048    154.2165   1.0290205262e+02   3.1600722877e+01    0.6584473    0.4645473 -25.58  0.003043376    2.126    0.530
        30 -10.3142    188.2206    152.8288   7.9244384629e+01   1.2996236952e+01    0.2489775    0.1716939 -84.53 0.0009562949    2.880    0.653
        31 -11.4014    133.8774    145.2871   9.0095702875e+01   2.5868482803e+01     1.247517    0.3263051 -54.97  0.002986518    5.568    0.820
        32  -9.0916    112.5748    150.7916   9.6645200020e+01   2.8679008893e+01    0.2013676    0.1413069 -69.20 0.0004991275    1.552    0.356
        33 -10.8768    174.5367    149.1165   8.1362396786e+01   1.6592252898e+01    0.3013195    0.2925874 -51.74 0.0007322035    1.083    0.077
        34 -10.6244    144.1589    146.4819   8.7823198917e+01   2.3512231730e+01    0.3752735    0.2213539 -67.65  0.001400635    2.519    0.603
        35 -10.6353     85.1093    144.4515   1.0266878930e+02   3.4854473478e+01    0.3215271    0.2255421  58.73  0.001586013    1.523    0.343
        36 -11.0781    104.1733    139.2605   9.6526405325e+01   3.2923638007e+01    0.5732547    0.3654502 -25.92  0.002299794    2.477    0.596
        37 -12.4456     91.4952    139.5072   1.0000869568e+02   3.5031254412e+01    0.2748731    0.2554887 -49.49   0.00154519    1.131    0.116
        38 -13.5501     20.1630    192.7014   1.2397473748e+02   3.1656692583e+01    0.8422763     0.471982  48.00  0.002745811    1.622    0.383
        39 -10.6922    105.9682    130.7841   9.4228004467e+01   3.4625216215e+01    0.3615938    0.3095019 -76.78  0.001274328    1.209    0.173
        40 -10.8462    112.7760    129.9530   9.2183584277e+01   3.3557180333e+01    0.3807904    0.2987854  10.21  0.000979446    1.675    0.403
        41 -11.5198    135.7364    127.2361   8.5478454606e+01   2.9582715904e+01    0.7382077    0.2085387 -50.86  0.002019237    3.922    0.745
        42 -10.5501    160.7472    127.5903   7.9433639830e+01   2.4078110024e+01    0.3208325    0.2664014 -66.23  0.001545873    1.356    0.263
        43 -11.0882     99.9640    126.1199   9.4860361624e+01   3.6818192316e+01    0.3194551    0.2612158 -17.70  0.001584836    1.528    0.346
        44  -8.9935     95.7232    127.7385   9.6411503806e+01   3.7167757149e+01     0.190748     0.171514  79.59 0.0001802248    1.150    0.131
        45 -11.4673    119.3304    123.2167   8.8828911736e+01   3.3863779714e+01    0.6727991    0.4266211 -11.79  0.002303337    3.311    0.698
        46 -10.0871    108.6802    119.0385   9.0759701990e+01   3.6905452728e+01    0.2335903    0.2113409  45.25 0.0006350509    1.141    0.123
        47 -10.0999    168.1484    112.7936   7.3974643188e+01   2.5494796544e+01     0.373195     0.278096 -78.70  0.001532097    1.852    0.460
        48 -10.7372    134.6350    106.5874   8.0471147885e+01   3.4420836586e+01    0.7426017     0.153489 -45.74  0.001796369    4.829    0.793
        49 -11.9038    117.7984    108.8631   8.5633976639e+01   3.7472325949e+01    0.6366838    0.5895241 -78.84  0.003342441    1.142    0.124
        50 -10.2029    205.4809    110.1538   6.5648843247e+01   1.7414403391e+01    0.3128343    0.2180838  41.65 0.0009298982    1.542    0.351
        51 -11.4200     27.1408    107.4047   1.1305618696e+02   5.0889884808e+01    0.2761952    0.1651841  17.28  0.001407858    2.132    0.531
        52  -9.7505     61.2168    220.2596   1.1795058379e+02   2.1193476011e+01    0.2218035    0.1786808 -74.59 0.0008722871    1.335    0.251
        53 -16.7873     38.1900    249.0405   1.2422195621e+02   1.8591398668e+01     9.565654     2.889522  29.26   0.02709593   10.155    0.902
        54 -14.2389     68.3318    242.8452   1.1848144458e+02   1.5962643739e+01    0.7723713    0.4400773  70.75   0.00461993    1.683    0.406
        55 -10.9988     57.3978     95.6582   1.0091287978e+02   5.0579988337e+01    0.5324455    0.2885337  49.72  0.001964166    2.366    0.577
        56 -11.0052     52.5328     90.9788   1.0145291365e+02   5.2263805601e+01     0.326844    0.2456387 -31.17  0.001472797    1.389    0.280
        57 -11.4693    112.8576    197.8776   1.0451636315e+02   1.8123371999e+01      0.42221    0.3025381  72.83  0.002236753    1.548    0.354
        58 -10.4403     45.1708     90.1845   1.0379736811e+02   5.3274333583e+01    0.1738005    0.1529631  83.34 0.0004711478    1.306    0.234
        59  -9.3183    160.5161     87.5529   6.8779809905e+01   3.2338936276e+01    0.1562532    0.1513098 -77.53   0.00012665    1.051    0.048
        60 -10.3359    157.3431     81.1460   6.7634237068e+01   3.4324810421e+01    0.2613924    0.2153194  40.16 0.0006279984    1.253    0.202
        61  -9.5837    184.5065     76.9858   6.0817467718e+01   2.8388563442e+01    0.2316673    0.1496101 -34.00 0.0008257387    1.558    0.358
        62 -10.3697     60.7444     68.3884   9.2383081499e+01   5.6259078005e+01    0.2673956    0.2197886  55.50  0.001514982    1.564    0.361
        63 -12.0079    173.1112     62.0242   5.8691231562e+01   3.3751696635e+01    0.5340831     0.337822 -50.29  0.002357493    1.674    0.403
        64 -17.7037      5.6082    240.5227   1.2921201650e+02   2.3596788972e+01     12.46338     1.042809 -77.21   0.03074838    8.781    0.886
        65 -12.6662    196.1730    197.4294   8.6656989339e+01   3.3572365260e+00      1.23059     1.018717  87.36  0.006743084    1.920    0.479
        66 -11.6430    207.6774    194.8762   8.3919237033e+01   1.7507470687e+00    0.4902711    0.1982178 -40.23  0.002042606    2.584    0.613
        67 -15.6400     53.3275    197.7966   1.1751311379e+02   2.6873032955e+01     4.081959     4.003798 -31.63   0.02270976    1.440    0.306
        68 -11.5301    149.2854     52.9234   6.0728485970e+01   4.1183965583e+01    0.4990585    0.3409941 -81.23  0.001701336    2.132    0.531
        69 -11.1297    107.8246    203.1968   1.0636237608e+02   1.7851610584e+01     0.424484    0.2105867  51.89  0.001932225    1.940    0.484
        70 -11.0437    150.7716     46.4063   5.8314621514e+01   4.1799819480e+01    0.3142167    0.2588196  89.85 0.0005920206    1.367    0.269
        71 -10.1145    151.9398    196.4976   9.5709817558e+01   1.1544306401e+01    0.1995801    0.1969548 -52.13   0.00122845    1.118    0.106
        72  -9.7009    189.6716     14.9860   4.2625934716e+01   3.5889999911e+01    0.1864743    0.1683802 -55.65 0.0006113434    1.134    0.118
        73 -10.8292    113.7227    207.7371   1.0570116214e+02   1.5969576883e+01    0.2995328    0.2125938  68.57  0.001311725    1.498    0.333
