#   1 NUMBER                 Running object number                                     
#   2 MAG_AUTO               Kron-like elliptical aperture magnitude                    [mag]
#   3 X_IMAGE                Object position along x                                    [pixel]
#   4 Y_IMAGE                Object position along y                                    [pixel]
#   5 X_WORLD                Barycenter position along world x axis                     [deg]
#   6 Y_WORLD                Barycenter position along world y axis                     [deg]
#   7 A_WORLD                Profile RMS along major axis (world units)                 [deg]
#   8 B_WORLD                Profile RMS along minor axis (world units)                 [deg]
#   9 THETA_WORLD            Position angle (CCW/world-x)                               [deg]
#  10 FWHM_WORLD             FWHM assuming a gaussian core                              [deg]
#  11 ELONGATION             A_IMAGE/B_IMAGE                                           
#  12 ELLIPTICITY            1 - B_IMAGE/A_IMAGE                                       
         1 -12.7335    196.7601     32.2052   6.5581443496e+01   3.2481346495e+01     1.027087    0.7977259  41.60  0.005861752    1.594    0.373
         2 -13.4877    211.1696     14.0868   5.9734258132e+01   3.1246568957e+01     1.125244    0.9046621  34.64  0.006958548    1.781    0.439
         3 -11.4953      2.0000     23.0417   1.1706390904e+02   6.9581960343e+01    0.4817769    0.0974225 -48.80  0.002029808    3.868    0.741
         4 -11.2498      2.1196      7.8042   1.1096765085e+02   7.1744952037e+01    0.4458895     0.116067 -43.72  0.002133299    3.383    0.704
         5  -9.8047     15.0205     12.7675   1.0687224591e+02   7.0014162634e+01    0.1287083   0.07656004  20.12 0.0003887904    1.609    0.378
         6 -11.3162    139.3940    249.3784   1.2468045912e+02   3.0107363267e+00    0.3190945    0.2430435 -60.37  0.001935722    1.535    0.348
         7 -12.2380    126.3536    246.9923   1.2693718681e+02   5.6289403041e+00    0.4956104    0.4004844 -47.39  0.003075925    1.520    0.342
         8 -12.0412     99.9338    248.6483   1.3228556778e+02   9.6212897031e+00    0.4305904    0.3011032  40.76  0.002119672    1.387    0.279
         9 -11.5631     64.0959    247.2612   1.3888780820e+02   1.5231427380e+01     0.453891    0.2588175  77.91 0.0008719701    1.739    0.425
        10 -12.0214     41.1363    206.3583   1.3951080733e+02   2.6868203565e+01    0.6725063    0.4021089 -57.66 0.0002654098    1.796    0.443
        11 -14.8923     13.7611    243.1889   1.4740265403e+02   2.2271041681e+01     7.632367     2.505551  30.69   0.01718511    5.090    0.804
        12 -12.3083     33.7232    228.0050   1.4285323113e+02   2.3080445301e+01    0.3304412    0.2471847 -74.53 0.0007693946    1.341    0.254
        13 -14.2265     40.3373    219.7236   1.4091014220e+02   2.4036404430e+01     1.792518      1.48746 -16.41  0.008720394    2.208    0.547
        14 -11.3315     66.9201    187.4082   1.3174504406e+02   2.7851476540e+01    0.2905717    0.2337109 -54.32 0.0005941943    1.378    0.274
        15 -11.1082     60.8045    195.0238   1.3409434121e+02   2.6918919055e+01    0.3449146      0.24417 -49.28  0.001366265    1.692    0.409
        16 -10.5412     76.9026    175.3470   1.2765627524e+02   2.9274445245e+01    0.2479191    0.2212424 -73.09 0.0003279929    1.099    0.090
        17 -12.8360     63.7590    172.8939   1.3046364749e+02   3.1759181761e+01    0.5375994    0.2785603 -46.16  0.001530299    2.300    0.565
        18 -11.5041     84.7114    166.3622   1.2427120520e+02   3.0244892881e+01    0.6279472    0.5756474  72.64  0.003630342    1.081    0.075
        19 -15.2243      5.7072    147.3564   1.4127132713e+02   4.3956076813e+01     6.383978     2.103442 -80.69   0.02498588    3.232    0.691
        20  -9.5017     97.5318    150.7482   1.1808129631e+02   3.1923779844e+01    0.2825215    0.2670426  81.44 0.0008225805    1.050    0.048
        21 -11.7122     86.0425    149.7977   1.2091993353e+02   3.4076671253e+01    0.3072115    0.2544304 -44.63 0.0004732243    1.272    0.214
        22  -9.2103    134.3069    148.7966   1.0824028338e+02   2.5370973041e+01    0.3163656    0.1394363 -56.80  0.001048633    2.568    0.611
        23 -11.9911     67.7538    144.0918   1.2473841726e+02   3.8222490092e+01    0.6992307    0.4903666  72.46  0.002637379    1.699    0.411
        24  -8.5761    100.6463    146.7038   1.1643636201e+02   3.2359681117e+01    0.1499102    0.1196673 -16.19 0.0007033809    1.691    0.408
        25  -8.3465    192.2374    144.3360   9.3976624887e+01   1.3814796253e+01    0.1494999    0.1188776 -13.73 0.0002553342    1.543    0.352
        26 -11.4480     57.4163    132.3299   1.2540513759e+02   4.2449004956e+01     0.947395    0.3693512 -74.82  0.002524234    5.814    0.828
        27  -9.4113    109.4667    136.3424   1.1183787842e+02   3.3238047410e+01    0.3372916    0.2397859 -19.73   0.00144295    2.055    0.513
        28 -10.5705     53.2170    229.1191   1.3928079860e+02   2.0395375157e+01    0.2452912    0.1601164  66.44 0.0006430252    1.297    0.229
        29 -10.1691     96.5241    133.4150   1.1468835589e+02   3.6289092936e+01    0.2804662    0.2398087 -24.29 0.0008944506    1.355    0.262
        30 -10.3761     50.2728    130.0398   1.2699624274e+02   4.3868444560e+01    0.2371286    0.1936444  53.22 0.0007535971    1.370    0.270
        31  -8.9891    106.7451    123.2301   1.0949939852e+02   3.6838598321e+01    0.1928041    0.1727924 -11.55 0.0003367485    1.273    0.214
        32 -13.8181      8.0482    204.8065   1.4588728559e+02   3.0785815722e+01     2.199826     0.829918 -81.75  0.007740004    2.268    0.559
        33  -9.7208    167.8582    113.0233   9.1576769193e+01   2.5901573989e+01    0.3389007    0.2606428  89.67 0.0007237555    1.620    0.383
        34 -10.6332      1.8871     47.1805   1.2481923784e+02   6.5567114510e+01    0.3908468   0.04427478 -56.47  0.001241571    5.826    0.828
        35  -9.5081    250.0000    248.9981   1.0362638658e+02  -1.4454851642e+01    0.1768457   0.06046566 -36.11   0.00074489    2.946    0.661
        36 -11.3428     81.6546    248.8483   1.3577983176e+02   1.2388785656e+01    0.3014223     0.196883  48.53  0.001810244    1.318    0.242
        37 -11.0580     76.6044    216.7089   1.3330448566e+02   1.9760525612e+01    0.4942818    0.1560199  52.69  0.001761423    3.412    0.707
        38 -11.8816     53.4237    238.4955   1.4008183041e+02   1.8434217261e+01    0.3660604    0.2605048  69.81   0.00153636    1.117    0.105
