#   1 NUMBER                 Running object number                                     
#   2 MAG_AUTO               Kron-like elliptical aperture magnitude                    [mag]
#   3 X_IMAGE                Object position along x                                    [pixel]
#   4 Y_IMAGE                Object position along y                                    [pixel]
#   5 X_WORLD                Barycenter position along world x axis                     [deg]
#   6 Y_WORLD                Barycenter position along world y axis                     [deg]
#   7 A_WORLD                Profile RMS along major axis (world units)                 [deg]
#   8 B_WORLD                Profile RMS along minor axis (world units)                 [deg]
#   9 THETA_WORLD            Position angle (CCW/world-x)                               [deg]
#  10 FWHM_WORLD             FWHM assuming a gaussian core                              [deg]
#  11 ELONGATION             A_IMAGE/B_IMAGE                                           
#  12 ELLIPTICITY            1 - B_IMAGE/A_IMAGE                                       
         1 -11.6097      7.8601     51.3073   9.4107831861e+01   6.7668026296e+01    0.9325076    0.6660908 -63.52  0.004713989    1.187    0.158
         2 -11.2808     20.0335     29.3540   7.8868904204e+01   7.1922318005e+01    0.6957662    0.4805371  59.70  0.002328401    2.093    0.522
         3 -11.7564     74.4011     29.6261   5.0834227458e+01   6.2487369146e+01     1.633545     1.061993  76.73  0.007020923    2.351    0.575
         4 -11.0291     61.7221     22.4280   5.1875758945e+01   6.6367137573e+01    0.5550805    0.4278465 -50.67   0.00167148    1.459    0.314
         5 -11.2039     84.3853     21.7627   4.3533918221e+01   6.1336238547e+01    0.9276044    0.4085909  70.50  0.001406404    3.330    0.700
         6 -11.4389     70.1019     12.2912   4.2839266845e+01   6.5910903829e+01      0.62703    0.3913727 -56.31   0.00149918    2.146    0.534
         7 -10.1566     63.7773     16.1477   4.7401391609e+01   6.6843421566e+01    0.7859834    0.3411805  59.15  0.003101714    2.573    0.611
         8 -11.4474     77.8637     46.1448   5.7333189990e+01   5.8841677351e+01    0.7962826    0.5622419 -22.32  0.001203546    1.617    0.381
         9 -11.2172     87.6203     33.2849   4.8196020460e+01   5.8896214288e+01     1.460784    0.5991291 -20.75   0.00434428    4.176    0.761
        10 -10.7786    131.7644     22.2585   3.3314167794e+01   4.9337146404e+01    0.5757653    0.3420302 -22.92  0.001675275    1.705    0.414
        11 -11.4621     35.0193     27.0599   6.8019753032e+01   7.0446358728e+01    0.8493546    0.4655715  38.89  0.003466765    1.957    0.489
        12 -10.4878     34.9667     18.6789   6.3155779519e+01   7.2045875607e+01    0.5843176    0.3369586  31.24  0.001500531    1.893    0.472
        13 -12.0959    105.0076     21.2173   3.7958783131e+01   5.6313836462e+01    0.4336087    0.3036137  -8.43 0.0004718105    1.619    0.382
        14  -9.2222    184.3199     13.0629   2.4048989375e+01   3.7190608504e+01    0.2674854      0.20649  37.67  0.001217045    1.566    0.362
        15 -10.8358    174.2804     13.2882   2.4972843539e+01   3.9565581032e+01    0.5911182    0.4047469  12.86  0.002104436    1.909    0.476
        16  -9.1762    179.4853     13.5164   2.4589043738e+01   3.8292939159e+01    0.2410839    0.1895207 -80.17 0.0006047442    1.271    0.213
        17 -10.4137    210.6920     11.8196   2.1819338890e+01   3.1358794102e+01    0.9035187     0.388606  -6.84   0.00345152    3.689    0.729
        18 -10.6004    207.9760      3.7671   1.9822008853e+01   3.2674410266e+01    0.5200403    0.2017588 -51.09  0.002363218    2.252    0.556
        19  -9.9979    243.0656     14.4457   2.0654920296e+01   2.4573001433e+01    0.3065006     0.150611  48.00  0.001570549    2.896    0.655
        20 -11.8530      6.2099     15.9042   8.2946126197e+01   7.6202893298e+01    0.7003254     0.452148   3.71  0.001664734    1.738    0.424
        21 -10.6676      7.4653      8.9734   7.7748284550e+01   7.7546235619e+01    0.5582969    0.1905073  33.10   0.00230366    3.116    0.679
        22  -9.5851     13.2109      7.6544   7.1614794578e+01   7.7179010811e+01    0.4998813    0.1651251  36.06  0.002029973    3.237    0.691
        23 -11.0843    116.5985     15.3478   3.3035156148e+01   5.4007469484e+01    0.3363496    0.2871871 -60.42   0.00035859    1.203    0.169
        24 -10.2926    144.4971     12.7849   2.7906306157e+01   4.7055892957e+01    0.3906328    0.2149224  71.68 0.0008965718    1.800    0.444
        25 -10.4912    126.0899     13.2731   3.0600157972e+01   5.1760999710e+01    0.6138806    0.3754426 -49.18  0.002061296    1.680    0.405
        26 -11.3405    132.9910     12.6886   2.9362448801e+01   5.0030074032e+01    0.2952414    0.2575167 -32.39 0.0002801896    1.136    0.119
        27  -9.9487     16.4768     16.7606   7.4873594848e+01   7.5005703194e+01    0.3858728     0.250594  15.40  0.001974482    1.721    0.419
        28 -10.8835     31.0651     12.3009   6.1400166061e+01   7.3798230658e+01    0.3209052     0.293396 -86.97 0.0009290473    1.507    0.336
        29  -9.8366    218.9242     11.3496   2.1200736153e+01   2.9657197596e+01    0.4448132    0.1451279 -50.12  0.001875455    2.685    0.628
        30  -9.0914    200.4426     12.6281   2.2715102995e+01   3.3531722167e+01    0.2652705    0.1114658 -24.78  0.001186872    2.113    0.527
        31 -10.5516    101.7430     11.3532   3.4034930197e+01   5.8242310600e+01    0.3812535     0.326981 -75.72  0.001594832    1.250    0.200
        32  -9.6910     96.9643     12.9654   3.5839152977e+01   5.9289501791e+01    0.2431905    0.2158005  22.46  0.000426548    1.162    0.139
        33  -9.1672     98.3573      6.6361   3.2413150172e+01   5.9565693948e+01    0.4766407    0.2516958   1.34  0.001940661    2.516    0.603
        34 -10.2964    107.2298      7.1888   3.1022780062e+01   5.7232893204e+01    0.4669089     0.233749  70.93  0.001580595    1.970    0.492
        35  -9.7742    106.9686      2.5263   2.8882811387e+01   5.7704541053e+01    0.4396405     0.246537  33.55  0.001952984    2.057    0.514
        36  -9.1095    191.5936     11.3145   2.2971471085e+01   3.5662552497e+01    0.3724791     0.200286 -28.58  0.001232897    1.637    0.389
        37  -9.3553    190.8153      7.0984   2.1800054774e+01   3.6227675643e+01    0.2223078    0.1831001  83.02 0.0006506496    1.268    0.212
        38  -9.7326     88.3334      7.6317   3.5085745216e+01   6.2008790195e+01    0.5017524    0.2228417 -42.51  0.002011228    2.437    0.590
        39  -8.9379     92.4980      8.4722   3.4573201947e+01   6.0879389822e+01    0.2572812    0.2035334  56.24 0.0006776949    1.216    0.177
        40  -8.3151    166.4883      9.4934   2.4451062660e+01   4.1825292414e+01    0.1310832    0.1268079 -57.15 0.0001890443    1.078    0.072
        41 -10.7501     79.2229      4.3507   3.5510754426e+01   6.4584645453e+01    0.2864397    0.2279534 -23.89  0.001018728    1.272    0.214
        42 -11.1029     74.5036      2.9704   3.5950861323e+01   6.5866379508e+01    0.7135779    0.4773604 -29.78  0.003633371    1.508    0.337
        43  -9.4075     54.6270      8.8847   4.6517368457e+01   6.9793893922e+01    0.2394565    0.1964613  65.18 0.0007648453    1.392    0.282
        44 -11.9298    156.0697      3.5606   2.3387816200e+01   4.4942318646e+01    0.5069897    0.2582164  54.70 0.0004291536    2.047    0.511
        45 -12.1163    159.9982      1.7800   2.2439697792e+01   4.4104385688e+01     0.488234    0.2986928 -52.66  0.001364102    1.547    0.353
        46  -9.0746     48.4908      7.9612   4.8613046440e+01   7.1204918186e+01    0.1930876    0.1779143  14.82 0.0007779075    1.035    0.034
        47  -9.4806    170.7854      6.2433   2.3027548348e+01   4.1062264309e+01    0.2528143    0.1860303  50.59 0.0004889741    1.519    0.342
        48 -10.2879    137.0083      3.9291   2.5434931410e+01   4.9780886894e+01    0.6785749    0.2626624 -48.01  0.002592835    2.660    0.624
        49  -9.5187    123.9396      6.1639   2.7963026276e+01   5.2983488500e+01    0.3012587    0.2597869 -18.18 0.0009259926    1.201    0.167
        50  -9.4828    126.7340      1.4968   2.5661805290e+01   5.2643729558e+01    0.2447626    0.1750528  74.31 0.0004313394    1.350    0.259
        51 -10.2577     13.4116      3.1264   6.7951200508e+01   7.7980971815e+01    0.2940713    0.2047818 -50.35  0.001696616    1.543    0.352
        52 -11.2942     21.6219      5.6515   6.3145903745e+01   7.6397671337e+01    0.5226163    0.3103239  56.36  0.002431134    2.800    0.643
        53  -9.6122     21.9947      1.2764   5.9243237066e+01   7.7039700141e+01    0.3328297    0.1201833  40.38  0.001266356    2.862    0.651
        54 -11.5237    218.6236      3.1815   1.9117043930e+01   3.0454846963e+01    0.3164466    0.2272128 -40.04 0.0009227933    1.130    0.115
        55  -9.3387     46.2071      4.1339   4.6940394398e+01   7.2162073385e+01    0.2027821    0.1801236  11.31 0.0005926451    1.034    0.033
        56  -9.7305     42.3011      1.4016   4.6758913194e+01   7.3294372286e+01    0.3306898    0.1246591  54.42 0.0004125935    2.674    0.626
        57 -10.1584    238.5856      3.6784   1.8327305397e+01   2.6402511183e+01    0.2970818    0.2202404  38.50  0.001299937    1.850    0.460
        58  -9.9110     38.0406      4.7468   5.1595410329e+01   7.3712234187e+01    0.3105551    0.2702433 -16.72   0.00111724    1.089    0.081
        59  -9.9376    195.1723      3.7107   2.0544385700e+01   3.5527612670e+01    0.3037309    0.1981463 -77.86  0.001056858    1.540    0.351
        60  -9.1187    200.5488      1.5598   1.9628217827e+01   3.4500652413e+01    0.4413709    0.1191634  64.82  0.001702454    3.623    0.724
        61  -8.8906    111.4594      3.5902   2.8664218221e+01   5.6450967116e+01    0.2377631    0.1325267   2.10 0.0005864909    2.252    0.556
        62  -9.9138     30.6858      2.5992   5.4281444437e+01   7.5371605338e+01    0.2994289    0.1887462 -45.92 0.0009685814    1.860    0.462
        63  -9.3575    232.6809      2.6702   1.8339829673e+01   2.7642315706e+01    0.2628591    0.1064323 -51.17  0.001319013    2.047    0.511
        64  -8.9950    142.4158      2.5490   2.4330295448e+01   4.8500577002e+01    0.2905037    0.1507867 -60.78  0.000987979    2.085    0.520
        65 -10.3403     91.5836      2.4645   3.1642255841e+01   6.1662327698e+01    0.5729442     0.251891  77.51  0.001985023    2.607    0.616
        66 -10.7868    249.9254      1.6089   1.7398106882e+01   2.4449241698e+01    0.1723752    0.1324697 -62.86  0.001237821    1.236    0.191
        67  -9.5327    179.7277      2.0100   2.1036160343e+01   3.9268384586e+01    0.3185861    0.1843095  88.33  0.001617087    1.773    0.436
        68 -10.0996    115.7246      1.9714   2.7305502660e+01   5.5473575287e+01    0.2247084     0.186964  62.85  0.000308872    1.162    0.140
        69  -8.8124      5.5036      1.7845   7.4516671587e+01   7.9153118698e+01    0.1937322    0.1431715 -14.89 0.0007600424    1.314    0.239
        70  -9.8183     38.9236    124.0187   9.3284115770e+01   4.6123460776e+01    0.3038667    0.2378353 -71.68  0.001253375    1.192    0.161
        71 -10.2947    201.8402    249.0780   7.3281663930e+01   2.2254725844e+00    0.3548497    0.1817114   1.07  0.002157693    2.285    0.562
        72 -10.2309      7.4405    122.1691   1.0366060358e+02   4.9308419074e+01    0.3183282    0.1859739 -69.07  0.001672297    1.547    0.354
        73 -10.1059      3.4694    120.6657   1.0488502512e+02   4.9941703015e+01    0.4770896    0.1563213 -79.19  0.001906659    2.609    0.617
        74 -10.3722     72.2033    121.1779   8.1926013325e+01   4.2578768304e+01    0.3486799    0.2280344 -49.14 0.0003346646    1.549    0.354
        75 -10.3230     29.2865    118.8126   9.5874967457e+01   4.8423428685e+01    0.5501224    0.2817866  75.14   0.00233565    2.310    0.567
        76 -11.1642     21.2315    118.8942   9.8667823955e+01   4.9117166256e+01    0.5470434    0.3685517  63.05  0.002933366    1.448    0.309
        77  -9.9326    221.2399    119.4509   4.7680747870e+01   1.5925594081e+01    0.2754039    0.2146772  21.83 0.0009350574    1.367    0.268
        78  -9.6151     63.0692    119.8209   8.4607671469e+01   4.4225178719e+01    0.4120339    0.2328339   8.15  0.001557816    3.085    0.676
        79 -10.4101     45.4181    119.5062   9.0441715692e+01   4.6551244119e+01    0.3307542    0.2430498  43.13  0.001193478    1.362    0.266
        80  -9.3827     93.9707    119.0761   7.4821009982e+01   3.9585754880e+01    0.2199677    0.2120309 -12.61 0.0006718466    1.101    0.092
        81  -8.7361     57.8808    118.8846   8.6148165758e+01   4.5161946769e+01    0.1932239    0.1566638  68.18 0.0003660927    1.265    0.210
        82  -8.8733     53.8417    117.8013   8.7309962903e+01   4.5959865406e+01    0.2158085    0.1869736 -43.41 0.0007658732    1.248    0.199
        83  -9.0198     12.0000    118.0296   1.0177214014e+02   5.0051669940e+01    0.3922039    0.1473263 -85.53  0.001359446    2.576    0.612
        84  -9.7067     13.5287    113.4990   1.0081394359e+02   5.1108021092e+01    0.2171972    0.1970718   8.68  0.000651798    1.314    0.239
        85 -10.3925     10.6884    113.6700   1.0183952150e+02   5.1264064151e+01    0.3360097    0.2731526 -37.16  0.002010512    1.440    0.305
        86 -10.3246     35.3661    115.3448   9.3290909518e+01   4.8718548892e+01    0.4304826    0.1870699  39.09  0.001824587    2.228    0.551
        87  -8.9164     81.5461    115.4541   7.7797134702e+01   4.2516806763e+01    0.3846086    0.1524024  29.89  0.001312893    3.061    0.673
        88  -9.1129     46.6069    113.4258   8.9044655241e+01   4.7966427468e+01    0.2730049    0.1923999  54.84   0.00138566    1.466    0.318
        89 -11.0835     37.0374    109.8431   9.1868894741e+01   4.9967140816e+01    0.3890989    0.2550093 -79.21 0.0005663644    1.460    0.315
        90 -11.1510     32.2235    105.7870   9.3008795459e+01   5.1516063598e+01    0.5508659    0.3615188 -29.42  0.001333073    1.965    0.491
        91 -10.0895      4.9743    110.9086   1.0364227042e+02   5.2344047401e+01    0.3344769    0.2016711 -45.93  0.001105776    1.837    0.456
        92 -11.0723     21.6487    109.2059   9.7403029954e+01   5.1590101821e+01    0.5821308    0.4034944  64.89  0.003115829    1.438    0.305
        93  -9.5590     92.3307    106.2911   7.2302985308e+01   4.2848168902e+01    0.5104401    0.3584839 -25.52  0.002300301    1.847    0.459
        94  -8.7190    116.5079    107.5443   6.5658939412e+01   3.8009536841e+01    0.1476126    0.1436919 -26.83 0.0001563068    1.018    0.017
        95  -9.9074     52.0760    105.3761   8.5625048649e+01   4.9350692069e+01    0.3280748    0.2153015 -82.52  0.001533657    1.666    0.400
        96 -11.0489     56.8852    100.4150   8.2846978017e+01   4.9970954159e+01    0.6688166    0.2847117 -48.68   0.00255421    2.346    0.574
        97  -9.2380      1.8381    104.3499   1.0426648797e+02   5.4217637516e+01    0.2889845    0.1570312  78.60  0.001160133    1.727    0.421
        98  -9.2468    142.0611    103.7312   5.8286349738e+01   3.3612026472e+01    0.2458725    0.2061149 -37.20 0.0004947223    1.141    0.124
        99 -10.1066     64.3547    102.8584   8.0711555408e+01   4.8284458865e+01    0.3980016    0.2770815 -15.87  0.001119133    2.111    0.526
       100  -9.8369     40.9725    103.5337   8.9361324414e+01   5.1172830313e+01    0.2664342    0.1835237  86.05 0.0007566735    1.564    0.361
       101  -9.2087      7.2254    104.3766   1.0224746203e+02   5.3897228312e+01    0.1731766    0.1116305  38.70 0.0002846307    1.596    0.373
       102  -8.9051    100.6935    103.0518   6.8951292422e+01   4.2051499125e+01    0.2330872     0.204165 -17.31 0.0004791577    1.278    0.218
       103  -9.2738    104.9850    100.1421   6.6918680787e+01   4.1879303903e+01    0.3635193    0.2026018  20.77  0.001236988    3.274    0.695
       104 -10.1923     70.8852    102.2098   7.8290691051e+01   4.7448402976e+01     0.381357    0.2517007 -46.56  0.001250655    1.518    0.341
       105 -11.2622    117.6520     98.0371   6.2800790360e+01   3.9802696983e+01    0.2757632    0.2617819 -15.15 0.0003023208    1.079    0.074
       106  -9.7773     50.3259    100.0040   8.5181859063e+01   5.0952615818e+01     0.351135    0.2308615 -44.73  0.001048087    1.591    0.372
       107 -10.0333     45.7204     99.5895   8.6829748280e+01   5.1636152695e+01    0.3734459    0.1913942  29.51  0.001413059    2.074    0.518
       108  -8.7445     30.0219     99.7639   9.2898000841e+01   5.3305569673e+01    0.1780423    0.1713234 -84.10            0    1.088    0.081
       109  -8.7891     16.5156     99.5081   9.8142322584e+01   5.4533139954e+01    0.2904487    0.1201619 -75.57  0.001202327    2.137    0.532
       110  -8.6670    100.6021     98.6784   6.7811573652e+01   4.3054427467e+01    0.3075802    0.1390628 -45.02  0.001148739    2.171    0.539
       111 -10.0778    125.7958     97.2260   6.0443759726e+01   3.8287231073e+01    0.3129644     0.268477 -82.01  0.001600764    1.391    0.281
       112  -8.3767      9.7453     98.5956   1.0069386753e+02   5.5246042312e+01    0.3214653    0.0864105  30.63 0.0008205195    3.334    0.700
       113  -9.2836      5.2680     98.0272   1.0239587886e+02   5.5668960076e+01    0.2554336    0.1967019 -66.05  0.001501168    1.194    0.162
       114  -9.1956      4.1951     79.1905   1.0077805155e+02   6.0660672180e+01    0.2599245    0.1891486  65.73  0.001086454    1.401    0.286
       115  -9.6690      2.1965     92.2147   1.0306741156e+02   5.7355556287e+01    0.5447013    0.2114318  63.88  0.002104393    3.004    0.667
       116 -10.2179      2.3329     85.7499   1.0235836980e+02   5.9039246185e+01    0.4318682     0.191019 -68.71  0.000896449    1.853    0.460
       117  -9.0655      1.6308     81.7062   1.0222691816e+02   6.0132413043e+01    0.2153728    0.1240634 -49.93 0.0007241911    1.682    0.405
       118  -9.4594    141.3716     96.0891   5.6363030251e+01   3.5221571337e+01    0.2460101     0.207276  26.10 0.0006951255    1.291    0.225
       119 -10.2552     81.1286     95.4546   7.3110782408e+01   4.7386547877e+01      0.42338    0.2710809  54.54  0.001847687    1.798    0.444
       120  -9.2727     89.8943     94.7159   7.0037174514e+01   4.5981828457e+01    0.3053404     0.137051  32.39 0.0008802499    2.760    0.638
       121  -9.8327     42.1356     95.3823   8.7368767518e+01   5.3152851072e+01    0.2736883    0.1885179 -76.04 0.0006604856    1.416    0.294
       122 -10.9488     32.2656     92.5526   9.0761822227e+01   5.4970785933e+01    0.5462066    0.4116092 -32.91   0.00289432    1.520    0.342
       123  -9.7262     23.5367     93.2870   9.4447925059e+01   5.5599630333e+01    0.3955291    0.2093771 -85.97  0.001619374    1.964    0.491
       124 -10.5940     26.2908     86.9743   9.2226867823e+01   5.7010731198e+01    0.6041689    0.4033759 -39.26  0.001947984    1.636    0.389
       125  -9.9910     18.4662     80.5647   9.4512823674e+01   5.9361500710e+01    0.6739515    0.2203248  46.54  0.002330863    3.678    0.728
       126  -9.1722     12.5755     78.2879   9.6814848218e+01   6.0391311654e+01    0.2541744    0.1456864 -34.71 0.0007162396    2.007    0.502
       127 -10.5621     18.1078     90.8594   9.6317798611e+01   5.6684090193e+01     0.270267    0.2401562 -10.25 0.0003067155    1.326    0.246
       128  -9.6109     14.0670     88.3885   9.7662685437e+01   5.7633922074e+01    0.9753477    0.1268121 -70.48  0.002669331    4.890    0.795
       129 -10.3955    133.2111     93.3039   5.7495135005e+01   3.7502409316e+01    0.4882948    0.2568547  48.36  0.002006228    1.985    0.496
       130 -10.3254     47.6562     92.6160   8.4621322415e+01   5.3190702135e+01    0.3892815    0.2888775  83.08  0.001946754    1.520    0.342
       131  -9.5360     39.9951     89.2912   8.6963001868e+01   5.4980294574e+01     0.379102     0.166781 -42.13   0.00141589    2.704    0.630
       132  -9.9176     44.0234     88.2153   8.5086156360e+01   5.4776764044e+01    0.2787009     0.244766 -28.99 0.0006305108    1.258    0.205
       133  -9.8413    109.2825     90.5687   6.2983433590e+01   4.3105966664e+01    0.5420513    0.2363085  33.12  0.001545479    3.333    0.700
       134  -8.7573     71.1278     91.1605   7.5433602873e+01   5.0118249767e+01    0.2058837     0.174097  83.60 0.0005804847    1.320    0.243
       135 -10.3505     53.1956     90.7355   8.2027784464e+01   5.2937053528e+01    0.4062055    0.2441559  62.98  0.001708414    2.219    0.549
       136 -11.3556     64.9708     87.1359   7.6610320585e+01   5.2095884523e+01    0.8428793    0.4786525 -49.83  0.003270759    1.666    0.400
       137  -9.3683     69.9988     85.5079   7.4293001686e+01   5.1675629830e+01    0.2869053    0.2730612 -25.37  0.001272446    1.110    0.099
       138 -10.9457     73.0583     80.1298   7.1593701581e+01   5.2436538495e+01    0.5232159    0.3960119 -45.28  0.001837717    1.275    0.216
       139 -10.4351     81.0454     82.9866   6.9606507648e+01   5.0334585778e+01    0.3432693    0.2996907 -13.68 0.0005156862    1.309    0.236
       140 -10.0158     77.0420     83.2857   7.1101711279e+01   5.0989674829e+01    0.3541374    0.2711865 -48.74 0.0007959104    1.246    0.197
       141  -9.0191     97.9642     88.4671   6.5715693714e+01   4.5851341902e+01    0.2948504    0.2077558 -63.35 0.0007900515    1.609    0.378
       142  -9.1733     85.7117     88.9677   6.9783950415e+01   4.8087627539e+01    0.2389226    0.2351644  84.04  0.001200121    1.043    0.041
       143  -9.1044     88.4849     86.5022   6.8147429124e+01   4.8134844766e+01     0.536819    0.2613215 -67.87  0.001531917    4.418    0.774
       144 -11.3372    121.1355     85.3991   5.8199906484e+01   4.1673436251e+01    0.8285797    0.4483161  60.06  0.003187232    2.388    0.581
       145  -8.3246      6.7694     88.6539   1.0078988652e+02   5.8035669288e+01    0.1748305    0.1151395  34.33 0.0006934925    1.633    0.388
       146  -9.3204    138.2222     84.3017   5.3681248977e+01   3.8131067846e+01    0.3857854    0.2557766  19.22  0.001357842    2.242    0.554
       147  -8.9916    145.1732     87.3846   5.3032448351e+01   3.6025302501e+01    0.2924537    0.2243069 -89.34  0.001376497    1.797    0.444
       148  -9.6890    143.1288     83.2958   5.2277982008e+01   3.7224498673e+01    0.3552098    0.2075951 -38.65 0.0008827157    1.615    0.381
       149  -9.8155     56.4076     86.6300   7.9758494793e+01   5.3519271044e+01    0.4030613    0.1936325  54.48  0.001454636    2.924    0.658
       150 -10.3693    155.1362     85.0016   5.0245426423e+01   3.4254879482e+01    0.2966707    0.2360173  39.48 0.0002925356    1.350    0.259
       151 -10.3999    155.0926     79.3528   4.8604028694e+01   3.5238535083e+01    0.3891431    0.3240059  34.62 0.0009178864    1.309    0.236
       152  -9.8664    150.8937     79.8331   4.9593355993e+01   3.6100156210e+01    0.3056524    0.2995889 -41.74  0.001142926    1.049    0.047
       153  -8.9731    109.9766     85.5114   6.1273557296e+01   4.4033965990e+01    0.2338482    0.1513228  43.92  0.001034221    1.605    0.377
       154 -10.4828     51.7575     82.1535   8.0452311728e+01   5.5303897080e+01    0.3884055    0.2969016 -43.54 0.0009935553    1.307    0.235
       155 -10.3188     53.4211     70.5475   7.6440996865e+01   5.7933557257e+01    0.4615631    0.2852469 -24.60   0.00111084    2.343    0.573
       156 -10.9935     50.7942     67.7925   7.6719486891e+01   5.8991127298e+01    0.5355167    0.3386232  20.08  0.002428729    1.961    0.490
       157 -11.4580     52.9481     75.3499   7.8080836177e+01   5.6828360984e+01    0.4475424    0.2679769 -47.43            0    1.589    0.371
       158 -10.8720     39.3968     81.4565   8.5457329058e+01   5.7071968976e+01    0.4933233    0.3598455   2.65 0.0008599248    1.740    0.425
       159 -10.4841     47.9060     63.6919   7.6694140544e+01   6.0401328633e+01    0.7219068    0.4791738 -66.32  0.002572053    1.579    0.367
       160 -10.3552    166.8594     77.8465   4.5943478288e+01   3.2856932852e+01    0.2497784     0.216974 -39.16            0    1.074    0.068
       161 -10.0941    169.7863     74.2309   4.4382555611e+01   3.2781283104e+01    0.3567388    0.2132615 -27.16  0.001052305    1.642    0.391
       162  -9.9946     21.6683     64.8978   8.9781056450e+01   6.3163979224e+01    0.6005065    0.2185084 -55.75  0.002392204    2.239    0.553
       163  -9.0439     28.9877     77.7486   8.9204850362e+01   5.9160263603e+01    0.2008616    0.1734374 -49.41            0    1.130    0.115
       164  -9.7994     29.4966     74.5040   8.8245156986e+01   5.9948651421e+01     0.325157    0.2349293 -44.29  0.001541512    1.369    0.269
       165 -10.5244     30.0653     68.0304   8.6399078873e+01   6.1549747711e+01    0.3918552    0.2996852 -41.56  0.001326147    1.297    0.229
       166 -10.4670     25.0125     67.8841   8.8826272373e+01   6.2091850525e+01    0.4172202    0.2790441 -51.72 0.0007356689    1.355    0.262
       167  -8.9642    141.4994     75.9411   5.0397243548e+01   3.8915892380e+01    0.2398286    0.2057615 -73.84 0.0005012338    1.328    0.247
       168  -9.3632    145.1083     75.6911   4.9543613544e+01   3.8135144932e+01    0.3711531    0.2130751 -29.29  0.001240512    1.795    0.443
       169 -10.1816    141.1069     69.0563   4.8306202543e+01   4.0210411254e+01     0.557363    0.2879655 -48.60  0.001708442    2.064    0.515
       170  -9.5141    145.5504     69.2849   4.7447640203e+01   3.9135110522e+01    0.5590354    0.2785707 -49.19  0.002168636    2.199    0.545
       171  -9.8483    128.9861     85.4976   5.6236860335e+01   3.9942362338e+01    0.3875073    0.2387086  28.77  0.001439759    2.184    0.542
       172  -8.6500    111.3334     77.6651   5.8427040382e+01   4.5364227281e+01    0.2514873    0.1581007  52.31 0.0007533634    1.691    0.408
       173 -10.0179    109.7257     72.7470   5.7259438162e+01   4.6705363900e+01    0.4612231    0.3521884 -31.82  0.002039482    1.335    0.251
       174  -8.0662    190.2995     76.6852   4.1782581778e+01   2.7945294242e+01    0.1414841   0.09910433 -56.46 0.0003495381    1.610    0.379
       175  -8.3182    136.2287     76.6381   5.1791922319e+01   3.9992695034e+01    0.1526394    0.1100616 -58.74 0.0006885539    1.580    0.367
       176  -8.9682    101.0781     75.8311   6.0813584737e+01   4.7943520407e+01    0.2925319    0.2157635  22.01  0.001331531    1.715    0.417
       177 -11.0922     88.6809     73.9424   6.4128635164e+01   5.0903190791e+01     1.025313    0.5655171 -29.60   0.00167185    2.457    0.593
       178 -10.2807     94.8045     72.0252   6.1486648505e+01   5.0061533564e+01    0.3907472      0.33612  71.35 0.0006930635    1.317    0.241
       179  -8.3999     59.6672     72.7086   7.4499186500e+01   5.6446124479e+01    0.1977378    0.1376836  43.32 0.0006196423    1.533    0.347
       180  -9.9016     64.3180     75.0405   7.3357882694e+01   5.5132838374e+01    0.3164463    0.2644451  74.24 0.0007476553    1.394    0.282
       181  -9.6966     68.2209     74.6014   7.1699164494e+01   5.4578230320e+01     0.305946    0.2450151 -35.78 0.0005358279    1.287    0.223
       182  -8.2669     21.5144     76.4857   9.2365932859e+01   6.0178719369e+01    0.1388608    0.1231647 -77.36 0.0008100435    1.038    0.037
       183  -7.9392    215.6791     75.7048   3.8093988425e+01   2.2933136542e+01    0.1283473   0.09609947   9.41 0.0002240416    1.614    0.381
       184 -10.9871    165.4185     71.1962   4.4253117964e+01   3.4243289376e+01    0.4882204    0.3224921 -31.12 0.0002524636    1.416    0.294
       185  -8.8220     77.8019     74.4704   6.8081633708e+01   5.2891017036e+01    0.2627006    0.1788614 -61.69 0.0005623827    1.596    0.373
       186  -9.4096     19.1289     72.4994   9.2698524535e+01   6.1415877107e+01     0.330004    0.2360539 -48.54  0.001781411    1.330    0.248
       187  -8.4912    151.8761     73.3641   4.7439883840e+01   3.6983971177e+01    0.2013863     0.132822  42.13 0.0004380858    1.668    0.401
       188  -9.1405    136.9471     72.7513   5.0400648083e+01   4.0528709412e+01    0.2746641    0.1809566 -50.49 0.0008612575    1.581    0.367
       189  -8.5952    117.5281     73.4660   5.5368770724e+01   4.4827097841e+01    0.1517468     0.145614 -47.54 0.0001189189    1.020    0.020
       190  -9.3781      2.8153     72.7188   1.0058610245e+02   6.2423682287e+01    0.2277797    0.1680182 -44.78 0.0003277966    1.364    0.267
       191  -8.9641    102.0182     70.1364   5.8611344799e+01   4.8916912842e+01    0.2793607    0.2166872 -42.82  0.001362269    1.242    0.195
       192  -8.1808    226.3422     70.2265   3.5500650164e+01   2.1603355343e+01    0.1168926   0.09156702  18.39 0.0002409643    1.540    0.351
       193 -10.3890    218.7225     69.9141   3.6279932418e+01   2.3101689236e+01    0.2038428    0.1924832 -27.53 0.0002854823    1.126    0.112
       194  -9.5902     45.3967     69.2641   7.9574751660e+01   5.9393009939e+01    0.2730745    0.2245643  68.21 0.0003894233    1.401    0.286
       195  -9.8329    173.4852     68.8758   4.2205689184e+01   3.2778621430e+01    0.2458505    0.2317252 -79.31 0.0003815563    1.150    0.131
       196  -9.0366    157.4395     68.2586   4.4805501857e+01   3.6540473309e+01    0.2832462    0.1411751 -27.69  0.001120989    2.070    0.517
       197 -10.6033    115.7847    248.2054   8.8299200352e+01   1.1993842217e+01    0.2215553    0.1738397  20.82   0.00122711    1.122    0.109
       198 -10.3232     15.1160     64.8509   9.3115812702e+01   6.3710943832e+01    0.5360548    0.2740765 -17.99  0.002239749    2.818    0.645
       199  -9.9952     17.1142     46.6590   8.7344291527e+01   6.8143574249e+01    0.5287936    0.1754557 -59.32  0.002013719    2.394    0.582
       200  -8.7982     57.0238    248.9934   9.9600787733e+01   1.8218325718e+01    0.1203637   0.09149104  43.29            0    1.025    0.024
       201 -11.2087      2.3946     66.2397   9.9882822990e+01   6.4131161367e+01    0.4255008     0.208356 -64.77  0.001331427    1.663    0.399
       202 -11.3985      5.8533     61.0826   9.7232913078e+01   6.5286868512e+01    0.7048895    0.3606492  26.69  0.001945878    2.147    0.534
       203 -11.6081      7.3547     35.9860   9.0268871418e+01   7.1492744392e+01    0.5653925    0.4497021  46.94  0.002505655    1.486    0.327
       204 -10.9270      9.5759     31.6481   8.7207936769e+01   7.2367404063e+01    0.5111195    0.2394593  22.22  0.002273459    2.333    0.571
       205  -9.0092    120.0079     67.4706   5.2709945420e+01   4.5400703720e+01    0.2262512    0.1516085  53.59  0.001019748    1.559    0.358
       206  -9.4000     83.8999     65.6982   6.2903440216e+01   5.3642503907e+01    0.2725237    0.2418907 -58.07 0.0007749465    1.139    0.122
       207  -9.6674     82.5372     61.7507   6.1935524683e+01   5.4752242423e+01     0.385453    0.2836697  12.67  0.001181316    1.852    0.460
       208 -10.4555     75.7757     65.9636   6.5924756984e+01   5.5178628158e+01    0.3947695    0.2920772  40.31 0.0006060658    1.422    0.297
       209 -10.2357     77.2385     61.9945   6.3939577142e+01   5.5758671191e+01    0.5029713    0.2893856 -31.87  0.001904658    2.051    0.513
       210  -8.7230     35.9988     67.4836   8.3407724837e+01   6.1027126153e+01    0.1962911    0.1431935  24.23 0.0003892281    1.527    0.345
       211 -11.7350     13.6699     36.9093   8.6288555040e+01   7.0793774242e+01    0.5825584    0.3910897 -70.77 0.0002762863    1.481    0.325
       212 -10.9132    134.6526     63.4849   4.7876204884e+01   4.2682729299e+01    0.7230263    0.3813986 -48.81  0.001058556    2.024    0.506
       213  -9.2524    136.1600     56.7773   4.5266488937e+01   4.3437210088e+01    0.3246471    0.2360968  26.24 0.0008524286    1.718    0.418
       214  -8.9333    105.9564     65.6896   5.5899353197e+01   4.8933346313e+01    0.2158477    0.1941476  60.67  0.001127724    1.173    0.148
       215 -10.1975     97.7192     63.8823   5.7706258774e+01   5.1110071335e+01    0.3164762     0.243456 -62.48 0.0003451361    1.474    0.321
       216 -10.5439    193.4705     61.9403   3.7295433790e+01   2.9355229064e+01    0.4029019     0.222886 -23.05  0.001854773    1.787    0.440
       217 -10.1339     65.6083     61.7944   6.8376447027e+01   5.7981170172e+01    0.5478645    0.3011781  30.87  0.002263489    2.160    0.537
       218  -9.2741     70.9430     60.0097   6.5588337514e+01   5.7397033739e+01    0.2226712    0.2049733 -76.24 0.0005278173    1.179    0.152
       219 -10.0793     61.0576     51.9901   6.6508192678e+01   6.0948740937e+01    0.5005314    0.3379076  52.05  0.001954934    1.703    0.413
       220 -10.0639     54.0060     61.4834   7.3196398593e+01   6.0003824434e+01    0.4431434      0.26176 -61.44  0.001214259    1.790    0.441
       221 -11.8740     56.1459     56.7672   7.0530993473e+01   6.0741930943e+01    0.4191362    0.3307103  62.44  0.000329008    1.540    0.351
       222  -8.7183     27.2928     63.4912   8.6579063438e+01   6.2988198285e+01    0.2349914    0.1986436 -22.83 0.0008122895    1.289    0.224
       223 -10.4672     32.6469     59.0721   8.2593482077e+01   6.3513518933e+01    0.4686551    0.3471874  -1.74  0.001515349    1.649    0.393
       224  -9.8817     34.6631     53.5364   7.9750141924e+01   6.4620941011e+01     0.486474    0.3147761  33.97  0.002430347    1.674    0.403
       225  -8.8702     28.4077     52.1627   8.2632892620e+01   6.5685375750e+01    0.1931064    0.1258493 -60.09 0.0004011755    1.387    0.279
       226 -10.9779     24.7128     54.6388   8.5428792027e+01   6.5465977550e+01    0.4127348    0.2684732 -66.65 0.0009474849    1.434    0.303
       227 -10.5355     19.8304     54.6629   8.8121449783e+01   6.5921069791e+01    0.3976691    0.2938857 -86.18  0.001909823    1.461    0.316
       228  -9.3437    166.6695     60.4914   4.0813358424e+01   3.5595288934e+01    0.2630908    0.1250531 -31.79  0.001071743    1.930    0.482
       229  -9.7503    155.1615     61.1077   4.2987796509e+01   3.8202445155e+01    0.2413278    0.2168133  60.94 0.0006456186    1.184    0.155
       230  -9.9654    124.6033     58.2692   4.8369399384e+01   4.5965328407e+01    0.6043297    0.3768364  37.21   0.00194797    1.893    0.472
       231  -9.0793    213.1466     60.0657   3.4401593639e+01   2.5471843571e+01    0.1852372    0.1557355 -17.18            0    1.166    0.143
       232  -7.8742    176.0000     60.9173   3.9473664327e+01   3.3384139814e+01    0.2387272   0.07504907 -30.49 0.0007956717    2.896    0.655
       233  -9.2672    142.0935     58.9305   4.4776391399e+01   4.1661696772e+01    0.3286801    0.1812248  35.82  0.001281918    2.408    0.585
       234  -9.1976     94.1096     59.3960   5.7172666159e+01   5.2785460026e+01    0.3007837    0.2157907 -20.09  0.001363265    1.677    0.404
       235 -10.3873    225.8997     55.4986   3.1908525769e+01   2.3500981978e+01    0.2542828    0.1763428 -38.44 0.0003190005    1.194    0.163
       236  -8.6711    190.2294     57.0144   3.6341519276e+01   3.0730752701e+01    0.1875971    0.1591149 -31.85 0.0002811796    1.058    0.055
       237  -9.7987    161.9504     54.1061   3.9595790047e+01   3.7641047156e+01    0.3868856    0.2486023 -65.75  0.001728975    1.959    0.490
       238  -8.6052    115.9967     55.4929   4.9471470084e+01   4.8493714313e+01    0.2220956    0.1505059  55.88 0.0006376481    1.530    0.346
       239  -8.8328     92.5078     54.4848   5.5785075658e+01   5.4087231068e+01    0.2771674    0.2162714  35.00 0.0008303652    1.386    0.279
       240  -9.4082     95.4790     52.4758   5.4056130160e+01   5.3800587954e+01    0.2738562    0.2603346 -76.00 0.0006151911    1.115    0.103
       241  -9.5384     83.5388     53.9553   5.8566456956e+01   5.6130714446e+01    0.3228154    0.2486772 -16.87  0.001258753    1.521    0.342
       242  -9.9556     51.2548     40.3505   6.5943141263e+01   6.5122033635e+01    0.4312407     0.351893  44.77   0.00218774    1.333    0.250
       243 -10.6549     52.8920     34.0770   6.2118552967e+01   6.6079625403e+01     1.100101    0.5386044  50.19  0.004540353    2.400    0.583
       244  -9.2139     30.8024    247.8362   1.0456163298e+02   2.0903529792e+01    0.1555729   0.08597454  49.61  0.001082844    1.358    0.264
       245  -9.2718      1.4760    243.9876   1.0997484061e+02   2.4010783610e+01    0.1322284   0.08458891  80.65 0.0004010997    1.529    0.346
       246  -8.5643     44.0557    244.0000   1.0184139313e+02   2.0282254744e+01      0.17195   0.04727491  28.83 0.0007934964    2.881    0.653
       247  -9.6587    244.9272    242.2496   6.5832602933e+01  -1.4971793271e+00    0.1743107    0.1047288  18.91 0.0008914283    1.305    0.234
       248  -9.5219    247.0267    239.1923   6.5111049998e+01  -1.4235838891e+00    0.1710912    0.1405379  -4.62  0.001187272    1.566    0.362
       249  -9.9632     43.0620     52.3676   7.5033746445e+01   6.3775213854e+01    0.5655712    0.2659015 -62.73  0.002188326    2.462    0.594
       250  -9.3485    145.9593    242.2563   8.2072564973e+01   9.3038140821e+00     0.156157     0.112365  23.62 0.0005145688    1.070    0.065
       251  -9.4571    102.7525    241.9872   9.0218821576e+01   1.4365918241e+01    0.1172793   0.09472001 -60.04 0.0008862492    1.590    0.371
       252 -10.1859     47.0560     47.0119   7.0929845222e+01   6.4390035732e+01    0.3726062    0.2886533  34.77 0.0009733635    1.381    0.276
       253 -11.4626     69.1130     49.6748   6.2197163093e+01   5.9925610590e+01     0.761425    0.5439436  66.87  0.003535934    1.879    0.468
       254  -9.5569    146.2105     53.1728   4.2039835988e+01   4.1566762733e+01    0.3781551    0.2560422 -48.11  0.001785437    1.472    0.320
       255  -9.2157    129.8942     53.8259   4.5578452503e+01   4.5431999252e+01    0.2454737    0.2076828 -32.50 0.0005795259    1.146    0.127
       256  -8.0735    211.9724     54.0000   3.2947121918e+01   2.6472129702e+01    0.1838121   0.07654463  65.75 0.0005572923    2.808    0.644
       257  -9.4348    192.1587     51.9831   3.4671235173e+01   3.0967736145e+01    0.3455112    0.1749063 -27.88  0.001559007    1.785    0.440
       258 -12.9163     61.4921     44.4377   6.3106383348e+01   6.2446215201e+01    0.5304148    0.3683195  41.22   0.00261364    1.512    0.338
       259  -9.2775    122.3312     50.8832   4.6218029974e+01   4.7746890235e+01    0.3648539    0.2639636  65.74  0.001738059    1.494    0.331
       260  -9.1040    111.0003     51.7384   4.9345604541e+01   5.0329229589e+01    0.2040786    0.1897575  57.82 0.0002855588    1.109    0.098
       261 -10.0022     45.5278     42.8679   6.9926838797e+01   6.5535722210e+01     0.326369    0.2377533 -14.17 0.0008084425    1.691    0.409
       262  -8.4883    165.4722     51.4952   3.8211953452e+01   3.7175671661e+01    0.1437452    0.1332459 -38.57  0.000156556    1.013    0.013
       263 -10.1225    175.9807     48.3885   3.5719127353e+01   3.5123572818e+01    0.3063002    0.2386514  27.02 0.0003567091    1.554    0.356
       264  -9.4220    141.0091     48.4665   4.1405214446e+01   4.3545129601e+01    0.3560492    0.2387432 -55.49  0.001639756    1.625    0.385
       265 -10.0326     87.2817     49.0117   5.5269818794e+01   5.6271078960e+01    0.4170227    0.2954606  53.53  0.001989919    1.487    0.327
       266  -9.3933    150.4480     43.5755   3.8029718944e+01   4.1919326634e+01    0.3513058    0.1974706 -48.74  0.001376214    1.822    0.451
       267 -10.3328    128.1382     48.2051   4.3923035439e+01   4.6753390239e+01    0.3094906     0.289367 -79.78 0.0004496351    1.109    0.098
       268  -9.2935    123.9799     44.7378   4.3533887400e+01   4.8312727530e+01    0.5526246     0.260494  52.88  0.001186525    2.120    0.528
       269  -9.2516     32.4480     47.7119   7.8855991628e+01   6.6279264889e+01    0.3239166    0.1986701  40.88 0.0009127751    1.825    0.452
       270 -10.5662     22.7612     46.3006   8.3870094671e+01   6.7701964143e+01    0.3188002    0.2776323 -44.31 0.0009115294    1.047    0.045
       271  -8.9941    235.0803     47.2575   2.9048381690e+01   2.2697112410e+01    0.1671651    0.1356058 -45.77 0.0004115488    1.119    0.106
       272 -10.3914    115.2147     45.3454   4.5797267910e+01   5.0371608442e+01    0.3275822    0.3016929  50.78 0.0006181666    1.113    0.101
       273  -9.4475    145.7527     45.9907   3.9669747569e+01   4.2737812148e+01    0.2300753    0.2105885  76.55 0.0003833409    1.138    0.121
       274  -9.0415     52.1630     46.0191   6.8035584870e+01   6.3776421390e+01    0.2156028    0.1858947 -65.76  0.001175757    1.276    0.216
       275  -8.7732     38.4574     46.4583   7.5118142869e+01   6.5783829719e+01    0.1386557    0.1296347 -61.29 0.0001108779    1.109    0.098
       276  -9.4428    185.2064     44.2354   3.3283315947e+01   3.3525453954e+01    0.2518973    0.1982614  31.26  0.001114757    1.527    0.345
       277  -8.9381    167.0303     45.1925   3.5987059343e+01   3.7665612800e+01    0.1940383    0.1838126 -43.41 0.0004484874    1.031    0.030
       278  -9.6696    103.9809     42.4069   4.7487050140e+01   5.3563971656e+01     0.530426    0.1954953 -35.08  0.001849027    2.587    0.613
       279 -10.0834    108.4419     41.7990   4.6063888169e+01   5.2583199298e+01    0.5084971    0.2979291 -28.48  0.001435842    1.744    0.427
       280  -9.1749    245.4846     44.6401   2.7593840767e+01   2.1058300367e+01    0.1741275    0.1164891  74.53  0.000829205    1.863    0.463
       281 -10.3646    136.4808     49.3596   4.2604374964e+01   4.4524348606e+01    0.4456338      0.26541  64.16  0.001430999    1.800    0.444
       282  -9.1473     71.6616     43.0996   5.8324167517e+01   6.0710619647e+01    0.2637059    0.2187962 -30.42  0.001194767    1.179    0.152
       283  -9.1567    201.2337     42.8544   3.1080189674e+01   3.0108963819e+01       0.3295    0.2010199  47.36  0.001670062    1.944    0.486
       284  -8.9429    203.8999     39.4974   2.9883981098e+01   2.9925355488e+01    0.1755791     0.160373 -49.64 0.0004824738    1.074    0.069
       285  -8.6334    190.5859     43.5664   3.2451073991e+01   3.2385281211e+01    0.1358031    0.1203023 -37.83 9.468609e-05    1.019    0.018
       286  -9.8278    154.4745     48.2294   3.8923725193e+01   4.0281909199e+01    0.3767706    0.2381496 -45.24   0.00110559    1.524    0.344
       287  -9.7775     28.0646     42.7339   7.9452940630e+01   6.7971048651e+01    0.2191848    0.1936428 -27.81 0.0007814696    1.110    0.099
       288  -9.4491      3.0060     42.7327   9.5064687258e+01   7.0096635395e+01    0.2505588    0.1957438 -24.45 0.0008738436    1.350    0.259
       289 -10.1572    144.2865     41.1988   3.8253612694e+01   4.3773666624e+01    0.3154619    0.2497561  67.99 0.0006950684    1.314    0.239
       290  -8.9950     35.0824     41.7098   7.5012033048e+01   6.7321232671e+01    0.2296526    0.1528068 -14.77  0.001075505    1.984    0.496
       291  -9.6905    222.6710     40.7424   2.8483794474e+01   2.5856071190e+01     0.209041    0.1780785 -45.33 0.0004053273    1.069    0.065
       292  -8.8151    138.3110     41.5982   3.9468473352e+01   4.5208135152e+01    0.1957103    0.1353694  52.21 0.0005529135    1.493    0.330
       293 -10.0066    229.4095     38.9254   2.7467190337e+01   2.4718502084e+01    0.3063855    0.1854601 -40.65 0.0008943661    1.342    0.255
       294  -9.4553    128.7876     40.4253   4.0880310810e+01   4.7755918935e+01    0.5055696    0.2525021  75.07  0.001865955    2.702    0.630
       295  -9.7934    130.6513     36.9041   3.9175707885e+01   4.7782582884e+01    0.4648392    0.2673569 -42.40  0.001613694    1.691    0.409
       296 -12.0187    107.5338     29.6655   4.1151572252e+01   5.4591956395e+01    0.5215718    0.3477701  -7.21  0.001341937    1.847    0.459
       297  -8.9663    102.2066     31.8005   4.3399647183e+01   5.5614911577e+01    0.2101492    0.1915164 -61.60            0    1.151    0.131
       298 -11.0015    113.2961     34.3640   4.1813619956e+01   5.2498823708e+01    0.6244118    0.4487942 -32.17   0.00306341    1.359    0.264
       299  -8.6867     24.1530     39.2893   8.0450508894e+01   6.9215577512e+01    0.3509989    0.2043792 -24.38   0.00141695    2.179    0.541
       300  -9.8714    246.7080     39.0434   2.6196570596e+01   2.1437122768e+01    0.2233193    0.1348114 -54.81  0.001148716    1.614    0.381
       301  -9.0931    158.2940     38.9589   3.5237643534e+01   4.0603932370e+01    0.2576474    0.1826165 -67.84 0.0007218679    1.578    0.366
       302  -8.4837     40.3672     39.2753   7.1032589080e+01   6.7104552899e+01    0.1432451    0.1041725 -12.95 0.0007005816    1.675    0.403
       303  -9.8809    238.2947     37.0004   2.6316600176e+01   2.3214777100e+01    0.3885709    0.1725256 -48.02  0.001695891    2.007    0.502
       304  -8.6909    242.1959     34.5572   2.5456004946e+01   2.2740375877e+01    0.1390462    0.1119189  52.18 0.0004855901    1.566    0.361
       305  -9.4567    178.2184     37.6023   3.2138360951e+01   3.5970846582e+01    0.2655686    0.1817081 -52.63 0.0006502357    1.422    0.297
       306  -9.4840    112.5120     28.4354   3.9489672096e+01   5.3505372445e+01    0.3832632    0.2470031 -20.53  0.001384751    1.644    0.392
       307  -8.9721     93.6146     38.2177   4.8623686143e+01   5.6706316937e+01    0.2010353    0.1398178 -19.87 0.0002641664    1.591    0.371
       308  -9.4735     71.7838     35.3017   5.4625931071e+01   6.2107048498e+01    0.3769109    0.3085445  -1.65  0.001970372    1.372    0.271
       309  -9.3880    165.1917     36.6449   3.3500796300e+01   3.9210340012e+01    0.3723129     0.162225  63.64  0.001514574    2.339    0.573
       310  -9.5255    153.7521     37.0326   3.5268034529e+01   4.1973430666e+01     0.226494    0.2035979  87.58 0.0003828207    1.148    0.129
       311 -10.2080    224.9219     34.3861   2.6683974840e+01   2.6104212983e+01    0.3510049    0.2990805  34.01  0.002294513    1.461    0.316
       312  -8.3543    198.9731     36.7283   2.9603964957e+01   3.1326012806e+01    0.1510461    0.1171971  74.26 0.0007161072    1.428    0.300
       313 -10.5394     97.7748     35.0789   4.6036568551e+01   5.6208858914e+01    0.2881078    0.2700731  52.89 0.0004615675    1.082    0.076
       314  -9.3821     60.8632     34.6620   5.8767754136e+01   6.4459040591e+01    0.2585291     0.188622 -42.37 0.0002659682    1.331    0.249
       315  -8.5243    146.9643     34.4887   3.5435058584e+01   4.3992857974e+01    0.1993569    0.1172362 -74.86 0.0004956604    2.314    0.568
       316  -9.8202    119.2164     31.5056   3.9340340823e+01   5.1403436979e+01    0.3122511    0.2422895   2.13 0.0009792796    1.516    0.341
       317 -10.3766    248.0646     30.6747   2.4159121776e+01   2.2058890662e+01    0.3164513    0.1532837 -28.28 0.0007864009    1.618    0.382
       318 -10.2159    234.1797     30.6466   2.5069823641e+01   2.4673075956e+01     0.334313    0.2103362  56.61  0.001405168    1.933    0.483
       319 -10.2342    163.8196     31.6131   3.2037620951e+01   4.0157371906e+01    0.2672521    0.1952534 -41.92 0.0001657592    1.260    0.206
       320  -8.9491    158.6919     32.3565   3.2968310484e+01   4.1332169346e+01    0.2263255    0.1735936 -73.13  0.000839025    1.390    0.281
       321  -9.6705    154.6510     30.9710   3.3058448147e+01   4.2503846471e+01     0.365106    0.2639135  68.37  0.001015916    1.426    0.299
       322  -8.8665    189.2354    240.3943   7.4238987719e+01   4.5368146075e+00    0.1457634   0.07897656  34.76 0.0009507039    1.682    0.406
       323 -11.1637    144.8065     29.4895   3.3981476893e+01   4.5157912533e+01    0.8978986    0.2798831  51.27  0.002561701    3.304    0.697
       324 -10.3758    133.4769     30.8219   3.6337876078e+01   4.7869904797e+01    0.4407358    0.2965538 -27.68  0.001594989    1.459    0.314
       325  -9.1261    203.1434     31.1782   2.7662576784e+01   3.1032508767e+01    0.1785511    0.1629997 -27.70 0.0002561848    1.116    0.104
       326  -9.4095    178.9344     29.9343   2.9702606404e+01   3.6703121749e+01    0.3088702    0.2664348  49.48  0.001427382    1.301    0.231
       327  -9.2502    125.2134     30.8178   3.7859819111e+01   4.9972820655e+01    0.2441443    0.1646264  40.30 0.0004118849    1.642    0.391
       328  -7.9402     61.3325     30.2992   5.6333829500e+01   6.5148191560e+01    0.1458382     0.108867   7.99  0.000344121    1.648    0.393
       329  -9.1153     26.6161     22.0197   7.0554283632e+01   7.2664974117e+01    0.2787653      0.17123 -39.30  0.001427542    1.491    0.329
       330  -8.4058    206.6702    239.7151   7.1290686404e+01   2.6823331460e+00    0.1064139    0.0608946   5.76 0.0003512125    1.612    0.380
       331 -10.3030     40.8533     21.5106   6.1446411444e+01   7.0548444167e+01    0.3725502    0.3049285  62.86  0.001589893    1.596    0.373
       332  -9.6186    188.0289    235.5134   7.3806131886e+01   5.2293642880e+00    0.1621421    0.0832018  28.10 0.0006547063    1.570    0.363
       333 -10.4732     48.3422     26.6711   6.0437358570e+01   6.8290523968e+01    0.4635039    0.2771148  57.55  0.001217744    2.273    0.560
       334 -10.7121     50.4950     22.1250   5.6759557399e+01   6.8681040786e+01    0.3050758    0.2296869 -20.98 0.0006619066    1.341    0.254
       335  -8.8950    189.7718     28.3794   2.8115851857e+01   3.4345321678e+01    0.2357918    0.1298683  79.03  0.001117621    2.041    0.510
       336  -8.7476    229.5201     27.5153   2.4620974772e+01   2.5911036572e+01    0.1239915    0.1022504 -37.18 0.0001203047    1.037    0.036
       337  -8.9024    211.8802     26.5866   2.5680433623e+01   2.9636692655e+01    0.2035017    0.1377446 -31.71 0.0005160529    1.255    0.203
       338  -9.3249    222.4552     26.5066   2.4864686593e+01   2.7437551313e+01    0.2777416    0.1286485 -70.34  0.001229089    2.839    0.648
       339 -10.1941    220.3772     21.1574   2.3637137954e+01   2.8408746466e+01    0.3163902    0.2376522 -68.90   0.00198135    1.339    0.253
       340  -9.5576    217.2466     17.9288   2.3009726793e+01   2.9380154358e+01    0.2293733    0.1840365 -38.41 0.0003416199    1.047    0.045
       341  -8.1311    166.3045     26.6987   3.0117410922e+01   4.0115786520e+01    0.1477636   0.09433069 -56.67 0.0002972368    1.593    0.372
       342  -8.3583    161.2917     26.3691   3.0617066727e+01   4.1388527022e+01    0.1437045    0.1047104  24.54 0.0007025666    1.717    0.418
       343  -9.3197     32.0298    232.0617   1.0365600466e+02   2.3412290096e+01    0.1663445    0.1191586  49.57 0.0003915944    1.066    0.062
       344  -9.3802    109.4666     23.4667   3.7992320386e+01   5.4909205245e+01    0.2424362    0.2067019 -30.79 0.0001122338    1.164    0.141
       345  -9.2519     82.6962     26.0517   4.6226662169e+01   6.1138447069e+01    0.2075105    0.1946056  74.70 0.0002034648    1.148    0.129
       346  -9.9026      1.9206     25.1670   9.0618201576e+01   7.4407544912e+01    0.3138154    0.1677553 -66.26  0.001211994    1.652    0.395
       347 -11.0635    182.3734     18.2416   2.5781987233e+01   3.7141647954e+01     0.268023    0.2537339  41.25 0.0004190456    1.214    0.177
       348  -9.6906    221.8975    233.8657   6.8095145255e+01   1.6485939770e+00    0.1771146    0.1122502  24.94 0.0007961935    1.366    0.268
       349  -9.1500    169.6822     23.0690   2.8553841880e+01   3.9688824224e+01    0.3285956    0.1602289 -43.90  0.001450222    1.873    0.466
       350  -9.8588    173.7611     22.0583   2.7797307626e+01   3.8806428130e+01    0.3325453    0.2437476 -18.33  0.001221844    1.396    0.284
       351  -8.5597    178.4988    231.4991   7.4916686737e+01   6.8164247853e+00    0.1102218   0.08281569  12.63 -0.0002032155    1.022    0.021
       352  -9.0572    162.9547    226.1872   7.7002001846e+01   9.3691004534e+00    0.2520242    0.1916125 -82.29   0.00150215    3.059    0.673
       353  -9.1381    230.1459     23.0792   2.3478036942e+01   2.6237310641e+01    0.1736504     0.156466 -14.39 0.0006336871    1.235    0.190
       354  -9.7858    153.7918     22.6717   3.0297514934e+01   4.3673404970e+01    0.2866814    0.2445119 -16.84 0.0008312722    1.220    0.180
       355 -10.7312    151.9227     18.1079   2.8926996276e+01   4.4631430315e+01    0.3113601    0.2564125  69.83 0.0002795969    1.232    0.189
       356  -9.2212    122.1266     22.1362   3.4917294526e+01   5.1830677919e+01    0.3039587    0.1743291 -57.29 0.0009093865    2.057    0.514
       357  -8.7392    116.9381     22.5072   3.6046675919e+01   5.3119113427e+01     0.207429    0.1810141 -23.34  0.001131036    1.157    0.135
       358 -10.0989    205.2231     18.4093   2.3974090329e+01   3.1912484378e+01    0.2924299    0.1804369 -38.02 0.0002096204    1.347    0.258
       359  -8.7376    207.1974    226.5668   6.9395267394e+01   4.0492979105e+00    0.1465216   0.07901462  19.26 0.0004426262    1.588    0.370
       360  -8.2484    143.6475    226.2983   8.0633615730e+01   1.1745863800e+01    0.1099963   0.07781809  49.30 0.0007035902    1.693    0.409
       361  -9.0831    144.4153     20.8899   3.0903409837e+01   4.6245229006e+01    0.2814203    0.1848985  79.12            0    1.592    0.372
       362  -9.1005    139.9338     20.7954   3.1501018406e+01   4.7401841451e+01    0.3862811    0.2387388  24.46  0.001689369    2.187    0.543
       363  -9.1238     18.1937     22.0891   7.6565262835e+01   7.3702371559e+01    0.2169857    0.1778102  30.89 0.0006298742    1.361    0.265
       364  -9.6507    245.5951     20.2487   2.1878823651e+01   2.3547493498e+01    0.1772201    0.1401406  36.09  0.001188328    1.696    0.410
       365  -8.7547    224.0203    225.1985   6.6532889933e+01   2.3160643386e+00    0.1451118    0.1022245   9.20 0.0005344534    1.062    0.059
       366  -9.8866    236.3573     20.3010   2.2415825709e+01   2.5294715692e+01    0.2087408    0.1528533  87.44   0.00135413    1.558    0.358
       367 -10.8432    237.8864     17.1726   2.1575750319e+01   2.5301860364e+01    0.4787705    0.1933512  54.18  0.002029714    3.181    0.686
       368  -9.6723    225.5025     16.8245   2.2205924511e+01   2.7784240765e+01    0.2389855    0.1826435  13.88 0.0007052995    1.711    0.415
       369 -10.5440    228.8086     14.6064   2.1457991740e+01   2.7329692131e+01    0.4669566    0.2002836 -80.56  0.002120864    3.022    0.669
       370  -8.7347    199.5320     18.9818   2.4563208325e+01   3.3116559337e+01    0.2025513    0.1175406 -23.46  0.001031127    1.608    0.378
       371 -10.1760    166.5164     17.8505   2.7193720901e+01   4.1010978362e+01    0.2786573    0.2041648  53.15  0.001363502    1.481    0.325
       372  -8.6624    132.3692    225.1939   8.2684274099e+01   1.3309325789e+01    0.1270379    0.1106222 -69.96 0.0003460754    1.590    0.371
       373  -8.3845    125.4706    225.4881   8.4077474121e+01   1.4122726769e+01    0.1144337   0.09251224  26.70 4.878053e-05    1.006    0.006
       374  -9.5507     89.3799    220.8219   9.0969748546e+01   1.9266873207e+01    0.2134784    0.1670868  12.65 0.0008242842    1.378    0.275
       375  -8.7955    174.9690    218.0941   7.3717308847e+01   8.9401922741e+00    0.1966957    0.1075041 -32.18   0.00114542    1.956    0.489
       376  -8.3140     23.6971    214.6717   1.0461052439e+02   2.7300649966e+01   0.09768878   0.08333716 -33.52 0.0006748457    1.647    0.393
       377  -8.4792    117.9656    212.0156   8.4026634770e+01   1.7187943204e+01     0.145756    0.1172023  29.53 0.0004899925    1.042    0.041
       378  -8.6590    242.5831    209.8039   6.1423818327e+01   1.8889316315e+00    0.1285543   0.08341365 -28.17 0.0004386029    1.572    0.364
       379  -8.2629    221.3375    198.7301   6.2877859491e+01   5.5694228486e+00   0.09212188    0.0847914  19.86 0.0003224963    1.599    0.375
       380  -9.6422     44.5370     15.6459   5.5772387194e+01   7.0871854743e+01    0.3809046    0.1748391  49.15  0.001630374    2.331    0.571
       381  -8.5178    195.1891     15.0317   2.3775961015e+01   3.4485885687e+01    0.1735228    0.1480947 -44.24  0.000398073    1.020    0.019
       382  -9.5225    144.1299     16.3822   2.9281394406e+01   4.6792847280e+01    0.2949537    0.2188336 -72.25  0.001241842    1.406    0.289
       383  -8.7845     91.7462     13.9316   3.7542130134e+01   6.0494972606e+01    0.1901258    0.1809133 -37.56 0.0005928045    1.077    0.071
       384  -8.7592     85.0251     14.4956   3.9567236080e+01   6.2091017150e+01    0.2126354    0.1313259  55.61 0.0006506838    1.557    0.358
       385  -8.4062     95.9900    195.9738   8.6888462688e+01   2.2861155854e+01    0.1451126    0.1308273  39.24 0.0003544516    1.035    0.034
       386  -8.6701    218.2914    195.6672   6.2859254645e+01   6.3094969476e+00   0.09377654    0.0875771 -23.83 0.0004568115    1.632    0.387
       387  -9.0694      6.4020    194.8006   1.0764968129e+02   3.2641876835e+01    0.1492944   0.09358954 -72.17 0.0009417056    1.709    0.415
       388  -8.7879    152.4142     13.2423   2.7147959420e+01   4.4994050736e+01    0.2079201    0.1114849 -36.96 0.0009471069    1.703    0.413
       389  -9.3951    248.5457    191.8349   5.7668543456e+01   3.1209984099e+00    0.2396434   0.07952653 -37.89  0.001141791    3.388    0.705
       390 -10.2530     17.3459    173.7402   1.0407514987e+02   3.6225270309e+01    0.2737035    0.1469179  59.67 0.0009843811    1.638    0.389
       391  -8.9885      5.4965    174.5402   1.0710951586e+02   3.6991302491e+01    0.1192234   0.09663408  63.91 0.0008092832    1.010    0.010
       392 -10.2947     11.6064    166.2414   1.0516092839e+02   3.8372399094e+01    0.2311505    0.1609713 -85.54  0.001427119    1.337    0.252
       393 -10.1335     14.5485    165.5052   1.0434484384e+02   3.8304559962e+01    0.2299076     0.102787  30.15 0.0007282637    2.044    0.511
       394 -12.6244     35.0095    157.6080   9.8197974777e+01   3.8287975802e+01     1.442227    0.3571722  48.46  0.004896488    3.879    0.742
       395 -10.5244     20.6814    158.1561   1.0222687687e+02   3.9487370521e+01    0.3114615    0.1940145 -83.51 0.0006029718    1.499    0.333
       396  -8.6686    229.3123     10.3233   2.0370646531e+01   2.7628549129e+01    0.1120054    0.0892633  21.24 0.0007039687    1.657    0.396
       397 -10.4959     28.4711    144.6099   9.8904959955e+01   4.2025143141e+01      0.42676    0.2449998 -39.45            0    2.332    0.571
       398 -10.3552     20.6006    150.8762   1.0172925022e+02   4.1214335954e+01    0.5040691    0.1934865 -50.06  0.002034202    3.253    0.693
       399 -10.9546     13.4226    151.2790   1.0381025038e+02   4.1704671587e+01    0.5871056    0.2469382  12.38  0.002504774    3.186    0.686
       400  -8.1185     28.3131    164.3160   1.0058684565e+02   3.7377581620e+01    0.1201591   0.09238831 -41.09 0.0004589269    1.642    0.391
       401  -9.2693     24.0618    163.4738   1.0167249915e+02   3.7958831106e+01    0.1740616    0.1164749  28.48 0.0005420556    1.507    0.337
       402 -10.1798      9.8380    157.6117   1.0518067496e+02   4.0490724003e+01    0.2561338    0.1683798  64.34   0.00151671    1.312    0.238
       403 -10.5641      2.3178    155.9449   1.0715892493e+02   4.1421097225e+01    0.4840584    0.2020563 -78.18  0.002286084    2.163    0.538
       404  -9.6454    249.0139    153.9861   5.0864160575e+01   7.3568885866e+00     0.182964    0.1338066  -9.92 0.0006169658    1.061    0.057
       405  -8.5347     58.2989    150.9567   9.0882391103e+01   3.7268028214e+01    0.1750342    0.1608307  80.69 0.0003419761    1.036    0.035
       406  -9.6045     10.9395    147.2042   1.0427014464e+02   4.2868624052e+01    0.1944248    0.1344451 -31.58  0.001081868    1.955    0.488
       407 -10.4821      4.5966    144.5615   1.0596485127e+02   4.3957983948e+01    0.4774461     0.266164 -47.40  0.002461605    2.191    0.544
       408  -9.6419      2.2211    140.2766   1.0644082302e+02   4.5151067509e+01    0.2769388    0.1547569  86.17  0.001475781    1.572    0.364
       409  -9.8473    240.9690    144.4866   5.0124017506e+01   9.6063115093e+00    0.1863193    0.1281996 -21.52 0.0005693907    1.158    0.136
       410  -9.5037    239.4551    141.4517   4.9730171996e+01   1.0201140332e+01    0.1899285    0.1488515 -29.25 0.0005492193    1.261    0.207
       411 -10.4271     12.9100    142.1220   1.0335885158e+02   4.3949331295e+01    0.3138547    0.2195245 -31.79  0.001754119    1.897    0.473
       412  -8.3192    121.7371    139.6759   7.1711268974e+01   3.0221912636e+01     0.139688    0.1080218 -14.88 0.0002521435    1.560    0.359
       413 -10.2952     41.2695    137.8138   9.4296276794e+01   4.2411198926e+01     0.268679    0.2292505  60.98  0.001602363    1.097    0.088
       414  -9.0919    236.0107    136.5247   4.9212599002e+01   1.1328736295e+01     0.157481    0.1145313  35.28 0.0004782014    1.543    0.352
       415 -10.1312     60.6113    132.9081   8.7624118421e+01   4.1317768628e+01    0.4959825    0.3307213 -53.82  0.002457363    1.514    0.340
       416  -8.9794     47.0156    134.6649   9.2110526997e+01   4.2552191138e+01    0.1864219     0.172698  51.75 0.0004981556    1.097    0.089
       417  -8.8367     75.5041    133.9830   8.3281991484e+01   3.8997118670e+01    0.2062126    0.1369086 -63.80  0.000529487    1.506    0.336
       418 -10.6083      8.0154    133.3339   1.0426236925e+02   4.6467477051e+01    0.3359811    0.2452102  -6.74  0.001401184    1.811    0.448
       419  -9.7956      3.1273    130.6758   1.0563112790e+02   4.7450875525e+01    0.2280354    0.1491033  75.61 0.0007890212    1.339    0.253
       420 -10.5523     41.6875    130.0620   9.3187983968e+01   4.4297595243e+01    0.3934263    0.2840693 -79.73   0.00158082    1.312    0.238
       421  -8.7907     22.3058    130.6389   9.9503617652e+01   4.6037750640e+01      0.28819    0.1457327  78.34  0.001290578    2.100    0.524
       422 -10.0817     18.7344    127.4243   1.0036048357e+02   4.7145974455e+01    0.3542158    0.1962822 -63.53  0.001773111    1.688    0.408
       423  -8.6062     87.0001    130.0689   7.9164087857e+01   3.8172558362e+01    0.1704892    0.1591591 -67.89  0.000506278    1.063    0.060
       424  -9.9410     33.6771    127.0450   9.5410947495e+01   4.5895167315e+01     0.301293    0.2210712 -72.71 0.0009814451    1.263    0.208
       425  -8.7023     12.7120    126.9795   1.0229241446e+02   4.7723059564e+01    0.1924638    0.1470052 -87.98  0.001133472    1.147    0.128
       426  -8.4146     50.5743    126.4973   8.9808409293e+01   4.4171949341e+01    0.1385794     0.127613 -87.72  9.70803e-05    1.021    0.020
       427  -9.3716    241.8373    124.3156   4.5907088947e+01   1.2016650638e+01    0.2146382    0.1350956 -34.31 0.0009186286    1.390    0.280
