#   1 NUMBER                 Running object number                                     
#   2 MAG_AUTO               Kron-like elliptical aperture magnitude                    [mag]
#   3 X_IMAGE                Object position along x                                    [pixel]
#   4 Y_IMAGE                Object position along y                                    [pixel]
#   5 X_WORLD                Barycenter position along world x axis                     [deg]
#   6 Y_WORLD                Barycenter position along world y axis                     [deg]
#   7 A_WORLD                Profile RMS along major axis (world units)                 [deg]
#   8 B_WORLD                Profile RMS along minor axis (world units)                 [deg]
#   9 THETA_WORLD            Position angle (CCW/world-x)                               [deg]
#  10 FWHM_WORLD             FWHM assuming a gaussian core                              [deg]
#  11 ELONGATION             A_IMAGE/B_IMAGE                                           
#  12 ELLIPTICITY            1 - B_IMAGE/A_IMAGE                                       
         1 -15.1684      6.2814     70.8312   8.3325501527e+01   6.1857853248e+01     1.096385    0.7591572 -67.50  0.005741729    1.182    0.154
         2 -13.2784      7.8523      2.6850   6.0818518217e+01   7.6544878965e+01    0.5361467    0.4170978  33.84  0.003653184    1.643    0.391
         3 -16.0930     11.2260     23.3683   6.8496825382e+01   7.2344993798e+01      1.98781    0.9896736 -37.56   0.00975359    1.762    0.432
         4 -14.6798     26.9791     11.6577   5.2518694938e+01   7.2993866252e+01    0.9405054    0.5722727 -20.80  0.005159505    1.688    0.408
         5 -14.1786    166.2335     29.5846   1.6271023966e+01   3.9624771426e+01    0.9148213    0.6558797  73.56  0.003788344    1.364    0.267
         6 -12.8538    141.1598     21.9251   1.7674260059e+01   4.7136320282e+01     1.166152    0.5771379  80.41  0.003792031    2.495    0.599
         7 -13.0391    119.5747     26.6681   2.3809729236e+01   5.2166563573e+01    0.8026672    0.4689043  32.59  0.003396896    2.077    0.519
         8 -13.6038    189.8231     26.5795   1.2269650548e+01   3.3927635018e+01    0.7497868    0.2405425 -47.50   0.00256863    3.188    0.686
         9 -15.1730     98.5229     11.5984   2.2416350797e+01   5.9179912697e+01     1.391119    0.9372819  58.12  0.004321235    1.382    0.276
        10 -12.7044     85.9263     14.1412   2.7153413997e+01   6.1873137371e+01    0.5482172    0.4009019 -60.54  0.002790323    1.853    0.460
        11 -12.2530     60.2376     15.3437   3.7128340137e+01   6.7136393085e+01    0.4804404    0.2918822  22.01  0.002326307    1.920    0.479
        12 -12.2403    188.0132      9.5160   7.5281423892e+00   3.6242653679e+01    0.3307849    0.2762424 -87.74  0.001948989    1.102    0.092
        13 -12.0528     46.7099     12.6435   4.1902293299e+01   6.9945898235e+01    0.2610483     0.239362  51.19  0.001679717    1.408    0.290
        14 -12.8524    214.6169     10.0392   5.4010954081e+00   2.9711412543e+01    0.3405975    0.3041069 -83.54  0.001709245    1.108    0.098
        15 -13.9558     41.9115      4.0896   3.9194326097e+01   7.1940221728e+01    0.6356047    0.4978178  14.04  0.003165598    1.151    0.131
        16 -11.6943     75.2099      9.7736   2.8385316668e+01   6.4775108576e+01    0.2688064    0.1844559  -6.58  0.001012958    1.570    0.363
        17 -11.3179    153.0145      8.2395   1.1033406915e+01   4.5439228823e+01    0.1925523    0.1100152  71.71 0.0008828898    1.615    0.381
        18 -11.4091    123.3565     10.9448   1.6695994089e+01   5.2979586616e+01    0.2284753    0.1848956  83.31 0.0004539878    1.259    0.206
        19 -11.8161    118.1462      2.1031   1.4025647984e+01   5.5140835142e+01    0.4464537    0.2356447 -87.81  0.001810831    2.541    0.606
        20 -11.3109     67.8651      2.8463   2.7136464987e+01   6.7111285681e+01    0.2175179    0.1573175  25.75  0.001220706    1.316    0.240
        21 -11.1273     61.2970      1.3418   2.8693157413e+01   6.8638307092e+01    0.3642228    0.1175486  56.08  0.001376934    3.129    0.680
        22 -11.5731     71.0812     16.4310   3.3356003286e+01   6.4831353731e+01    0.2450662      0.19187 -30.87 0.0006105879    1.315    0.239
        23 -12.7950     51.3330    248.0486   8.7106289618e+01   1.8177179120e+01    0.3798991    0.3167447   5.12  0.002828171    1.865    0.464
        24 -12.5395      2.9303    249.5425   9.5820136941e+01   2.2899224266e+01    0.3438796    0.2034219  58.59  0.002022673    1.149    0.130
        25 -14.0850      9.7426    245.7884   9.4535248758e+01   2.2899445099e+01    0.7830317     0.291067  50.59  0.004069918    1.765    0.433
        26 -15.5007      7.1336    181.9028   9.2649736743e+01   3.5408761650e+01     1.611727     1.015837  87.58   0.01035754    1.343    0.255
        27 -14.6753     14.8531    174.6502   9.0492742744e+01   3.6324958173e+01     1.277739    0.4274903  55.84  0.005725219    2.639    0.621
        28 -11.5282    206.1855    190.8199   4.9360575226e+01   4.9002908618e+00    0.1827098    0.1625395  16.53  0.000715773    1.171    0.146
        29 -14.0996    249.3684    182.2401   4.0489499170e+01  -4.2661137082e-01    0.7825448    0.2111387 -35.00  0.003204821    3.428    0.708
        30 -13.5417    244.5439    172.1892   3.9369280385e+01   1.5480577090e+00    0.5137115    0.4089422 -78.40  0.002804397    3.020    0.669
        31 -11.6204     48.8865    181.4456   8.2870550128e+01   3.1316889363e+01    0.2504528    0.1470193 -56.00  0.001336649    1.945    0.486
        32 -12.0021     84.0000    178.9717   7.4063776235e+01   2.7212313841e+01    0.2100878    0.0751146 -63.33 0.0008085071    2.985    0.665
        33 -11.9029    218.6798    175.0370   4.4211780328e+01   5.1667852377e+00    0.1844722    0.1494649 -12.32  0.001046806    1.112    0.101
        34 -13.2124    206.9592    162.2594   4.3813592937e+01   9.0476297765e+00     0.462525    0.2345135 -37.91  0.002183149    1.963    0.491
        35 -11.4673    177.5178    167.4955   5.0581361031e+01   1.3454606114e+01    0.1385041    0.1239096  14.05 0.0001962936    1.014    0.014
        36 -11.4046    193.0760    164.3447   4.6851425919e+01   1.1174087102e+01    0.2411698    0.1784606 -18.69   0.00131825    1.380    0.275
        37 -13.7366    242.9484    162.9845   3.7844787789e+01   3.0089451492e+00    0.3104134    0.2518161  -9.21  0.002055018    1.026    0.026
        38 -12.6159    124.2581    166.7039   6.2369117942e+01   2.3298649983e+01    0.5856602    0.3818825 -69.02  0.002760951    1.962    0.490
        39 -12.1125    110.7068    154.9804   6.3668627937e+01   2.8199356062e+01    0.5124181    0.3119297 -85.18  0.002027036    2.756    0.637
        40 -12.0474     77.0614    156.7760   7.2817576631e+01   3.3221565158e+01    0.3449858    0.2517161  27.02  0.001164081    1.522    0.343
        41 -13.2673     73.2929    153.3500   7.3336827597e+01   3.4570351102e+01     0.619051    0.4421765  32.62  0.002406971    1.453    0.312
        42 -12.9379     40.0102    194.9981   8.6030235511e+01   2.9423712690e+01    0.4146194    0.2408234  69.84   0.00237163    1.582    0.368
        43 -12.4048    188.8845    155.9014   4.5958950907e+01   1.3352146332e+01     0.223816    0.1812711   4.22  0.001092277    1.254    0.203
        44 -13.7518    247.2566    150.4950   3.4696855223e+01   4.0289601988e+00    0.5465825    0.4496662 -34.59  0.003574891    1.321    0.243
        45 -11.4557    103.3930    149.8154   6.4646048741e+01   3.0628577739e+01    0.2778558    0.2169801 -24.40  0.001124519    1.676    0.403
        46 -12.3295      9.1482    149.6138   9.0376443680e+01   4.2497568358e+01    0.4522389    0.2577807  17.97  0.002494856    2.190    0.543
        47 -12.2446     60.7499    147.3029   7.5949267549e+01   3.7734929289e+01    0.3492004    0.2439746  -2.24  0.001671092    2.286    0.563
        48 -12.9274    248.2833    138.3721   3.2057984353e+01   5.5305086043e+00    0.3426161    0.3245391 -79.95  0.002326811    1.507    0.336
        49 -12.1278    230.6082    138.7607   3.4844140596e+01   8.4736802444e+00    0.3258318    0.2288025 -45.36  0.001796269    1.595    0.373
        50 -12.3805     43.9958    132.5172   7.8816367091e+01   4.3392212582e+01    0.1957342    0.1327941  30.26  0.001032759    1.594    0.373
        51 -14.1284    104.2125    121.6937   5.8727175389e+01   3.6995060979e+01      1.22261    0.9679586  56.82  0.006102124    1.305    0.234
        52 -15.0050    106.7843    106.4914   5.4309933148e+01   4.0029913612e+01     1.762182     1.283851 -69.99   0.00805745    1.616    0.381
        53 -13.8170      2.2293     96.8812   8.8222123325e+01   5.5695216370e+01     1.050791    0.3072994 -80.80  0.003997491    3.064    0.674
        54 -15.0759     24.4685     93.9104   7.9719857417e+01   5.4961451461e+01     1.420729     1.250826   5.66  0.008962376    1.352    0.260
        55 -15.0052     12.7017    103.2849   8.5248812503e+01   5.3495848846e+01     1.029789    0.7338713  27.47  0.006150861    1.605    0.377
        56 -12.7366     78.8706    110.3497   6.3879789902e+01   4.4155739618e+01    0.4668474    0.3498837  78.63  0.002254583    1.597    0.374
        57 -11.9468     62.8683    110.7733   6.9209371492e+01   4.6463069236e+01    0.2823665    0.1884758  54.16  0.001358148    1.622    0.384
        58 -12.2082     86.5550    114.9263   6.2475767792e+01   4.1766141927e+01    0.3894452    0.2862322  10.26  0.001347241    1.865    0.464
        59 -14.5044    244.7466    114.2749   2.7390805832e+01   9.5391163338e+00     0.933728    0.5231704  40.00  0.004770748    2.040    0.510
        60 -13.6987     29.4575    121.3306   8.1870363962e+01   4.7661400311e+01    0.5465211    0.3044906 -69.42  0.002760881    1.565    0.361
        61 -12.4836      4.7460    119.4221   8.9432380583e+01   5.0031721500e+01    0.4459921    0.3513684 -15.00  0.002800043    1.679    0.405
        62 -12.9466     81.6980    115.1065   6.4029667061e+01   4.2534026040e+01    0.3832441    0.3207703  67.86  0.002012218    1.255    0.203
        63 -12.1695    136.6015    103.1277   4.5207974018e+01   3.4452873665e+01    0.4436161    0.2223753  52.77  0.001662945    2.138    0.532
        64 -12.4425     36.8318     92.9852   7.4919804879e+01   5.4059806348e+01    0.3895457    0.2774349  -5.42  0.001464499    1.844    0.458
        65 -12.2233     61.5187     97.5436   6.6843447792e+01   4.9935625957e+01    0.4566639    0.2913077  84.62  0.001953189    2.251    0.556
        66 -12.4818     49.1039     93.2410   7.0387139263e+01   5.2628497891e+01    0.4143573    0.3058102  67.28  0.002145756    1.571    0.364
        67 -12.6647     42.6335     90.6287   7.2256992165e+01   5.4030208142e+01    0.4582864    0.2837489 -87.87  0.002120227    1.971    0.493
        68 -12.0828     47.0085     99.5197   7.2448861918e+01   5.1312842782e+01    0.5060165    0.3303719  70.00  0.002414817    1.885    0.470
        69 -12.0759     52.7934     97.4944   6.9951554368e+01   5.1113455283e+01    0.4208408    0.2541524 -26.88  0.001802538    2.407    0.585
        70 -11.2909    163.7588     97.9927   3.7417249093e+01   2.9259686043e+01    0.2145281    0.1962017 -38.97 0.0004014519    1.077    0.072
        71 -12.9321    136.4993     94.4033   4.2809619001e+01   3.6284364527e+01    0.4346028    0.3426216  49.02  0.001231162    1.271    0.213
        72 -14.6556     18.4292    111.7184   8.4289613973e+01   5.0988693669e+01    0.9712476    0.5534642   9.16  0.004897503    2.340    0.573
        73 -12.2497    188.2586     84.1060   2.8828951199e+01   2.5991469736e+01     0.344894    0.1984847  40.41  0.001350739    2.007    0.502
        74 -13.3456    163.8937     71.7412   2.9874872116e+01   3.3973146397e+01    0.6248658    0.4645976  48.69  0.002991698    1.372    0.271
        75 -13.9443    169.4563     77.2712   3.0404568162e+01   3.1654735500e+01    0.9014277     0.657162  18.38  0.002772372    1.844    0.458
        76 -11.6880    158.4544     83.5009   3.4483896342e+01   3.3219278014e+01    0.2709336    0.2259401  47.36  0.000703906    1.216    0.178
        77 -13.0110    161.7920     79.6008   3.2634549481e+01   3.3115726847e+01    0.7277334    0.4264863  29.43  0.002223639    2.508    0.601
        78 -11.8767    250.0000     82.5099   1.9575972929e+01   1.3038945120e+01    0.2983312   0.06346019 -31.80 0.0009384644    3.965    0.748
        79 -13.3963     66.0117     49.0957   5.0374692764e+01   6.0302906599e+01    0.8612756    0.6382495 -40.33  0.004527493    1.284    0.221
        80 -13.6948     92.0207     57.3734   4.3812549648e+01   5.3680981516e+01    0.5676718    0.4901864 -27.24  0.002158251    1.161    0.139
        81 -14.1800     54.1565     67.1505   6.1646502928e+01   5.8249194762e+01     1.310004    0.8837974 -27.23  0.006380695    1.725    0.420
        82 -13.3110     87.3641     65.3261   4.8266104520e+01   5.3026305114e+01    0.5364628    0.4384099   2.19   0.00110213    1.446    0.309
        83 -12.9123     55.0017     80.4378   6.5078162097e+01   5.5006317368e+01     0.689403    0.4087408 -48.53  0.003247806    1.566    0.361
        84 -13.9983     61.1985     75.4565   6.1277475937e+01   5.5311329644e+01    0.7509288    0.4805734 -40.21  0.001394287    1.577    0.366
        85 -12.1541    114.0111     79.7653   4.4548340420e+01   4.4400168052e+01    0.4400698    0.3270081 -50.65  0.002058437    1.375    0.273
        86 -12.5412    134.9521     79.3140   3.8720712340e+01   3.9663744175e+01    0.7708208    0.3629491  55.83  0.002794311    2.296    0.564
        87 -11.5774     42.5217     79.4817   6.9801668727e+01   5.6786385457e+01    0.2820511    0.1739093 -43.49  0.001156183    1.590    0.371
        88 -11.3653     41.6315     75.7697   6.9257996108e+01   5.7786725982e+01    0.3007336    0.1944796 -64.45  0.000796989    1.444    0.308
        89 -13.0993     28.6633    245.2646   9.1135221315e+01   2.1118356925e+01    0.3516193    0.1684427  47.04  0.002282938    1.462    0.316
        90 -14.4548      5.1896     63.1860   8.2537328253e+01   6.3749651179e+01    0.7188161    0.6438734 -26.63  0.004686892    1.232    0.188
        91 -11.8631     27.2747     75.5259   7.5211267613e+01   5.9274274629e+01    0.4363796    0.2354999  88.25  0.001853389    2.626    0.619
        92 -12.5744    134.3586     66.4873   3.4773747951e+01   4.2218815633e+01    0.6302633    0.3317256  47.07  0.002493519    1.905    0.475
        93 -11.0532    117.7440     72.0268   4.0989184849e+01   4.5125683500e+01    0.2205181    0.1996058 -40.76  0.001133106    1.103    0.094
        94 -12.6643    199.7267     69.2698   2.2931847954e+01   2.5668407436e+01    0.4166288    0.2394086  59.00  0.001700908    1.824    0.452
        95 -12.6262     39.1318     67.9179   6.8283556719e+01   5.9942345460e+01    0.4903535    0.2656687  34.07  0.002341393    1.999    0.500
        96 -11.8907    158.4554     63.8586   2.8557476421e+01   3.6661229161e+01    0.3867338     0.163263 -48.78  0.001303435    2.760    0.638
        97 -11.2391     99.7122     65.0191   4.4031815800e+01   5.0539913859e+01       0.2194    0.2005371 -44.59  0.001160845    1.095    0.087
        98 -13.1823     78.8038     60.2452   4.9552521113e+01   5.5729880612e+01    0.5523761    0.4444093 -46.51   0.00288936    1.222    0.182
        99 -13.4582    177.6791     57.7213   2.3160996755e+01   3.2792017053e+01    0.7935846    0.4921858 -48.37  0.002883198    1.625    0.385
       100 -12.3202     38.7314     59.7706   6.6144818069e+01   6.1887904659e+01    0.2684067    0.1892107  74.91  0.001326414    2.091    0.522
       101 -12.3221     34.7275     60.1861   6.8107159361e+01   6.2225999551e+01    0.5336643     0.138318 -49.78   0.00186818    3.099    0.677
       102 -11.6945     24.6708     59.9817   7.2747159866e+01   6.3223251610e+01    0.2698385    0.2178405 -55.32  0.000962363    1.065    0.061
       103 -11.9336    111.0902     58.6911   3.8312726203e+01   4.9212650987e+01    0.2729075      0.23923   2.21 0.0004042206    1.260    0.206
       104 -14.4531    119.9314     54.8256   3.4458904368e+01   4.7809266329e+01    0.8223808    0.6321549  38.67  0.003990759    1.343    0.256
       105 -11.6596     17.6900     55.3555   7.4935790255e+01   6.4852781268e+01    0.3215227     0.180249 -67.51  0.001658919    1.616    0.381
       106 -13.8499    103.2022     50.3187   3.7555676085e+01   5.2539117696e+01     1.083573    0.6270009 -58.74  0.001354612    2.527    0.604
       107 -13.9603     74.0462     73.7987   5.5875032309e+01   5.3640921570e+01     1.392406    0.7519863  15.23  0.004630366    3.779    0.735
       108 -13.2438     97.7014     49.9902   3.9144659548e+01   5.3835719180e+01    0.6284735    0.4052609 -46.46  0.002311928    1.633    0.388
       109 -11.9733    136.0225     49.9113   2.8746305451e+01   4.4627103016e+01    0.3232824    0.2723968  -3.97 0.0008960808    1.361    0.265
       110 -10.5587     23.6455     49.7458   7.0427476661e+01   6.5673837267e+01    0.1324324   0.08523716 -29.28 0.0003287965    1.605    0.377
       111 -11.8518    152.4421     46.4962   2.4150000488e+01   4.0931669349e+01    0.4042661    0.1241799  55.74  0.001255241    2.957    0.662
       112 -11.5097     38.8109     46.1375   6.1604061832e+01   6.4912391999e+01    0.1900424    0.1404008 -29.37 0.0007187667    1.313    0.238
       113 -13.5701      6.0262     42.9091   7.7862220383e+01   6.8435436407e+01    0.8490459    0.4144915  13.73  0.004411844    2.363    0.577
       114 -12.0552    208.9972    244.1626   5.7282118401e+01  -2.2910199376e+00    0.1701758    0.1156649  47.54  0.001096656    2.051    0.513
       115 -12.0422    246.6037    235.2095   4.9785024131e+01  -6.0409257712e+00    0.2214742    0.1368975  12.76  0.001559472    1.268    0.211
       116 -13.8914     91.7020    231.8547   7.8074398001e+01   1.5877863212e+01    0.4296116    0.2625935  77.79  0.002466957    2.102    0.524
       117 -12.9021    219.6699     41.5216   1.3037980521e+01   2.4906337408e+01    0.4499072    0.3087662 -87.62  0.001750598    1.603    0.376
       118 -12.5521    211.8711     43.1661   1.4321453285e+01   2.6498611559e+01    0.5497248    0.2235096  60.83  0.002270238    2.477    0.596
       119 -12.8265    204.9948     39.9955   1.4264419275e+01   2.8538706247e+01    0.6393196    0.3012328 -86.81  0.002257919    3.510    0.715
       120 -12.2571    158.6708     42.9094   2.1818884113e+01   3.9834736363e+01    0.3900486    0.2793927  65.14  0.001605718    1.373    0.272
       121 -12.2014    109.8672     41.9612   3.2364617350e+01   5.2378805494e+01    0.4145343    0.2100218  55.14 0.0006524111    1.948    0.487
       122 -11.8906    134.6414     39.5018   2.5345002972e+01   4.6558418068e+01    0.4297474    0.2759018  73.65   0.00152615    1.748    0.428
       123 -13.2903    113.8093     37.8420   2.9675651177e+01   5.2057172506e+01     0.402112    0.3675017  42.43  0.001393756    1.059    0.056
       124 -13.9087    122.3127     36.7477   2.7119405799e+01   5.0100399628e+01     1.035427    0.4959584  38.83  0.002975043    2.524    0.604
       125 -12.8622    131.4438     33.4617   2.3810662753e+01   4.8228104170e+01    0.4721082    0.4273252 -23.24  0.001548816    1.160    0.138
       126 -12.3742     40.2975     40.3388   5.8658021027e+01   6.5947150359e+01    0.5297975    0.2845466  36.07  0.002575923    2.021    0.505
       127 -12.7790     32.8692     40.2375   6.2442977580e+01   6.6853070530e+01    0.3242736    0.2615156 -17.26 0.0007946113    1.219    0.179
       128 -12.5055     75.9358     37.0048   4.1366903403e+01   6.0705663412e+01    0.3699343    0.2676495  37.87 0.0007644483    1.375    0.272
       129 -11.6284     70.6682     36.0901   4.3016847955e+01   6.1890658133e+01    0.2977286    0.2405176  60.57 0.0009800083    1.521    0.342
       130 -12.0326    104.7961     35.4653   3.1173377660e+01   5.4595459350e+01    0.4463765    0.1796883 -25.59  0.001526588    3.051    0.672
       131 -12.3467    242.0644     36.1234   9.5868233235e+00   2.0662051902e+01     0.415135      0.19313  73.70  0.001974704    2.416    0.586
       132 -13.1303     44.6759     33.3083   5.3481898763e+01   6.6751520989e+01    0.9043717    0.4562019  34.40  0.004266677    2.081    0.519
       133 -12.6678     23.4838    216.4596   9.0821072414e+01   2.6858406057e+01    0.6121044    0.2423899  50.26  0.003381476    1.870    0.465
       134 -13.7116     26.2008    226.5195   9.0761891308e+01   2.4691540467e+01    0.5799409    0.3389708 -59.52  0.003690738    2.225    0.551
       135 -14.1416    147.8720     29.9871   1.9366258602e+01   4.4394290025e+01    0.9908729    0.5295175  66.10   0.00394451    1.811    0.448
       136 -13.0372    142.9842     29.9931   2.0250506595e+01   4.5677280619e+01    0.5846896    0.3965477 -86.01   0.00229096    1.777    0.437
       137 -14.1362     20.7825    224.0127   9.1699941798e+01   2.5700826201e+01    0.5960971    0.4361823  43.63  0.003742282    1.257    0.204
       138 -12.9492    227.4940    227.0039   5.1626420442e+01  -2.7787418970e+00      0.33488    0.1875442  49.85  0.001739478    3.163    0.684
       139 -13.5319     57.6665     26.6675   4.4129088851e+01   6.5873093986e+01     1.039473    0.3608147  39.84  0.003696111    2.954    0.661
       140 -12.3790     30.5467     25.4941   5.7521946616e+01   7.0080030480e+01    0.3384209    0.2265887  10.44  0.001776759    1.633    0.388
       141 -12.3756     35.4092     23.4657   5.3780040287e+01   6.9852269030e+01    0.2812101    0.2193384 -13.49 0.0009185216    1.207    0.171
       142 -12.3292     40.2499     24.5459   5.1662655171e+01   6.8998743668e+01    0.2393963    0.1495395 -50.11  0.001246251    1.736    0.424
       143 -13.4536     65.8729    223.3004   8.2610724765e+01   2.0770429031e+01    0.7098362    0.5529185  56.56  0.004953139    1.027    0.027
       144 -13.2114     59.4060    212.7792   8.3137188422e+01   2.3561076469e+01    0.3423723    0.2285226 -49.94  0.001411714    2.024    0.506
       145 -13.5449    237.9940    214.6367   4.7928823253e+01  -2.7497735300e+00    0.3866712     0.325035 -50.85  0.002663272    2.191    0.543
       146 -12.9267    248.9252    216.0665   4.6412368901e+01  -4.3143158469e+00    0.2618233    0.2016075   2.24  0.001769712    1.103    0.093
       147 -10.7307    175.8380     13.8194   1.0070322376e+01   3.8912126580e+01    0.1919371    0.1442307 -63.35 0.0002529659    1.293    0.226
       148 -14.0977     64.3510    214.2457   8.2203020458e+01   2.2663000808e+01    0.4990446    0.2978408  49.25  0.002976897    1.346    0.257
       149 -13.0871     72.4869    207.2223   7.9829387226e+01   2.2977520887e+01    0.4301091     0.277134 -85.61  0.002189892    1.711    0.415
       150 -12.1133     57.1984    202.5291   8.2783796908e+01   2.5862968315e+01    0.4045657    0.1869758  81.98  0.001806686    2.892    0.654
       151 -10.9206    198.4993    204.4829   5.3121490953e+01   4.1642284858e+00    0.1241064     0.102351  16.16 0.0002030249    1.034    0.033
       152 -11.9079    185.5564    202.7946   5.5285942925e+01   6.4188534884e+00    0.2227532    0.1182897 -34.23  0.001142641    2.078    0.519
       153 -12.0156     48.5213     19.9602   4.5035089589e+01   6.8519250445e+01    0.5561503    0.2020066  42.59  0.002245151    2.856    0.650
       154 -13.4589    248.3276    196.3762   4.3182770390e+01  -1.9970100869e+00    0.5436502    0.2936882 -37.61  0.003144897    2.081    0.519
       155 -12.4405     17.1342    195.6429   9.1115107426e+01   3.1626069313e+01    0.3053848    0.1763111 -67.79   0.00185787    1.831    0.454
       156 -13.5069     29.8823    169.3851   8.6495102308e+01   3.6090512657e+01    0.8557407    0.7356635  19.33  0.005685995    1.468    0.319
       157 -13.1910     22.1974    180.9028   8.9148687540e+01   3.4278501051e+01    0.4845211    0.3110384 -78.25  0.002239458    1.462    0.316
