#   1 NUMBER                 Running object number                                     
#   2 MAG_AUTO               Kron-like elliptical aperture magnitude                    [mag]
#   3 X_IMAGE                Object position along x                                    [pixel]
#   4 Y_IMAGE                Object position along y                                    [pixel]
#   5 X_WORLD                Barycenter position along world x axis                     [deg]
#   6 Y_WORLD                Barycenter position along world y axis                     [deg]
#   7 A_WORLD                Profile RMS along major axis (world units)                 [deg]
#   8 B_WORLD                Profile RMS along minor axis (world units)                 [deg]
#   9 THETA_WORLD            Position angle (CCW/world-x)                               [deg]
#  10 FWHM_WORLD             FWHM assuming a gaussian core                              [deg]
#  11 ELONGATION             A_IMAGE/B_IMAGE                                           
#  12 ELLIPTICITY            1 - B_IMAGE/A_IMAGE                                       
         1 -14.3117     69.8546    145.6085   7.3261628239e+01   3.6756540517e+01     4.417021     2.313955  76.76  0.006209461    3.508    0.715
         2 -13.7799    245.1464     35.1638   1.3584269844e+01   2.3005506664e+01     1.028444    0.8890408  -9.25  0.002657081    1.596    0.373
         3 -13.3904    223.2997     49.9576   1.8211893888e+01   2.5073252761e+01     1.077465    0.5525981 -44.00  0.003846247    1.451    0.311
         4 -13.1552      3.5596     21.8015   7.5777129912e+01   7.7529923810e+01    0.8966154    0.5884855  28.85  0.004918836    1.560    0.359
         5 -13.3552      4.3124      5.9359   6.4119993106e+01   8.0721780117e+01     1.144838     0.981734  -7.55  0.007493674    1.051    0.049
         6  -9.4327    189.5036     15.0868   1.2068209378e+01   3.5972751085e+01    0.1854585    0.1059238 -34.13 0.0006256081    1.535    0.349
         7  -9.9549     72.0080    248.9925   8.4292461776e+01   1.3572682547e+01    0.2301398    0.1729073 -80.00  0.001549464    1.711    0.416
         8  -9.9912     72.2860    244.6559   8.3902251539e+01   1.4304083443e+01    0.2176976    0.1526439  60.54   0.00098964    1.575    0.365
         9 -11.9878     28.5960    247.8316   9.3945266117e+01   1.8117646991e+01    0.3482657    0.2621105 -88.82   0.00109124    1.547    0.353
        10 -11.0234     33.6126    248.0644   9.2832307049e+01   1.7606523125e+01    0.3554048    0.2523845  83.69  0.001864463    1.593    0.372
        11 -12.6713     48.3826    166.3900   8.3022235707e+01   3.4208214150e+01      0.86296     0.566717 -13.76   0.00166383    2.229    0.551
        12 -12.0778     54.7872    161.8248   8.0471876352e+01   3.4598881396e+01    0.3672595    0.3347411 -13.80 0.0006398269    1.279    0.218
        13 -13.8250     15.4447    188.7652   9.4618862422e+01   3.1953718589e+01     1.041785    0.5757311   9.61 0.0008764513    2.149    0.535
        14 -16.1983     26.5033    180.2888   9.0928624457e+01   3.3027928621e+01     8.077719     3.003569  79.01   0.02451373    3.506    0.715
        15 -15.8925      8.9087    225.7948   9.7722680772e+01   2.4187448908e+01     8.026628     2.306459  14.57   0.01838072    4.952    0.798
        16 -10.1973     48.6681    234.5422   8.8643485752e+01   1.8680209201e+01    0.2169792    0.1671738  48.28 0.0005414491    1.127    0.113
        17 -14.9832      8.4863    208.5983   9.7293323988e+01   2.7923580565e+01     1.610975     1.495754 -50.25  0.007277895    1.383    0.277
        18 -10.6729     62.1164    224.9913   8.4741180923e+01   1.9122803498e+01    0.3354437    0.1825183 -78.04  0.001442085    2.282    0.562
        19 -11.7647     71.4888    191.1476   7.9084275412e+01   2.5262553074e+01    0.5524992    0.2907663  88.69  0.001572209    2.924    0.658
        20 -10.5119     68.8260    185.0725   7.9117033495e+01   2.7015516266e+01    0.3698812    0.2362373  82.59  0.001326882    1.957    0.489
        21 -10.0345    191.7155    192.7590   5.2045508497e+01   8.5588810562e+00    0.4629903    0.2585527 -61.30  0.001642246    6.278    0.841
        22 -10.8739    103.7261    195.7637   7.1257568601e+01   1.9934962553e+01    0.2617328    0.2187487   7.81 0.0002714079    1.207    0.171
        23 -10.0484     81.8079    194.0348   7.6656961610e+01   2.3269189535e+01    0.2248025     0.170888  55.86  0.001227486    1.348    0.258
        24  -9.9170     99.9077    190.3201   7.1466185098e+01   2.1611204223e+01    0.2295555     0.195718 -47.20 0.0005602194    1.274    0.215
        25 -10.1484     99.2839    181.1217   7.0300005588e+01   2.3703669313e+01    0.2602763    0.2153743  24.32 0.0006320822    1.149    0.129
        26  -8.7478    120.4036    180.1992   6.4803675878e+01   2.0765206552e+01    0.1758726    0.1352656 -67.21 0.0004354078    1.579    0.367
        27 -10.4169     76.8506    175.8625   7.5689627968e+01   2.8125685664e+01    0.4506393    0.2469459 -88.52    0.0017576    2.780    0.640
        28 -13.5459     52.1877    149.2253   7.9665415831e+01   3.8269500130e+01    0.7288105    0.5643969   1.34  0.001126726    1.587    0.370
        29 -10.7105     56.3069    244.6547   8.7518967370e+01   1.5988994048e+01    0.3367101    0.1898266 -66.69 0.0005373427    2.164    0.538
        30  -9.1497    110.5098    167.1302   6.5102661180e+01   2.5109505136e+01    0.1979257    0.1425808 -55.15 0.0004617053    1.459    0.315
        31 -12.3871    230.7620    167.0055   4.1414261039e+01   7.5064634157e+00    0.5135678    0.2942033  -5.43  0.002862999    2.240    0.554
        32  -9.0736    174.4629    149.2522   4.7191352911e+01   1.8216874633e+01    0.1824394    0.1187548 -49.49 0.0009202764    1.603    0.376
        33  -9.4300    134.1833    148.5567   5.5626012333e+01   2.5197424073e+01    0.3728957    0.1046169 -51.07   0.00112078    3.822    0.738
        34 -13.4294     46.7250    114.9102   7.6156613536e+01   4.8482238967e+01     1.485654     1.196691 -11.59  0.001227448    1.539    0.350
        35  -9.3690    230.9927    143.4943   3.7076031844e+01   1.0775807702e+01    0.1412033    0.1145842  32.30 0.0004115899    1.508    0.337
        36 -10.9399     81.9474    140.7844   6.8518583337e+01   3.6107474303e+01    0.4158008    0.3548172  84.67  0.001461676    1.242    0.195
        37 -12.4970     78.5923    134.7606   6.8433963098e+01   3.8219117829e+01     0.574464    0.3871364  36.46 0.0006259775    1.454    0.312
        38  -8.4342    179.3480    141.7017   4.4732091034e+01   1.8759433884e+01     0.126359    0.1049172 -76.45  0.000703585    1.682    0.405
        39 -14.2757     12.3417    240.6884   9.7356613950e+01   2.0917300313e+01      0.98208    0.8782344 -89.21  0.005880128    1.361    0.265
        40 -10.7626     93.3813    136.1855   6.4061788862e+01   3.5325171437e+01    0.6300697    0.4110512  -8.80  0.002349843    2.768    0.639
        41 -10.6614    105.5324    129.0655   5.8919607476e+01   3.4851954318e+01    0.4581601    0.3009081 -51.95  0.001380758    1.511    0.338
        42 -11.5588     43.3206    129.9133   8.0025271800e+01   4.4712427485e+01    0.3540492    0.2480082  46.41  0.001655498    1.375    0.273
        43 -12.4950    234.5462    155.7076   3.8868656180e+01   8.6065568250e+00    0.4520208    0.2930546  -0.20  0.002835735    1.817    0.450
        44 -12.2787     66.5674    154.0601   7.5665091485e+01   3.5027955804e+01    0.6428964    0.4389485  78.36  0.000404135    1.717    0.418
        45  -8.8970     92.9712    122.9932   6.1298713078e+01   3.8697697774e+01    0.1955826    0.1742165  44.36 0.0006801379    1.122    0.109
        46  -9.2712    113.4849    122.5209   5.5150168968e+01   3.4865345125e+01     0.275307    0.1499927  29.44  0.001027333    2.356    0.576
        47 -10.9215     33.2248    119.5849   8.2420653545e+01   4.8821323989e+01    0.3484043    0.2531914  48.26 0.0004896986    1.342    0.255
        48  -9.8764    103.7433    117.0813   5.6601318336e+01   3.8074293179e+01     0.242715    0.2151093  46.20 0.0002927775    1.139    0.122
        49 -10.7061     26.9578    113.0913   8.4080646286e+01   5.1338271754e+01     0.365083    0.2312797  53.62 0.0005930783    1.595    0.373
        50 -10.2061    205.2169    110.6413   3.3880571100e+01   1.9609403305e+01    0.2447433    0.2150523  14.56 0.0009363432    1.356    0.263
        51 -11.3726    245.6303    163.6564   3.8831851266e+01   6.2251811143e+00    0.2775577    0.1632468 -32.36  0.001443497    1.296    0.228
        52  -9.7014     30.8926    105.0330   8.1086020833e+01   5.3225089358e+01      0.49966    0.1674485  51.69  0.001423446    3.980    0.749
        53  -8.7648    149.0246     92.5163   3.8805708234e+01   3.3741581378e+01    0.1974917    0.1471553  57.27 -1.830743e-05    1.439    0.305
        54  -9.0404    113.4973     87.9150   4.5764804459e+01   4.2659299744e+01    0.2271749    0.1493317 -49.18 0.0008603544    1.480    0.324
        55  -8.6283    184.4932     77.4594   2.8905456781e+01   2.8771070884e+01    0.1359727    0.1180514 -45.67 9.678919e-05    1.052    0.049
        56 -10.1107     48.8556    246.4185   8.9315608226e+01   1.6424845296e+01     0.209183    0.1730304  58.44 0.0007262715    1.222    0.182
        57 -13.5123    215.4512     54.2495   1.9835595029e+01   2.5980798237e+01     1.310419     1.044059  18.09  0.006420951    1.932    0.482
        58 -10.5474     40.0356    240.2540   9.0989813474e+01   1.8450519640e+01    0.2603934    0.1778459  48.97 0.0007078772    1.225    0.183
        59 -12.7443    231.6811     44.0632   1.6296047688e+01   2.4289790375e+01    0.5041263    0.4351056  47.78  0.001497873    1.647    0.393
        60 -10.4460     81.2805     60.0042   4.6100996412e+01   5.5972634944e+01    0.4661908    0.2964669 -80.08  0.001732425    2.638    0.621
        61 -10.7768     13.3989     60.2897   8.1216968969e+01   6.7309452287e+01    0.2801247    0.2497705 -76.11  0.000402511    1.106    0.096
        62 -10.1023     53.1597     54.6740   5.5721457908e+01   6.3105493731e+01    0.2630458    0.2321299  83.64 0.0008187962    1.263    0.209
        63  -9.5534      2.3103     51.3350   8.6852010631e+01   7.0406844629e+01     0.152118   0.08675878 -41.39 0.0007043771    1.679    0.405
        64 -10.0431     39.0087     42.8887   5.8079091161e+01   6.8263122382e+01    0.2293132    0.2109575 -81.99 0.0003897116    1.217    0.179
        65 -11.0012      3.0051     42.6162   8.4159468578e+01   7.2604364170e+01    0.3168335    0.2367661 -21.45   0.00175052    1.348    0.258
        66 -10.7088     33.0402     38.8568   5.9833885011e+01   7.0127390530e+01    0.6506009    0.3232944  57.97  0.002190379    3.802    0.737
        67 -11.1719     25.5446     33.9934   6.2550889702e+01   7.2324780154e+01    0.3694087    0.2042307  50.45  0.001517396    2.276    0.561
        68 -10.6988     38.0905    235.7196   9.1202665145e+01   1.9515516690e+01    0.2943381    0.1653876  83.76   0.00100127    2.079    0.519
        69  -9.0241    142.5421    239.4976   6.8242265059e+01   7.2866840071e+00    0.1166146   0.09246052  12.75 3.985075e-05    1.017    0.017
        70 -11.7058     14.7956     15.7660   6.0313359095e+01   7.7533804119e+01    0.2398601     0.220325  42.64 0.0004437319    1.232    0.188
        71  -9.1689     60.3239     21.1117   3.5206284699e+01   6.7624480652e+01    0.1888216    0.1777261 -41.76 0.0004983511    1.130    0.115
