#   1 NUMBER                 Running object number                                     
#   2 MAG_AUTO               Kron-like elliptical aperture magnitude                    [mag]
#   3 X_IMAGE                Object position along x                                    [pixel]
#   4 Y_IMAGE                Object position along y                                    [pixel]
#   5 X_WORLD                Barycenter position along world x axis                     [deg]
#   6 Y_WORLD                Barycenter position along world y axis                     [deg]
#   7 A_WORLD                Profile RMS along major axis (world units)                 [deg]
#   8 B_WORLD                Profile RMS along minor axis (world units)                 [deg]
#   9 THETA_WORLD            Position angle (CCW/world-x)                               [deg]
#  10 FWHM_WORLD             FWHM assuming a gaussian core                              [deg]
#  11 ELONGATION             A_IMAGE/B_IMAGE                                           
#  12 ELLIPTICITY            1 - B_IMAGE/A_IMAGE                                       
         1 -11.9307     84.2858     53.6162   1.0331015437e+02   5.5636359097e+01     1.121514    0.5730898 -21.11  0.004143933    3.071    0.674
         2 -13.2826    168.5742     10.1498   6.7181307060e+01   4.1437242585e+01     1.777657      1.42263 -84.51  0.008970177    1.272    0.214
         3 -11.0698    185.6941      2.3365   6.2687574290e+01   3.7638896328e+01    0.9613709     0.191153  66.18   0.00303708    3.602    0.722
         4 -11.6361    199.9236      6.5594   6.2321952540e+01   3.3542424840e+01     1.068859    0.7659254 -81.03   0.00543847    1.348    0.258
         5  -8.1999    111.9914     10.6922   7.7853995387e+01   5.5810015423e+01    0.2181847    0.1506296  37.99 0.0006867498    1.304    0.233
         6 -10.6172    123.6667      4.4776   7.2797986223e+01   5.3552703223e+01    0.9039782    0.6260435  73.90   0.00471922    1.514    0.340
         7  -8.1137     71.8899      5.6226   8.7244433974e+01   6.4864237564e+01    0.1749614    0.1355324  31.36  0.000509642    1.140    0.123
         8  -8.2592    139.0133    199.0101   1.2260687758e+02   1.4890325213e+01    0.1918508    0.1651116  46.79            0    1.018    0.018
         9  -8.7347    132.9847    199.0152   1.2388895500e+02   1.5970122475e+01    0.1909621    0.1633043  51.08  0.001153055    1.008    0.008
        10  -8.6291    223.0054    188.0168   1.0368506520e+02   1.0007192657e+00    0.1938526    0.1577181  18.19  0.001161397    1.048    0.046
        11  -9.0584    100.9961    175.9923   1.2755054586e+02   2.6099534503e+01    0.1912338    0.1684292  66.34            0    1.003    0.003
        12  -7.5715     44.2966    176.3207   1.4049060248e+02   3.3953659645e+01    0.1108273   0.08835212 -49.28  0.000701964    1.617    0.382
        13  -9.0256    195.1504    135.7982   9.7977246481e+01   1.5179630753e+01    0.4091275     0.312726 -64.63  0.001912361    1.745    0.427
        14  -8.7829    185.2254    132.6915   9.9311196274e+01   1.7986955244e+01    0.3156565    0.2573201  21.64 0.0009226131    1.302    0.232
        15  -8.4096    140.2727    127.7507   1.0854929959e+02   2.9070718023e+01    0.2669174    0.2259182 -43.74  0.001041246    1.223    0.182
        16  -9.9744     40.2366    110.4823   1.3315962663e+02   4.9307250618e+01     0.424278    0.4046854 -68.11  0.001991016    1.128    0.113
        17  -7.5528    129.8264    106.8819   1.0599008638e+02   3.5791150507e+01    0.1983422    0.1754812 -80.04            0    1.277    0.217
        18 -12.0183    226.2755     94.9219   8.2147964595e+01   1.5041209989e+01     1.537421     1.048027  61.39  0.007401969    1.597    0.374
        19  -7.8492    181.2856     91.2831   8.9409750641e+01   2.6590846685e+01    0.1549063    0.1214177  18.33  0.000693895    1.523    0.343
        20  -8.1600    127.8967     90.9349   1.0206410799e+02   3.9542149781e+01    0.2208541    0.1977822   3.13            0    1.209    0.173
        21  -8.1310    148.7627     89.6541   9.6282890282e+01   3.4945550810e+01    0.2125835    0.1467544  58.23 0.0002516606    1.527    0.345
        22  -9.1913    191.4664     87.6714   8.6381565181e+01   2.4669457819e+01    0.4552389    0.2590648  73.80  0.001647059    2.606    0.616
        23  -9.3181    176.4674     87.4563   8.9338945407e+01   2.8484188476e+01    0.2848102    0.2786844  67.80 0.0008376726    1.033    0.032
        24 -10.0061    211.4192     91.7386   8.3821119195e+01   1.9065291691e+01    0.6419277    0.3233298 -46.33    0.0021972    2.118    0.528
        25  -7.6926    135.6698     87.3057   9.8916331405e+01   3.8502955412e+01    0.1577427      0.12598 -86.42 0.0004122721    1.658    0.397
        26  -8.1302     53.0428     84.7752   1.2381591137e+02   5.3819386864e+01    0.1608571    0.1099861  29.65 0.0005195651    1.640    0.390
        27  -7.3976     41.5969     94.8487   1.2987930758e+02   5.2775879003e+01    0.1734856     0.111459 -74.53 0.0006247028    1.571    0.363
        28  -8.3972    104.6247     82.5326   1.0626391725e+02   4.6168504620e+01    0.2687601    0.1392623  53.84  0.001027727    2.375    0.579
        29  -7.5782     31.3550     84.2835   1.3119822055e+02   5.6114389355e+01    0.1288279   0.08125421 -35.55 0.0006137732    1.665    0.399
        30  -7.8690      9.7474     82.7027   1.3830100592e+02   5.7988932844e+01    0.1373515    0.1033648  30.00 0.0009224386    1.633    0.388
        31  -7.3459    245.2897     92.3010   7.8616258134e+01   1.1189604273e+01    0.1368443    0.1062828  10.91 0.0002869461    1.563    0.360
        32  -8.3032    186.2944     92.3581   8.8686747969e+01   2.5147637596e+01    0.1621607    0.1221267  12.78 0.0003090077    1.697    0.411
        33  -9.4618    169.9331     77.7730   8.7922186337e+01   3.1847681715e+01    0.5019315    0.2149253 -49.96  0.001607432    3.043    0.671
        34  -8.8727     45.8767     78.6744   1.2484085738e+02   5.5975977912e+01     0.242096    0.1243758  16.20  0.001104741    2.627    0.619
        35  -9.1281    216.1610     77.1938   7.9224968522e+01   2.0245943083e+01    0.2206587    0.2022952   8.25 0.0008060607    1.194    0.162
        36  -7.4008     37.0065     77.4986   1.2773791275e+02   5.7122243226e+01    0.1623534    0.1263644  16.40 0.0006811863    1.497    0.332
        37 -10.6223    237.2384     75.2067   7.5593077781e+01   1.5543629354e+01    0.4373587    0.3192748 -88.24  0.002195156    1.684    0.406
        38  -9.5553    220.6372     75.7457   7.8147810976e+01   1.9381277209e+01    0.3770109    0.1817785  51.46  0.001211793    2.097    0.523
        39 -11.1870    131.8534     73.2256   9.5588053478e+01   4.2086873299e+01    0.6497667    0.4067257  57.76  0.002760083    1.736    0.424
        40  -9.4860    122.2893     74.8687   9.8717426056e+01   4.3969687997e+01    0.2700399    0.2252421  11.23 0.0007347725    1.330    0.248
        41 -10.2905    122.2214     66.9406   9.6161484859e+01   4.5462652824e+01    0.4833348    0.3097695 -15.77  0.001902898    2.072    0.517
        42 -10.7334     59.8406     67.8854   1.1684305975e+02   5.6637948396e+01    0.4200948    0.2897254  -8.27  0.001816729    1.825    0.452
        43  -8.1978    246.6391     74.1902   7.4087568577e+01   1.3568165360e+01    0.1920441    0.1256473 -21.09 0.0004447744    1.661    0.398
        44 -10.7468     79.7800     68.6032   1.0996726817e+02   5.3530610889e+01    0.4385562    0.2298745  41.41  0.001951005    2.031    0.508
        45 -10.8328     16.1752     66.0795   1.3291161706e+02   6.1241105510e+01    0.5981793    0.3721395 -88.44  0.003326167    2.081    0.519
        46  -9.7042      7.2219     67.1660   1.3650429206e+02   6.1519712362e+01    0.4130949    0.2895702 -68.44  0.002754759    1.206    0.171
        47  -8.8115     39.6342     71.0107   1.2520572160e+02   5.8289919422e+01     0.207561    0.1809088  16.39 0.0004432857    1.305    0.233
        48  -9.5548     12.1849     70.5928   1.3531861576e+02   6.0507254905e+01    0.3437272    0.2361701 -39.68  0.002078856    1.360    0.265
        49  -8.8797    242.9290     69.3222   7.3391458502e+01   1.5101486203e+01    0.2493912    0.1931735 -27.65 0.0006108474    1.278    0.218
        50  -9.9534    232.2015     68.9274   7.4723500006e+01   1.7639286160e+01     0.307489    0.2570112 -61.17  0.000687635    1.207    0.171
        51 -10.6441    232.5959     64.8505   7.3645973509e+01   1.8137778643e+01    0.4828766    0.2662565  53.39  0.002186662    1.875    0.467
        52 -10.3215    182.4904     66.3765   8.2050276821e+01   3.0498255604e+01    0.4555323    0.3711296  55.29  0.002262456    1.190    0.159
        53 -11.1271    139.0585     65.6962   9.1303553220e+01   4.1709463185e+01     0.650678    0.2951728 -35.43  0.002407925    2.266    0.559
        54  -9.4917    130.1409     67.3085   9.4129745801e+01   4.3565323295e+01    0.3253414    0.1247191  44.39  0.001091037    2.595    0.615
        55  -9.7721     61.8626     71.3935   1.1714234916e+02   5.5631473363e+01    0.2321368    0.1744442 -23.30   0.00101025    1.400    0.286
        56  -7.2627     38.3154     67.2515   1.2473313169e+02   5.9226942251e+01    0.1246307    0.0841422 -28.71 0.0001845615    1.525    0.344
        57 -11.0406    152.3991     67.6870   8.8734418013e+01   3.8048746153e+01    0.6722869    0.4382533 -29.09  0.002929962    1.639    0.390
        58  -9.0313    101.2511     65.1264   1.0175283686e+02   5.0286403923e+01    0.3769965    0.1974238 -37.77  0.001375306    1.897    0.473
        59  -8.3341    193.1261     64.6635   7.9632148445e+01   2.8004453363e+01    0.3433193    0.1574459  38.89  0.001152679    2.938    0.660
        60 -10.2218    145.0372     63.2918   8.9059475386e+01   4.0642405756e+01    0.3617815    0.2324132 -32.43  0.001581159    1.619    0.382
        61  -8.6440    213.1815     63.1582   7.5968326592e+01   2.3115985561e+01    0.2138564    0.1982478  13.71  0.000562046    1.205    0.170
        62 -10.5479    219.9383     59.9301   7.4127663156e+01   2.1906606891e+01    0.5265909    0.3253637  21.06  0.002043684    2.706    0.630
        63  -8.8757    249.7773    241.4170   1.0834137381e+02  -9.8040197951e+00    0.3228529    0.1832727  -5.83  0.001951877    1.889    0.471
        64 -10.1519     71.8492     61.6521   1.1049976538e+02   5.6187640778e+01    0.3004692    0.1976177 -21.00 0.0009517642    1.762    0.432
        65  -7.5973    108.7245     60.9989   9.8051894682e+01   4.9505148497e+01    0.1775993    0.1283565 -35.14 0.0004066366    1.381    0.276
        66 -10.8612     72.9680     72.6807   1.1359084012e+02   5.3771138331e+01    0.5214752    0.2765104 -61.11  0.002162628    2.443    0.591
        67 -11.1252     60.0972     62.7771   1.1518334880e+02   5.7657788558e+01    0.4999782    0.2976318  48.01  0.002431053    2.184    0.542
        68  -9.8237    240.4155     59.1199   7.1220835529e+01   1.7118885143e+01    0.3360517    0.1516163  58.88  0.001424897    2.247    0.555
        69 -10.2073     33.9130     57.9030   1.2391436235e+02   6.1609036726e+01     0.370827    0.1505586  21.65  0.001683735    2.958    0.662
        70  -9.0566    176.5717     56.7719   8.0306385934e+01   3.3535291208e+01    0.2192735    0.1394176 -43.70 0.0006307359    1.639    0.390
        71  -8.1658    216.1440     56.1578   7.3671098967e+01   2.3388699341e+01    0.1996175    0.1630692 -74.59 0.0004395551    1.279    0.218
        72  -8.2136    212.4750     56.0834   7.4177572456e+01   2.4320905558e+01    0.2161772    0.1418987 -32.16 0.0005499225    1.527    0.345
        73  -7.4458    170.2208     56.4511   8.1424064386e+01   3.5253126063e+01    0.2092043    0.1471381  75.38 0.0006668548    1.594    0.373
        74 -10.1630     66.1576     74.3253   1.1646263246e+02   5.4419820614e+01    0.3789769    0.1644526 -50.02  0.001598326    2.083    0.520
        75  -8.2732      6.4866     56.4437   1.3463967897e+02   6.3836306907e+01    0.1157628    0.0901252 -53.78 3.543418e-05    1.014    0.014
        76  -9.2099    186.2630     54.9011   7.8004115965e+01   3.1264759906e+01    0.2644894    0.2002327  76.27 0.0006756661    1.384    0.277
        77  -9.2668     28.9916     54.6053   1.2498754241e+02   6.2721516631e+01    0.2974615   0.09885304 -44.41  0.001282717    2.478    0.596
        78 -10.5805    149.9944     57.9103   8.6154654071e+01   4.0272640210e+01    0.5973729    0.3221854  54.86  0.002421541    1.768    0.434
        79  -9.6535    150.8594     50.6686   8.3586805399e+01   4.1172049021e+01    0.3956924     0.198053  42.75  0.001520109    2.060    0.515
        80 -11.1090    144.5172     50.2260   8.4860054757e+01   4.2859852851e+01     0.621499    0.3912711  58.31  0.002750933    1.550    0.355
        81  -9.4949    207.5919     50.3260   7.3326705026e+01   2.6372437799e+01    0.4522493    0.3342443  52.03  0.002101998    1.372    0.271
        82 -10.4812     62.8825     51.7539   1.1045090003e+02   5.9440323310e+01    0.5671428    0.1700823  45.09  0.001792662    4.965    0.799
        83  -9.2690    172.4052     49.5134   7.8867247734e+01   3.5703285498e+01     0.415639    0.2720253  14.03 -5.119154e-05    2.252    0.556
        84 -10.2569     75.9386     46.7754   1.0373885715e+02   5.8309349219e+01    0.4637123    0.1836224 -40.40            0    2.409    0.585
        85  -8.3967     26.4784     50.4813   1.2485669856e+02   6.3770557898e+01     0.122143    0.0989094 -41.24 0.0003060712    1.014    0.013
        86  -9.2801    237.1381     48.4591   6.8998202507e+01   1.9337045518e+01    0.2425818    0.1522071 -38.81  0.001207544    1.477    0.323
        87  -9.4053    181.0700     52.4802   7.8196834371e+01   3.2985496939e+01    0.3598726    0.1236502  54.44  0.001204065    2.619    0.618
        88  -9.6213    178.3264     48.8372   7.7586896014e+01   3.4233430749e+01    0.3149182    0.1723288  39.02  0.001235864    2.148    0.534
        89  -8.7479    107.7945     47.3972   9.3460055135e+01   5.2023036021e+01    0.2161415     0.127431  38.78 0.0009578864    1.677    0.404
        90  -9.3216     45.9829     46.9525   1.1552047949e+02   6.2549300244e+01    0.1804645    0.1598764  84.90 0.0007618443    1.658    0.397
        91  -8.8363    203.6548     45.3350   7.2522501975e+01   2.8068403261e+01    0.5251151    0.2709087  61.95  0.001812313    1.842    0.457
        92 -10.0256    206.5990     36.9429   6.9807738635e+01   2.8406781995e+01    0.5095588    0.4380809  -1.96  0.002577163    1.395    0.283
        93  -9.5620    199.6852     28.4037   6.8358619427e+01   3.1249864433e+01    0.4730051    0.3761092 -76.90  0.002536436    1.262    0.208
        94 -10.5643    198.3126     38.1081   7.1266999669e+01   3.0409291007e+01    0.8438424    0.4437118 -44.14  0.003022935    1.924    0.480
        95 -10.0748    193.8547     30.1033   6.9618556334e+01   3.2574555378e+01    0.5376937    0.4814449 -33.64    0.0025931    1.195    0.163
        96  -8.9725    125.9513     45.7116   8.7808978396e+01   4.8128359316e+01    0.2634201    0.2465701 -56.14 0.0006501842    1.212    0.175
        97  -9.5008    130.0128     42.9433   8.5788239147e+01   4.7554877530e+01    0.3795811    0.2303825 -30.26  0.001336519    1.719    0.418
        98  -8.1225    113.2386     44.0851   9.0652369461e+01   5.1335354575e+01    0.3232172    0.1265963 -25.17  0.001063567    3.323    0.699
        99  -9.5417     70.8126     44.1294   1.0462427637e+02   5.9618990999e+01    0.1973514    0.1868578 -50.30 0.0008756128    1.315    0.239
       100  -8.7484    190.9135     42.7923   7.3705638616e+01   3.1738121961e+01    0.3374211    0.2624871  57.37  0.001717264    1.233    0.189
       101  -8.6400    178.5123     43.5077   7.5938932683e+01   3.4923982593e+01     0.150185    0.1415734  77.56 8.527911e-05    1.022    0.022
       102  -8.1025    155.7597     42.2016   7.9758815805e+01   4.1117058871e+01    0.2168902    0.2016125 -76.74 0.0006583185    1.156    0.135
       103 -10.4986     96.8646     53.1014   9.8934099337e+01   5.3346667631e+01    0.6484016    0.4645866  62.64  0.003125722    1.856    0.461
       104 -10.1138    151.9098     37.9035   7.9108442988e+01   4.2702970180e+01    0.4710913    0.3017013  60.44  0.002154648    1.468    0.319
       105  -9.3234    133.9804     39.5112   8.3600746577e+01   4.7063191340e+01    0.2306783    0.1402746  56.35 0.0004346943    1.560    0.359
       106  -9.0257     28.5577     38.5016   1.2015380573e+02   6.5945001932e+01    0.2244779    0.1152996  22.15  0.001214317    2.176    0.540
       107 -10.2253     90.4325     56.8992   1.0240163634e+02   5.3912027893e+01    0.6984329    0.2557859  43.75  0.001589907    2.791    0.642
       108  -8.6598    152.7570     32.2246   7.7029093824e+01   4.3210625707e+01    0.3800842    0.2272248 -59.14  0.001565777    2.272    0.560
       109  -8.6150     77.4692     29.4474   9.6205884402e+01   6.0836854121e+01    0.2572805    0.1955896  -4.34 0.0007056294    1.274    0.215
       110  -7.7037      6.9644     30.0128   1.2753271304e+02   6.9109561582e+01    0.1380078    0.1007324 -42.92 0.0009700583    1.039    0.038
       111  -8.8785     69.7024     26.7400   9.7901782698e+01   6.2598546044e+01    0.2252524    0.1715664   0.79 0.0004716418    1.242    0.195
       112  -7.4543    138.6877     26.3030   7.7819718212e+01   4.7567351297e+01    0.1438567    0.1118181 -70.96 0.0003142153    1.612    0.380
       113  -9.0087     13.2452    242.4559   1.5060648742e+02   2.4569576497e+01    0.1996651    0.1536207   9.24 0.0008544775    2.799    0.643
       114  -8.1811     55.9606    219.9993   1.4190734729e+02   2.3765739450e+01    0.2135109    0.1353166 -89.21  0.001380351    1.488    0.328
       115  -7.4518     18.0569     21.0009   1.1870475617e+02   7.0006174422e+01    0.1304556    0.1012234 -23.66            0    1.050    0.048
       116  -8.7992     56.0873    215.5397   1.4153016248e+02   2.4588007868e+01    0.2337741    0.1437666 -84.43  0.001392044    1.561    0.360
       117  -7.5694     74.6581     20.6762   9.3364548168e+01   6.2568882257e+01    0.1413816   0.09023322  12.75 0.0007050823    1.730    0.422
       118  -7.7314     14.8080     18.0033   1.1917962087e+02   7.0775435611e+01    0.1505141    0.1110217 -32.00  0.001057294    1.042    0.040
       119  -8.7213    187.8316     16.5408   6.6518202198e+01   3.5693890542e+01    0.2527564    0.2029092  28.75 0.0006662401    1.471    0.320
       120  -7.7915    100.8591    214.8635   1.3265079061e+02   1.8394906716e+01    0.1664294    0.1177445  62.44  0.001000713    1.256    0.204
       121 -10.2910    124.0062    206.0079   1.2678433674e+02   1.6244559671e+01    0.1888945     0.157385  53.26  0.001164716    1.010    0.010
