#   1 NUMBER                 Running object number                                     
#   2 MAG_AUTO               Kron-like elliptical aperture magnitude                    [mag]
#   3 X_IMAGE                Object position along x                                    [pixel]
#   4 Y_IMAGE                Object position along y                                    [pixel]
#   5 X_WORLD                Barycenter position along world x axis                     [deg]
#   6 Y_WORLD                Barycenter position along world y axis                     [deg]
#   7 A_WORLD                Profile RMS along major axis (world units)                 [deg]
#   8 B_WORLD                Profile RMS along minor axis (world units)                 [deg]
#   9 THETA_WORLD            Position angle (CCW/world-x)                               [deg]
#  10 FWHM_WORLD             FWHM assuming a gaussian core                              [deg]
#  11 ELONGATION             A_IMAGE/B_IMAGE                                           
#  12 ELLIPTICITY            1 - B_IMAGE/A_IMAGE                                       
         1 -14.4636    192.5246     14.9248   7.0449942670e+01   3.5017925511e+01     2.097364     1.766569  18.02   0.00763561    1.354    0.262
         2 -11.8528     32.9792      6.6573   1.0791880727e+02   7.0015374140e+01    0.5363247    0.1288592 -38.05   0.00211542    3.476    0.712
         3 -14.1415    199.1525      7.2469   6.7391901867e+01   3.4069272870e+01     3.587949      1.78963  22.69  0.002015593    3.558    0.719
         4 -11.7120     95.7903    240.7611   1.3969911220e+02   1.5397862041e+01    0.3791929    0.2499852 -45.09  0.001550472    2.478    0.596
         5 -11.8743    140.6122    249.8895   1.3318246566e+02   7.4308999880e+00    0.5155967    0.1394601  43.53  0.002280322    2.810    0.644
         6 -11.8501    138.1988    244.7040   1.3302620543e+02   8.5144275736e+00    0.3045068    0.1827941  53.92  0.001952948    1.373    0.272
         7 -11.5450    125.4992    250.0174   1.3567751060e+02   9.7014565750e+00    0.3860274     0.122712  44.28  0.001881427    2.379    0.580
         8 -11.5245     98.8469    249.1935   1.3992907812e+02   1.3686758694e+01    0.3493083    0.1892051  54.70  0.001604203    1.406    0.289
         9 -11.8244    102.8681    248.1310   1.3918842788e+02   1.3276874224e+01    0.3052844     0.222709  59.60  0.001131903    1.027    0.026
        10 -12.1689     81.2229    248.5127   1.4268572010e+02   1.6196203164e+01    0.5854039    0.2706132  55.40  0.002790806    1.660    0.398
        11 -10.7294     88.9708    249.4940   1.4153321126e+02   1.5006080395e+01    0.2555857    0.2188034 -70.10  0.001691232    1.544    0.352
        12 -11.5860     84.3041    245.0128   1.4192393066e+02   1.6322021381e+01    0.4886841    0.1983252  66.55  0.002356664    3.176    0.685
        13 -11.5137     65.9085    249.7703   1.4516776612e+02   1.7979840272e+01    0.4224697    0.2102752  39.75  0.002667492    2.002    0.500
        14 -11.9811     69.1339    244.3867   1.4429355400e+02   1.8410587831e+01     0.341686    0.2275134  56.04  0.002009533    1.145    0.127
        15 -10.0388     56.5517    250.1952   1.4662746369e+02   1.9065827739e+01    0.1826289    0.1066179  52.33 0.0006891983    1.301    0.232
        16 -13.8321     33.5436    246.6547   1.4987822403e+02   2.2270208110e+01     1.294647     0.829358  46.35   0.01029419    1.521    0.343
        17 -15.5928     12.1604    240.1288   1.5270881624e+02   2.5535500034e+01     6.875348    0.8351389 -67.35   0.01561973    6.492    0.846
        18 -14.2015      9.6592    207.4147   1.5158807453e+02   3.1367341082e+01     1.370792     1.166696 -32.03  0.008847926    2.299    0.565
        19 -15.9076      2.4086    140.3787   1.4870907677e+02   4.5180747533e+01     15.64883          nan -74.13   0.03411209   12.357    0.919
        20 -15.5071     59.7951    217.9590   1.4385900293e+02   2.4008442331e+01     6.630517    0.9065696  44.12   0.02548014    4.384    0.772
        21 -10.2337    198.5924    246.7890   1.2322544960e+02  -1.2727431306e+00    0.1302039    0.1089602 -52.74 0.0009594837    1.737    0.424
        22 -11.7218    173.7738    222.0792   1.2404174232e+02   5.8996387936e+00    0.3679385    0.3128494  58.77  0.001598648    1.242    0.195
        23 -10.0239    186.1983    239.1848   1.2426399880e+02   1.5949562366e+00    0.1487438    0.1201629  54.93 0.0003733236    1.325    0.245
        24  -9.2725    152.7063    212.9036   1.2655035318e+02   1.0859343118e+01     0.159422    0.1410927  58.63 0.0003640213    1.101    0.092
        25  -9.7006    229.1387    229.2252   1.1563478409e+02  -4.1487483045e+00    0.2378396    0.1487862 -49.09  0.001362383    2.711    0.631
        26 -11.1476     35.3979    206.3921   1.4720868811e+02   2.8955768241e+01    0.3698785    0.1571257  58.51  0.002155553    1.971    0.493
        27 -10.8935    193.1687    195.1105   1.1626761366e+02   6.3562223103e+00    0.7504735     0.375642 -61.83  0.002182172    7.531    0.867
        28 -11.6553     74.0704    196.7730   1.3938076041e+02   2.6046272954e+01    0.3406633    0.2234085 -49.49  0.001445069    2.072    0.517
        29 -11.7675     78.5624    189.5349   1.3774439301e+02   2.6825615648e+01    0.2622734    0.2210595 -57.89 0.0007543175    1.463    0.316
        30  -8.5551    110.2617    197.3101   1.3248554069e+02   2.0598165574e+01    0.1057458   0.09849347  -8.97 0.0002931834    1.531    0.347
        31  -9.2366     65.9969    194.5327   1.4068824647e+02   2.7547153130e+01    0.1747727    0.1569319 -32.52  0.001151259    1.777    0.437
        32 -11.2626     86.5288    177.2836   1.3467629768e+02   2.8122436432e+01     0.235753    0.2000951 -87.76 0.0004023227    1.095    0.086
        33 -13.3766     74.4988    174.7971   1.3685841370e+02   3.0339941086e+01    0.4320451    0.2709551 -44.72  0.001800369    2.231    0.552
        34 -13.8481     47.0760    129.4947   1.3712167406e+02   4.3563237481e+01     1.181073    0.5126777  42.61  0.005658633    2.416    0.586
        35 -13.1663     91.6804    167.8053   1.3230856598e+02   2.9294359271e+01     3.040704    0.6948006  50.05  0.003763733    5.280    0.811
        36 -13.5630     67.3837    144.1370   1.3434770514e+02   3.7848035845e+01     1.184508    0.7490982  64.47   0.00376186    1.673    0.402
        37  -9.6176    106.2131    147.2052   1.2575320817e+02   3.1314998319e+01    0.3302655    0.2225178 -30.81  0.001558194    2.226    0.551
        38 -12.2360     92.8690    151.0345   1.2949063123e+02   3.2664524534e+01    0.2557928    0.2476822 -49.16 0.0005065651    1.255    0.203
        39  -9.8044    134.0000    144.9508   1.1894065422e+02   2.6734176213e+01    0.3832893    0.0807151 -48.93  0.001042753    4.857    0.794
        40  -8.4892    192.2258    143.9980   1.0632363873e+02   1.4840666603e+01     0.174078    0.1194452 -36.43  0.000354549    1.499    0.333
        41 -13.3465     58.3540    131.9048   1.3468847683e+02   4.1717524347e+01      2.05084    0.6597458 -74.68  0.005521321    6.512    0.846
        42 -10.1071    113.0983    136.6763   1.2213686443e+02   3.2384956011e+01    0.3234037    0.2595928 -13.72  0.001130007    1.785    0.440
        43 -10.5304    103.5831    151.5975   1.2712905579e+02   3.0815924485e+01    0.2990751    0.2551798  52.35 0.0009122397    1.168    0.144
        44 -11.3852     70.6025    135.0925   1.3217743780e+02   3.9429620365e+01    0.4101641     0.200014  45.15   0.00196441    2.116    0.527
        45 -10.7684    101.0026    134.0061   1.2453066976e+02   3.5065970240e+01    0.2796558    0.2353405 -30.98 0.0005457041    1.463    0.316
        46  -8.8437    118.3018    129.3552   1.1936759120e+02   3.3016285057e+01    0.1432859    0.1145818 -16.10 0.0005127374    1.708    0.414
        47  -9.6049    109.3037    123.8681   1.2039819255e+02   3.5855756160e+01    0.2120017    0.1841169  66.41  0.000315764    1.175    0.149
        48 -11.3102     32.0276    115.3825   1.3893377036e+02   4.8243582635e+01    0.2563747    0.1757975 -87.88  0.001581424    1.345    0.257
        49 -10.8753    168.3380    113.3752   1.0392624842e+02   2.5794480791e+01    0.4233643    0.3227124 -79.31  0.001375917    1.794    0.443
        50 -10.6185    132.1289    173.3423   1.2456093373e+02   2.1408993849e+01    0.2754014    0.1183804  37.21  0.001098957    2.557    0.609
        51 -12.9984     51.8733    230.9490   1.4612171490e+02   2.2735900131e+01      0.39104    0.2846512 -68.46  0.001056163    1.643    0.391
        52 -11.8502     49.5859    154.1729   1.3973057785e+02   3.7845926247e+01    0.4435418    0.1835668 -69.01  0.002157856    2.108    0.526
        53  -9.5296    153.6431     75.2112   9.6448305062e+01   3.6441579708e+01    0.2202488    0.1454228 -25.81 0.0006407056    1.635    0.388
        54 -11.1597    243.3045    249.1531   1.1638644968e+02  -8.2812486168e+00    0.2158294    0.1180244  23.40  0.001369836    1.583    0.368
        55 -10.3398    163.0172    249.3336   1.2941940603e+02   4.0250550738e+00    0.1701647    0.1164409  45.27  0.001170343    1.107    0.096
