#   1 NUMBER                 Running object number                                     
#   2 MAG_AUTO               Kron-like elliptical aperture magnitude                    [mag]
#   3 X_IMAGE                Object position along x                                    [pixel]
#   4 Y_IMAGE                Object position along y                                    [pixel]
#   5 X_WORLD                Barycenter position along world x axis                     [deg]
#   6 Y_WORLD                Barycenter position along world y axis                     [deg]
#   7 A_WORLD                Profile RMS along major axis (world units)                 [deg]
#   8 B_WORLD                Profile RMS along minor axis (world units)                 [deg]
#   9 THETA_WORLD            Position angle (CCW/world-x)                               [deg]
#  10 FWHM_WORLD             FWHM assuming a gaussian core                              [deg]
#  11 ELONGATION             A_IMAGE/B_IMAGE                                           
#  12 ELLIPTICITY            1 - B_IMAGE/A_IMAGE                                       
         1 -14.0440      2.7113      9.0869   2.9197693741e+02   7.6623173781e+00    0.1655302   0.08116732 -62.38   0.01474783    2.115    0.527
         2 -14.2325    198.2767     17.0644   2.8957509740e+02   6.4527319203e+00    0.0995639   0.07441771 -11.12  0.008982509    1.523    0.344
         3 -13.7797    203.1774      9.8757   2.8947472209e+02   6.5079679054e+00   0.07199959    0.0438958 -12.00  0.001447992    2.231    0.552
         4 -13.8369    190.8911     22.1679   2.8969509978e+02   6.4359348563e+00    0.1086957   0.04093918 -50.93   0.00809269    2.686    0.628
         5 -10.4118     83.7995    242.1790   2.9222508298e+02   4.4905408048e+00   0.02245339   0.01308855 -15.44  0.001912372    2.449    0.592
         6 -10.1370    209.2062    250.4052   2.9070762265e+02   3.6790143099e+00   0.01540499  0.004859742  32.60  0.001124568    2.666    0.625
         7 -10.2133    205.0109    249.9674   2.9075745622e+02   3.7080955887e+00  0.009789449  0.007983218 -19.11  0.001083186    1.332    0.249
         8  -9.6940    184.0030    250.5148   2.9102189035e+02   3.8218370472e+00    0.0104759  0.006452247  23.03 0.0003797933    1.540    0.351
         9 -10.2225    152.6389    243.7720   2.9137594429e+02   4.0794265547e+00    0.0142735   0.01345604 -81.84  0.001722301    1.146    0.127
        10  -9.2969    150.9511    239.3033   2.9137279422e+02   4.1410359808e+00   0.01018445  0.009367562 -67.82 0.0006584008    1.165    0.141
        11 -11.0154    143.6509    244.8724   2.9149384857e+02   4.1179441082e+00    0.0246782  0.008605499  27.83  0.001599477    2.531    0.605
        12 -11.4263    146.1101    240.6927   2.9144061258e+02   4.1525182238e+00   0.01733635   0.01230896  38.52 0.0004395002    1.339    0.253
        13 -10.8153    143.6605    249.1885   2.9151706574e+02   4.0676896428e+00    0.0143252    0.0125603  50.50 0.0009379517    1.163    0.140
        14 -11.6152    150.1611    248.0691   2.9143004699e+02   4.0435992101e+00   0.02634389   0.01592719  23.93  0.002171978    1.558    0.358
        15 -11.1218    133.9583    249.5809   2.9164004065e+02   4.1184973599e+00   0.02715117   0.01195982  38.58  0.002282663    2.111    0.526
        16 -12.2058     95.8606    238.0113   2.9205225955e+02   4.4703278904e+00   0.05027336   0.02783296  68.49  0.004099207    2.797    0.642
        17 -12.3321    111.2610    248.2689   2.9191572789e+02   4.2632145034e+00   0.05839666   0.02129856  29.52  0.004565311    2.391    0.582
        18 -11.0695    124.4976    249.6721   2.9175838985e+02   4.1714094335e+00   0.03296358    0.0131804  17.52  0.002432183    2.848    0.649
        19 -12.5476    125.3116    241.9002   2.9170625393e+02   4.2571722652e+00   0.03900954   0.02542449 -26.03  0.003775774    1.864    0.464
        20 -10.6848    104.4989    238.0037   2.9194455598e+02   4.4211855094e+00   0.01946152   0.01207857   6.14  0.001169657    1.853    0.460
        21 -12.4030    109.9413    230.2075   2.9183460872e+02   4.4808612042e+00   0.04391532   0.02048457  26.99  0.002997684    1.958    0.489
        22 -11.2768     98.4676    231.3408   2.9198374482e+02   4.5330816842e+00   0.02307217   0.01762617  83.08  0.001790007    1.567    0.362
        23 -10.6705    110.4491    222.3745   2.9178594657e+02   4.5690945956e+00   0.01757732   0.01427192  12.38 0.0008727836    1.216    0.178
        24 -10.6119    104.9659    218.9610   2.9183585035e+02   4.6400744918e+00   0.01534435   0.01109104  54.84  0.000308559    1.506    0.336
        25  -9.7344     93.7066    217.1817   2.9196661219e+02   4.7249566532e+00   0.01465547   0.01016259 -86.49  0.001475217    1.770    0.435
        26 -10.9247     92.6836    226.1392   2.9202775348e+02   4.6265630371e+00   0.02533618   0.01257054  39.43   0.00099997    1.906    0.475
        27 -11.9551     99.2688    223.1650   2.9192959267e+02   4.6236399712e+00   0.02949304   0.02094267  16.27 0.0009557186    1.392    0.281
        28 -11.1465     81.2887    246.5315   2.9227985783e+02   4.4541944295e+00   0.02505184   0.01719975  86.19  0.002168019    1.859    0.462
        29 -10.8568     87.8192    250.4723   2.9221972862e+02   4.3711547191e+00   0.02928162   0.01279482  18.92  0.001910551    2.412    0.585
        30 -10.9204     88.5581    247.2764   2.9219327817e+02   4.4041304837e+00   0.01632923  0.008855049  15.16  0.001380088    1.970    0.492
        31 -10.9924     90.4401    236.4140   2.9211119904e+02   4.5197952837e+00   0.01785851   0.01444015  71.65  0.001871527    1.412    0.292
        32  -9.9393     83.2699    238.3658   2.9221110851e+02   4.5379239711e+00   0.01774753   0.00949153  28.01  0.001240505    1.709    0.415
        33  -9.4510     86.3090    237.2754   2.9216734185e+02   4.5333035558e+00    0.0124429  0.009508722 -13.71 0.0002610878    1.470    0.320
        34  -9.5978     74.7781    250.6010   2.9238294562e+02   4.4439065460e+00   0.01373925  0.006529081  19.61  0.001146098    2.140    0.533
        35 -13.4031     45.4915    247.1269   2.9272925440e+02   4.6509099343e+00   0.06312691   0.04338476  12.95  0.004248945    1.489    0.329
        36 -13.1545     47.0859    228.4385   2.9260868577e+02   4.8593277920e+00   0.03292769   0.02405961 -12.08  0.001040732    1.579    0.367
        37 -15.0572     55.6975    216.2646   2.9243564797e+02   4.9520318408e+00    0.1629772    0.1368127 -64.37   0.01881563    1.269    0.212
        38 -10.3673    115.8152    240.1377   2.9181505938e+02   4.3318409579e+00   0.01258819   0.01096489  58.48 0.0009985905    1.214    0.176
        39 -11.2872     99.2442    247.5214   2.9206143062e+02   4.3404027857e+00   0.02945271   0.01663082  57.92   0.00258921    2.250    0.556
        40 -11.2517    121.6801    232.9554   2.9170316019e+02   4.3819427145e+00   0.01623215   0.01500212  12.23 0.0005665401    1.047    0.045
        41 -10.0711    108.1540    242.4308   2.9192291534e+02   4.3488460831e+00   0.01412535  0.009468023 -74.62  0.001422112    1.702    0.413
        42 -12.8527     42.1466    236.9333   2.9271604693e+02   4.7885454362e+00   0.03396262   0.01975599  32.05 0.0009606672    1.570    0.363
        43 -13.4826     20.0113    232.6660   2.9296906407e+02   4.9639293316e+00   0.05257419   0.04302766 -61.42   0.00380239    1.292    0.226
        44 -11.3023    141.9475    230.1894   2.9143565533e+02   4.2984497673e+00   0.02277165   0.01316133 -52.06  0.001886446    1.781    0.438
        45 -10.4106    181.0453    229.9901   2.9094757082e+02   4.0773864317e+00   0.01312225  0.009839033 -79.65  0.001193984    1.528    0.346
        46 -10.8748     84.6093    230.1245   2.9214993114e+02   4.6261892368e+00   0.01638601   0.01333629 -22.29  0.000926552    1.334    0.251
        47 -10.3545     73.8123    230.9817   2.9228916325e+02   4.6776935783e+00   0.02631347   0.01275367  10.81   0.00208629    2.579    0.612
        48 -10.1814     79.4873    229.0529   2.9220800258e+02   4.6678268776e+00   0.01031295  0.008289809  80.56 0.0008004232    1.446    0.308
        49 -11.3273    165.5067    227.3097   2.9112657447e+02   4.1973714674e+00   0.01994312   0.01337737  89.75  0.001313887    1.910    0.476
        50  -9.4199    150.7942    229.8785   2.9132375441e+02   4.2515475127e+00   0.01447498  0.007069016  45.58  0.001228752    2.147    0.534
        51 -10.0708    190.8959    228.0862   2.9081459964e+02   4.0431948882e+00   0.01004497  0.009349916  30.41 0.0003002112    1.025    0.024
        52 -11.0713    156.7996    231.5919   2.9125821593e+02   4.1973182641e+00   0.01340637   0.01254097  59.99 0.0003488263    1.121    0.108
        53  -9.5492    160.3075    224.3992   2.9117558061e+02   4.2609284546e+00   0.01276508  0.008000365 -50.09  0.001259814    1.658    0.397
        54 -10.6608    132.6952    224.3479   2.9151934661e+02   4.4192159773e+00   0.01291555   0.01135816 -15.49  0.000565792    1.191    0.160
        55 -10.8449    117.1416    224.4145   2.9171355304e+02   4.5071912734e+00   0.01678481   0.01199833  10.84 0.0006653572    1.442    0.307
        56  -9.3464    155.9673    223.6668   2.9122568593e+02   4.2942435090e+00  0.009749446  0.008225529  28.33 0.0003897175    1.107    0.097
        57  -8.8945    220.0188    223.6868   2.9042823473e+02   3.9277031923e+00  0.008155685  0.005923995  25.85 0.0008542267    1.285    0.222
        58 -10.4286    149.9516    222.4924   2.9129427799e+02   4.3422669601e+00   0.01377231     0.010874 -46.09 -0.000147925    1.329    0.247
        59  -9.2222    149.5711    218.5521   2.9127768956e+02   4.3902690138e+00   0.01050874  0.008120702  11.38 0.0001257489    1.300    0.231
        60 -10.3658    141.6404    212.8840   2.9134583610e+02   4.5014932195e+00    0.0211846   0.01359349  23.63  0.001585603    1.470    0.320
        61 -12.0881    142.1212    220.9844   2.9138368629e+02   4.4045269967e+00   0.02253088   0.01710577 -63.96  0.001020875    1.400    0.286
        62 -10.3068    137.3224    214.4586   2.9140817337e+02   4.5078341567e+00   0.01690515   0.01101859  70.42  0.001195894    2.014    0.503
        63  -9.7343    164.5403    220.4882   2.9110167313e+02   4.2822243053e+00   0.01561033  0.008793156 -29.10 0.0007248896    2.344    0.573
        64  -9.8746    177.2980    220.0116   2.9094017988e+02   4.2148389926e+00  0.009462548  0.009396335  82.84  0.001171302    1.075    0.070
        65  -9.3882    133.9350    217.9399   2.9146922940e+02   4.4866792214e+00   0.01116164  0.007474085  54.26 0.0005644874    1.656    0.396
        66  -9.7486     89.1469    219.3327   2.9203508449e+02   4.7259101819e+00   0.01288494  0.008624379 -44.80 0.0008599088    1.586    0.370
        67  -9.5024    183.2237    213.9566   2.9083356388e+02   4.2513601589e+00  0.008473286  0.005732756 -66.67 0.0003507075    1.592    0.372
        68 -10.5391    102.1934    212.0909   2.9183328342e+02   4.7358129537e+00   0.02058383   0.01101931  51.66  0.001221933    2.165    0.538
        69 -10.9293     88.0547    213.0929   2.9201499666e+02   4.8047367046e+00   0.01818354    0.0138084   7.22 0.0004308692    1.366    0.268
        70 -12.6839    131.8582    211.6142   2.9146088514e+02   4.5721189771e+00   0.02037102   0.01472847 -25.26 0.0005986831    1.585    0.369
        71  -9.5349    152.1257    211.9055   2.9120987055e+02   4.4529818051e+00   0.01060087  0.008727752  52.57 0.0005806733    1.262    0.208
        72 -15.6008     11.9849    208.6975   2.9294012258e+02   5.2884352777e+00    0.3102515   0.08225495 -55.21   0.02147998    3.421    0.708
        73  -8.8943    197.7998    208.1542   2.9062058150e+02   4.2354325691e+00  0.008872414  0.007598217 -16.94 0.0002936399    1.239    0.193
        74 -10.8308    174.7224    206.1518   2.9089715485e+02   4.3907325085e+00   0.01723542   0.01061079 -38.41  0.001533935    1.831    0.454
        75 -11.6386    247.3847    205.0679   2.8998668650e+02   3.9873389877e+00   0.02325662   0.01748115   2.43  0.002484756    1.430    0.301
        76  -9.9833    149.5683    204.4261   2.9120123558e+02   4.5545842376e+00    0.0167616   0.01022289 -34.17 0.0009587795    1.934    0.483
        77  -9.8584    126.0266    205.8585   2.9150243170e+02   4.6723603173e+00   0.01081821  0.008528819  47.05 0.0004772121    1.278    0.218
        78  -9.2938    113.8236    205.0913   2.9165042264e+02   4.7509203072e+00   0.01889026  0.009168626 -82.02  0.001436727    3.155    0.683
        79 -10.2138    115.2035    200.4182   2.9160793535e+02   4.7974136531e+00   0.01115848   0.00939763 -65.41 0.0001293631    1.268    0.212
        80 -10.3947    120.4619    199.7427   2.9153871435e+02   4.7752667065e+00    0.0269341   0.00688513  43.24  0.001594885    4.378    0.772
        81  -9.7812    100.5749    198.2088   2.9177840873e+02   4.9065557104e+00   0.01393917  0.009704793 -35.62 0.0008979393    1.593    0.372
        82 -10.4078     99.2127    194.8494   2.9177722933e+02   4.9534070749e+00   0.02157407   0.01466086 -13.28  0.001455338    1.794    0.442
        83  -9.9977     75.6033    203.5433   2.9211869827e+02   4.9867778949e+00   0.02068497   0.01151784  14.47  0.001835909    1.924    0.480
        84  -9.5565    224.9512    202.6552   2.9025272535e+02   4.1439047028e+00  0.009763528  0.007930536  28.32 0.0003826657    1.148    0.129
        85  -9.8331    166.9730    203.2262   2.9097784791e+02   4.4690647155e+00  0.009531239  0.008131621  28.20  0.001091853    1.095    0.087
        86 -10.3054    169.8848    200.2630   2.9092550704e+02   4.4868757849e+00   0.01122377   0.01065155 -42.11 0.0003753637    1.106    0.096
        87  -9.9370    133.0741    202.9561   2.9139886659e+02   4.6658909659e+00   0.01008204  0.009579137  32.76 0.0003258451    1.033    0.032
        88 -10.9233    134.0923    197.7665   2.9135807689e+02   4.7204442687e+00   0.01689079   0.01223341  88.22   0.00027955    1.693    0.409
        89 -10.4458    197.3297    200.6457   2.9058570852e+02   4.3254158832e+00   0.01962496   0.01032256  39.67  0.001518901    1.806    0.446
        90 -11.8187     93.0859    205.0370   2.9190872421e+02   4.8698005716e+00   0.03428943   0.01727823  33.20  0.001586594    1.792    0.442
        91 -14.5407     27.2441    247.9927   2.9296137488e+02   4.7444963673e+00   0.07833082    0.0562856   9.82  0.006625186    1.444    0.307
        92  -9.3396    163.7911    205.8063   2.9103147439e+02   4.4572496909e+00   0.01233869  0.006994967  56.35  0.001082104    2.175    0.540
        93  -8.8875    158.5213    199.5197   2.9106307762e+02   4.5604841399e+00  0.006857416  0.006377978  30.99 9.687728e-05    1.027    0.027
        94  -9.9537     86.0208    197.6894   2.9195712680e+02   4.9955545726e+00   0.02477991   0.01036454 -68.73 0.0008096242    2.744    0.636
        95 -10.2038     83.3428    193.3787   2.9196723151e+02   5.0609690961e+00   0.02181898    0.0118057  -4.18 0.0007624082    2.811    0.644
        96  -9.5601    192.0277    198.0179   2.9063748720e+02   4.3863119930e+00  0.009944869  0.009416666  26.83  0.001203006    1.016    0.016
        97 -12.0653     71.0070    194.3392   2.9212631259e+02   5.1200512331e+00   0.02931384   0.01554593 -50.70  0.002694421    1.944    0.486
        98 -12.0159     75.7276    187.9087   2.9203266886e+02   5.1679956192e+00   0.01743774   0.01516265 -21.89 0.0008392743    1.214    0.177
        99 -10.7551    103.3726    203.1717   2.9177035737e+02   4.8328608291e+00   0.01957718   0.01416713  44.74  0.001211284    1.375    0.273
       100  -9.3617    107.3596    195.8957   2.9168128296e+02   4.8947748161e+00   0.01041307  0.008483556  77.40 0.0006836087    1.413    0.292
       101 -10.4135    159.6461    194.1486   2.9101995278e+02   4.6165204350e+00   0.01637189   0.01099535  43.48  0.001084586    1.471    0.320
       102 -11.1159    120.4291    193.9273   2.9150764924e+02   4.8431064550e+00   0.02033284     0.015192  32.37  0.002209649    1.245    0.197
       103 -10.8134     38.6187    192.7059   2.9252160507e+02   5.3233002625e+00   0.01689166   0.01221728 -44.61  0.001793742    1.460    0.315
       104 -10.0408    173.0189    192.5498   2.9084463886e+02   4.5586456266e+00   0.01553971  0.009356178 -39.87  0.000920677    1.858    0.462
       105  -9.8237     47.1928    192.9023   2.9241567650e+02   5.2722728265e+00  0.009992517  0.009244727 -16.29  0.000483927    1.113    0.102
       106 -15.2812      5.9975    246.0911   2.9321599991e+02   4.8871972658e+00   0.09087107   0.06004634 -66.96  0.009291437    1.631    0.387
       107 -10.4544    191.3048    191.4722   2.9061098114e+02   4.4665517984e+00   0.01418794   0.01188058 -12.28 0.0006913064    1.275    0.216
       108 -10.1135    113.0070    192.0284   2.9158992745e+02   4.9075503654e+00   0.01013696  0.009588896  14.05 0.0003077143    1.025    0.024
       109  -9.7875    135.6685    189.8542   2.9129557684e+02   4.8034788357e+00   0.01473323  0.009741481 -25.44  0.001056884    1.827    0.453
       110 -11.4010    249.7071    187.6286   2.8986305437e+02   4.1766541775e+00   0.01872492   0.01406162 -47.27  0.002033225    1.395    0.283
       111 -10.7945    173.3604    240.0713   2.9109785811e+02   4.0040895850e+00   0.01625696   0.01199044  88.07 0.0009131371    1.646    0.392
       112  -9.4154     42.4179    189.1965   2.9245525768e+02   5.3425456279e+00   0.01988745  0.009354915  22.00   0.00168672    2.071    0.517
       113  -9.3867     46.5686    187.4897   2.9239424918e+02   5.3388089383e+00   0.01762855  0.008286632  14.50  0.001408118    2.448    0.592
       114  -9.9274    175.8371    186.9937   2.9077939170e+02   4.6071320432e+00   0.01002228  0.009577136  27.89 0.0004060915    1.025    0.025
       115  -9.4380     67.6461    186.8707   2.9212789249e+02   5.2260901718e+00    0.0125549  0.008383984  -6.53 0.0007359568    1.818    0.450
       116  -8.9850    161.1810    185.6194   2.9095458800e+02   4.7069367084e+00  0.009234653  0.006293608   9.70 0.0002176462    1.554    0.357
       117  -8.8870    154.5056    185.4560   2.9103690871e+02   4.7470004308e+00  0.006828672  0.006395848  15.29 5.423317e-05    1.026    0.025
       118 -11.0133    140.8502    183.6858   2.9119755348e+02   4.8456269553e+00   0.02194969   0.01038339  42.64   0.00129776    2.100    0.524
       119  -9.5541     37.7534    184.1581   2.9248627592e+02   5.4276919262e+00   0.01259263  0.008368836  34.43  0.001060343    1.397    0.284
       120  -9.6385    217.2077    183.1683   2.9024331745e+02   4.4147544442e+00   0.00967613  0.008961413 -10.28 0.0003599927    1.103    0.094
       121 -11.2267    248.5099    177.9949   2.8982559010e+02   4.2954489438e+00     0.017533   0.01260229 -56.94  0.001845811    1.449    0.310
       122  -9.9303     65.9920    182.0077   2.9212225436e+02   5.2920936593e+00   0.01003542  0.009298362  15.91  0.001200735    1.032    0.031
       123  -9.9438     87.0839    183.5027   2.9186716199e+02   5.1545622825e+00    0.0221529  0.009873206  20.27  0.001802421    2.279    0.561
       124 -10.7418    134.2816    179.4429   2.9125646923e+02   4.9325008588e+00   0.02585783   0.01325634 -29.11  0.002038592    2.840    0.648
       125  -9.3811    115.0000    179.9969   2.9149994370e+02   5.0361454296e+00   0.01369209  0.009073641 -74.95  0.001367029    1.732    0.423
       126  -9.8307    115.2625    176.6530   2.9147856324e+02   5.0735467414e+00   0.01457773  0.009211541  59.86  0.000812465    1.925    0.481
       127 -10.3868    104.2060    180.7235   2.9163852093e+02   5.0892767394e+00   0.01127568   0.01086443  29.05 0.0002860875    1.034    0.033
       128  -9.6492    242.7543    179.9516   2.8990784565e+02   4.3057182684e+00  0.008693166   0.00583575 -62.79 0.0008774338    1.572    0.364
       129  -9.5360    175.8908    179.9015   2.9074025160e+02   4.6892919086e+00   0.01019806  0.008870957 -21.94 0.0003633146    1.214    0.176
       130  -9.5665     48.1601    179.8322   2.9233303935e+02   5.4188684330e+00   0.01025327   0.00833568  39.64 0.0004787355    1.185    0.156
       131 -10.6214     30.3419    177.5258   2.9254298681e+02   5.5469872453e+00   0.03287036  0.007487926  34.50  0.001953446    3.420    0.708
       132 -11.8066     11.4004    178.7266   2.9278590430e+02   5.6405565730e+00   0.02652827   0.01121806  32.54  0.002215719    2.090    0.522
       133 -10.5829    181.8465    177.1653   2.9065118935e+02   4.6870260401e+00   0.01761949   0.01137622  17.39  0.001750345    1.542    0.351
       134 -11.7867     84.6534    176.0291   2.9185706488e+02   5.2553682350e+00   0.02143392   0.01802952  43.94  0.001362532    1.173    0.148
       135  -9.8414    109.0687    176.2196   2.9155347973e+02   5.1139326278e+00   0.01155283   0.00996238  76.02 0.0006940509    1.294    0.227
       136  -9.2297     95.2802    175.9431   2.9172400534e+02   5.1957948778e+00  0.009124721  0.008904803 -33.99            0    1.076    0.071
       137  -9.9419     77.1580    175.7368   2.9194901653e+02   5.3014743744e+00   0.01002923  0.009193863  72.23 0.0004990852    1.178    0.151
       138 -12.4142     71.1368    174.2013   2.9201585465e+02   5.3536343937e+00   0.01969444   0.01459968  -0.77  0.000688415    1.483    0.326
       139 -11.1047     68.9420    167.6476   2.9200781010e+02   5.4423874929e+00   0.01921295   0.01385534 -54.73 0.0008839402    1.441    0.306
       140 -12.4080    248.0365    172.2009   2.8979998446e+02   4.3654810695e+00   0.03265928   0.02185411  23.32  0.003354902    1.412    0.292
       141 -11.3450    249.2605    149.6166   2.8966192819e+02   4.6208343692e+00    0.0316709   0.02412864  83.46  0.003394533    1.576    0.365
       142 -12.4099    245.0149    162.3795   2.8978418715e+02   4.4969205906e+00   0.02553192   0.02338766 -66.15  0.003071717    1.167    0.143
       143 -12.2950    246.4034    157.4550   2.8974012446e+02   4.5461678304e+00   0.07890702   0.03222954  51.37   0.00558914    3.345    0.701
       144  -9.3577    154.1611    173.0293   2.9097383037e+02   4.8934893747e+00   0.01522787  0.007478079 -35.76  0.001216816    2.657    0.624
       145  -8.7728     42.2476    174.3431   2.9237719351e+02   5.5163622404e+00  0.006904847  0.004917734 -32.38 0.0003941951    1.571    0.364
       146 -10.2446    129.0050    179.3806   2.9132193422e+02   4.9633630674e+00   0.01066251  0.009171173 -40.58  0.000315978    1.221    0.181
       147 -11.3021     88.9835    157.0282   2.9170020336e+02   5.4517478134e+00   0.02335158   0.01590688 -12.16  0.001714884    1.783    0.439
       148 -11.0039     80.7246    163.4471   2.9183802564e+02   5.4241430487e+00   0.01287706   0.01208658  34.21 0.0002247199    1.037    0.036
       149 -10.2451     91.1416    172.7925   2.9175859541e+02   5.2560448161e+00     0.014877  0.009180981 -42.13 0.0008100048    1.767    0.434
       150 -12.6620     90.1639    167.1032   2.9174000644e+02   5.3278080458e+00   0.03692595   0.03020354  -4.55  0.002966974    1.297    0.229
       151  -9.9916     84.9877    165.2309   2.9179447200e+02   5.3790959567e+00   0.01189323  0.008355231  38.45 0.0001989757    1.352    0.260
       152 -11.8557      2.3421    168.8843   2.9284591902e+02   5.8064789949e+00   0.03873187   0.01175852 -71.77  0.002288985    5.022    0.801
       153  -9.1430    183.5128    171.4697   2.9059951450e+02   4.7437090752e+00  0.006833469   0.00640193   8.22 -4.085321e-05    1.047    0.045
       154  -8.5581    132.7178    171.3131   2.9123191749e+02   5.0359948393e+00  0.006970414  0.004959211  57.28 0.0002786987    1.573    0.364
       155  -9.4334    100.6186    170.7577   2.9162933307e+02   5.2256788051e+00  0.009029957  0.006656752 -83.65 0.0009382262    1.594    0.373
       156 -13.3329     14.0621    239.0885   2.9307780154e+02   4.9229457191e+00   0.02627263   0.01802555  31.52  0.001042557    1.347    0.258
       157  -8.9778    167.2083    170.0104   2.9079480375e+02   4.8539782590e+00  0.008875024   0.00554409 -64.61 0.0008619705    1.703    0.413
       158 -11.3484     45.0627    169.0502   2.9231346381e+02   5.5619463841e+00   0.02913169   0.01605133  17.59  0.001718696    1.854    0.461
       159 -12.5577    248.9633    239.9006   2.9015613130e+02   3.5735738412e+00   0.03746775    0.0258215 -55.30  0.003927855    1.504    0.335
       160  -9.1800    113.0205    169.5004   2.9146779551e+02   5.1695468064e+00   0.01052317  0.004440035  45.07 0.0008099804    2.524    0.604
       161  -9.7270    107.3250    168.2233   2.9153193662e+02   5.2169042012e+00   0.01135746  0.008677202  13.07 0.0004481235    1.305    0.233
       162  -9.5773     58.7254    167.7471   2.9213587133e+02   5.4993878917e+00  0.009229149  0.007532002  56.43  0.000397751    1.304    0.233
       163  -9.4723    175.8087    166.5337   2.9066873633e+02   4.8451936105e+00  0.009826192   0.00572641  37.76 0.0003977324    1.608    0.378
       164  -9.2425    136.2288    165.6954   2.9115767998e+02   5.0812766061e+00   0.01069118  0.007691944  43.34 0.0004591862    1.368    0.269
       165  -9.1468    124.4307    165.4470   2.9130349384e+02   5.1515577347e+00  0.006790871  0.006353682  29.83 4.987183e-05    1.022    0.022
       166 -10.4063     47.0929    163.2859   2.9225697582e+02   5.6174749292e+00   0.01168236  0.009981636 -87.68 0.0003741198    1.311    0.237
       167 -10.2997     37.0836    162.8545   2.9237960952e+02   5.6794022382e+00   0.01079806  0.008578165  48.11 0.0006260397    1.277    0.217
       168  -9.8187    123.1600    160.8711   2.9129454828e+02   5.2120387758e+00   0.01161511   0.01006026 -16.69 0.0008863531    1.218    0.179
       169  -8.9212    119.7340    159.3046   2.9132880021e+02   5.2498231352e+00   0.01069146  0.006378099  28.83    0.0010274    1.538    0.350
       170 -11.4326     96.0464    158.9944   2.9162269900e+02   5.3886019696e+00   0.01915626   0.01392396 -49.60  0.002048973    1.435    0.303
       171  -9.8337     79.0451    158.9886   2.9183486285e+02   5.4855840409e+00   0.01023206  0.009434544  28.91 0.0004068525    1.025    0.024
       172  -9.3167     52.3075    158.4284   2.9216561822e+02   5.6443332452e+00  0.009651342  0.005925809  34.44 0.0009385024    1.503    0.335
       173 -10.6333     72.7146    237.3931   2.9233743729e+02   4.6093371452e+00   0.02748757   0.01489913  67.04  0.002164862    2.883    0.653
       174 -10.6932    165.9869    241.5248   2.9119754619e+02   4.0293196352e+00   0.01892305   0.01102596   4.24   0.00114916    2.118    0.528
       175  -9.8050    134.3418    155.9385   2.9112831634e+02   5.2055361647e+00   0.01213791   0.01105521  36.66 0.0007279345    1.060    0.057
       176  -9.7403    132.1051    152.3402   2.9113670610e+02   5.2601652707e+00   0.01056524  0.008768338  56.21 0.0003486304    1.276    0.216
       177  -8.8015    228.4425    155.4948   2.8995305498e+02   4.6719692186e+00  0.006806118  0.006393238  29.05 0.0001337719    1.019    0.019
       178 -11.0173     13.8852    154.0369   2.9262167669e+02   5.9137645262e+00   0.01394869   0.00983782 -53.74  0.001322601    1.471    0.320
       179 -10.8644    112.5857    152.3783   2.9138045792e+02   5.3711961328e+00   0.01699359   0.01310628  31.48 0.0005708144    1.207    0.172
       180 -11.5740     73.5753    158.7102   2.9190163321e+02   5.5199842202e+00   0.02109877   0.01770069  88.64  0.002405904    1.352    0.260
       181 -11.0102    102.4091    151.0987   2.9150052436e+02   5.4441564614e+00   0.01688116   0.01467675  43.11  0.001298324    1.132    0.117
       182 -10.2801    105.1162    146.3250   2.9144087197e+02   5.4842376815e+00   0.01503048   0.01427163  18.83  0.001834217    1.015    0.015
       183  -9.4585     62.0187    152.0369   2.9200980717e+02   5.6634311361e+00   0.01022367  0.009608066  18.39            0    1.014    0.014
       184  -8.7576    119.7222    151.3289   2.9128571873e+02   5.3426580626e+00  0.007000167  0.004973526  58.75  0.000278319    1.596    0.374
       185 -10.1096     90.9701    150.2041   2.9163845589e+02   5.5198080318e+00   0.01045517  0.009880061 -63.15 0.0004245228    1.128    0.113
       186 -11.0411     56.2909    150.3882   2.9207240667e+02   5.7152147657e+00   0.02004765   0.01571092  58.06  0.001142643    1.388    0.280
       187  -9.5756     53.1623    146.3922   2.9208986249e+02   5.7795078159e+00   0.01029524  0.009287489  -5.81 9.873021e-05    1.131    0.116
       188 -11.7053     59.6767    135.5110   2.9194963630e+02   5.8690210230e+00   0.03075694   0.01641047 -84.95  0.002350556    2.759    0.638
       189 -13.2843     67.3989    143.8474   2.9189831851e+02   5.7280752560e+00   0.04257026   0.03153665  75.85  0.004474444    1.641    0.391
       190 -12.2976     74.2120    138.9274   2.9178661071e+02   5.7465016748e+00   0.03359626   0.02580874  67.16  0.001806528    1.503    0.335
       191 -11.5424    133.6972    143.1477   2.9106698346e+02   5.3579738521e+00   0.04321139   0.01524756 -70.40  0.002997812    3.616    0.723
       192  -9.2676    158.2624    241.9848   2.9129623641e+02   4.0680949599e+00   0.00917779  0.008928524 -63.28 0.0004472644    1.097    0.088
       193 -12.0863      9.3975    141.7303   2.9261128740e+02   6.0824245150e+00   0.02365037   0.01603513  17.89  0.002426976    1.448    0.309
       194 -11.8312      3.1516    138.9997   2.9267457038e+02   6.1496266692e+00   0.02584378   0.01872031  88.60  0.001748862    1.688    0.408
       195 -10.3385    236.3832    145.9737   2.8980240900e+02   4.7370484777e+00   0.03301349   0.01311654  11.25   0.00209268    3.999    0.750
       196 -12.4046    248.1547    101.7229   2.8941495198e+02   5.1834480301e+00   0.04361742   0.02393443 -61.08  0.004095984    1.888    0.470
       197 -11.6497    249.0778    123.7986   2.8952368885e+02   4.9217762807e+00   0.04965993   0.02268535  47.38  0.004041121    2.432    0.589
       198 -10.1548    249.6911    117.9211   2.8948405103e+02   4.9865155194e+00   0.01401745   0.01188554 -50.70 0.0006059306    1.236    0.191
       199 -11.5357    248.1805    112.9520   2.8947579673e+02   5.0529012070e+00   0.02887381   0.02245403 -21.99   0.00314729    1.431    0.301
       200 -11.6035    248.1796    141.3691   2.8963050774e+02   4.7228448921e+00   0.04510112   0.01853258  16.14  0.003323388    2.901    0.655
       201 -12.4009    248.3224    134.6146   2.8959197035e+02   4.8004855814e+00   0.04504284   0.04100591  62.45   0.00535302    1.164    0.141
       202  -9.9799     37.1666    143.8420   2.9227583830e+02   5.9001479483e+00  0.009576409  0.007715243  -6.03 0.0005941663    1.332    0.249
       203 -11.2157    136.1712    227.8665   2.9149506358e+02   4.3584450130e+00   0.01985748  0.009239862 -58.92   0.00172301    2.168    0.539
       204  -8.5460    155.2667    140.6866   2.9078455488e+02   5.2632622970e+00  0.006859115  0.004984871  58.69 0.0002317523    1.546    0.353
       205 -12.3617     46.0099    131.5249   2.9209877047e+02   5.9931589651e+00   0.03656826   0.02104981  43.75  0.002702965    1.736    0.424
       206  -9.5383     53.5256    140.0523   2.9205103157e+02   5.8511988205e+00   0.01190067  0.008611928  39.36 0.0003789653    1.322    0.244
       207 -11.4549     47.6538    138.3667   2.9211524859e+02   5.9042157771e+00   0.03072854   0.01261668  14.15  0.002196596    3.113    0.679
       208  -8.8627    107.6802    135.7236   2.9135140570e+02   5.5929097185e+00   0.00692399  0.005065119 -20.05 0.0002777412    1.575    0.365
       209 -10.0402    119.3031    138.1598   2.9121954495e+02   5.4982143461e+00   0.01711668   0.01260688 -11.32  0.001576971    1.557    0.358
       210 -10.9479    112.7545    136.3467   2.9129144557e+02   5.5566948803e+00   0.02357662   0.01450406  29.60  0.001817169    1.492    0.330
       211 -11.8516      2.0000    143.0113   2.9271061155e+02   6.1094827717e+00   0.03207786    0.0108648 -63.84  0.002375985    3.045    0.672
       212  -9.3231    141.7177    147.9518   2.9099298781e+02   5.2562638322e+00   0.01455246  0.008205824 -11.45  0.001177793    2.668    0.625
       213  -9.1568    164.0471    139.4987   2.9066859883e+02   5.2268338299e+00   0.01004285  0.006418307  24.34 0.0004167516    1.470    0.320
       214 -11.4071      2.2497    130.8030   2.9264158012e+02   6.2501040994e+00   0.02388424   0.01330788 -64.77   0.00224114    1.907    0.475
       215 -11.5662      2.0000    120.5188   2.9258915191e+02   6.3711598044e+00   0.02364659  0.009805445 -62.31    0.0019374    2.466    0.594
       216  -9.3890    106.5737    129.7844   2.9133301547e+02   5.6682997466e+00   0.01580239  0.006325587  37.37  0.001251719    2.269    0.559
       217 -11.5140     66.2661    128.0515   2.9182695295e+02   5.9182753180e+00   0.02208023   0.01809121  86.41  0.001273409    1.403    0.287
       218 -10.0158    117.8554    128.9446   2.9118763040e+02   5.6136499364e+00   0.01163756  0.006817993 -37.15 0.0008393825    1.982    0.495
       219 -10.0353     60.9729    125.2655   2.9187798317e+02   5.9808224383e+00   0.01074774  0.008894271  50.59 0.0003881007    1.240    0.194
       220 -12.4042     30.9462    126.6670   2.9226068237e+02   6.1353104652e+00    0.0345097   0.01209682  29.43  0.002648891    2.475    0.596
       221  -9.5187     85.9342    126.7174   2.9157409209e+02   5.8217155211e+00   0.01331362  0.009272491 -18.39  0.001262986    1.713    0.416
       222 -11.1641     36.9871    125.1557   2.9217703389e+02   6.1185576419e+00    0.0189209   0.01304333  81.31  0.001631866    1.865    0.464
       223 -10.5848     39.4821    122.5001   2.9213149505e+02   6.1352642246e+00   0.02017975  0.005412314  39.10  0.001336756    3.365    0.703
       224 -12.2914      9.1621    125.4255   2.9252616113e+02   6.2734513155e+00   0.01929849   0.01513474 -66.25  0.001842477    1.365    0.268
       225  -8.9948    114.7365    123.0318   2.9119448704e+02   5.7002216934e+00    0.0080958  0.006050865 -66.90 0.0002783526    1.439    0.305
       226  -9.9239     50.5043    122.9001   2.9199595376e+02   6.0679186908e+00   0.01152779  0.008801998  48.95 0.0009943625    1.343    0.256
       227 -10.3804    209.8065    125.8732   2.9002410015e+02   5.1230486729e+00   0.01226421   0.01134434 -59.55 0.0005152764    1.148    0.129
       228 -11.2174     15.4516    122.8580   2.9243369376e+02   6.2676231551e+00   0.01376472  0.008117983 -22.30  0.001198294    2.296    0.564
       229  -9.1470    238.5101    122.0166   2.8964556207e+02   5.0031530179e+00   0.01004744  0.006698741 -60.49  0.001018484    1.568    0.362
       230  -9.0756    143.5181    121.5109   2.9082700591e+02   5.5534147019e+00  0.006946947  0.006283463  41.28 0.0003396788    1.085    0.079
       231 -10.9676     31.9803    110.9919   2.9216296594e+02   6.3117669932e+00   0.01342374   0.01129285  36.79  0.001309675    1.133    0.118
       232 -11.9764     30.8000    118.1371   2.9221637348e+02   6.2353650902e+00   0.02311569   0.01678849  53.37  0.001693557    1.479    0.324
       233 -10.3223     33.3176    114.6808   2.9216621449e+02   6.2612604167e+00   0.01018156  0.009045985 -60.70  0.000525574    1.193    0.162
       234  -9.4862    159.6783    126.3292   2.9065155825e+02   5.4049427118e+00  0.007295565  0.004879198  56.02 0.0007048834    1.692    0.409
       235  -8.7089    130.6880    119.2690   2.9097495015e+02   5.6528379987e+00  0.006997863  0.004840346  51.74 0.0002088644    1.547    0.354
       236 -11.3055    135.6505    241.0530   2.9157286193e+02   4.2080333999e+00    0.0152285   0.01421447 -64.55  0.001066832    1.143    0.125
       237 -11.1107    168.2242    113.4916   2.9047519748e+02   5.5052448936e+00   0.01791561   0.01293304  53.61 0.0008683809    1.493    0.330
       238  -9.8025     72.8973    115.0233   2.9167354860e+02   6.0320310473e+00   0.01016319  0.009454275  15.03 0.0002667318    1.031    0.030
       239  -8.9712     82.1467    114.3686   2.9155446271e+02   5.9869282664e+00  0.009634736  0.005637332  35.96 0.0001180078    1.583    0.368
       240 -11.8461      2.2380    110.0019   2.9252934916e+02   6.4921413803e+00   0.03144386  0.007953117 -65.58  0.001967917    4.293    0.767
       241 -11.4163     56.7298    110.7048   2.9185213830e+02   6.1743338090e+00   0.02482942   0.01321313   8.35  0.001612966    2.313    0.568
       242  -9.2524    203.6850    111.6396   2.9002295547e+02   5.3235411101e+00  0.007337115  0.004944433 -27.36 0.0007042675    1.755    0.430
       243 -10.2472     70.0444    111.2991   2.9168900667e+02   6.0915980750e+00  0.009827813  0.008160612  29.00 0.0004003279    1.124    0.111
       244  -9.6517    114.5148    107.4438   2.9111266226e+02   5.8827396918e+00  0.006830309  0.006371643  22.00 2.089096e-05    1.007    0.007
       245 -10.3069    134.7226    105.1386   2.9084785450e+02   5.7940513239e+00   0.01605578  0.005675448 -61.75  0.001215596    2.833    0.647
       246 -10.6152     28.1993    105.8852   2.9218258693e+02   6.3926463014e+00   0.01498481  0.008190805  37.34  0.001143218    1.704    0.413
       247 -10.7365     62.4312    106.7942   2.9175971378e+02   6.1873517625e+00   0.01259556  0.008458867 -54.24  0.001290855    1.540    0.351
       248 -12.3177    135.2760    236.5584   2.9155322628e+02   4.2624515274e+00   0.02187206   0.02060115 -48.59   0.00173002    1.119    0.106
       249  -9.4022     35.7892    102.4223   2.9206897871e+02   6.3897844737e+00   0.00908709  0.006382094   9.07 0.0002958855    1.497    0.332
       250 -10.1422     62.9562    100.0219   2.9171645436e+02   6.2631161912e+00   0.01047555  0.009831641  -3.96  0.000464789    1.073    0.068
       251  -8.7751    136.7310     94.3197   2.9076400110e+02   5.9083248332e+00  0.006898731  0.004984436  58.92 0.0002748268    1.562    0.360
       252 -11.8246      1.8044     89.3272   2.9242298494e+02   6.7350443300e+00   0.03832076  0.005675383 -65.54  0.001805553    7.562    0.868
       253 -10.1441     45.4517     90.2190   2.9188210718e+02   6.4767411817e+00   0.01660129  0.007862973  20.57  0.001376285    2.108    0.526
       254 -10.5676    219.1668    248.1624   2.9057153950e+02   3.6481063449e+00   0.02619409   0.01169028 -20.64  0.001308214    7.221    0.862
       255  -8.7406    168.7218    249.3118   2.9120562952e+02   3.9231436463e+00  0.006936055  0.004964249  57.49 0.0002812357    1.563    0.360
       256  -9.5050    199.5838    245.7532   2.9080216798e+02   3.7881189879e+00  0.009018791  0.006687752 -87.25 0.0004804933    1.607    0.378
