#   1 NUMBER                 Running object number                                     
#   2 MAG_AUTO               Kron-like elliptical aperture magnitude                    [mag]
#   3 X_IMAGE                Object position along x                                    [pixel]
#   4 Y_IMAGE                Object position along y                                    [pixel]
#   5 X_WORLD                Barycenter position along world x axis                     [deg]
#   6 Y_WORLD                Barycenter position along world y axis                     [deg]
#   7 A_WORLD                Profile RMS along major axis (world units)                 [deg]
#   8 B_WORLD                Profile RMS along minor axis (world units)                 [deg]
#   9 THETA_WORLD            Position angle (CCW/world-x)                               [deg]
#  10 FWHM_WORLD             FWHM assuming a gaussian core                              [deg]
#  11 ELONGATION             A_IMAGE/B_IMAGE                                           
#  12 ELLIPTICITY            1 - B_IMAGE/A_IMAGE                                       
         1  -8.5165     55.8261      9.9953   2.8257845207e+01   6.8697525302e+01    0.1833424    0.1745996 -62.80  0.000656479    1.349    0.259
         2  -8.0987     47.5306     10.0650   3.2101801399e+01   7.0274792041e+01    0.1845671    0.1206249 -30.74 0.0007946437    1.576    0.365
         3  -8.2153     91.2175      9.1681   1.6004934179e+01   6.0913828240e+01    0.1822836    0.1555119 -70.75 0.0005697348    1.357    0.263
         4  -7.5669    101.6433      8.2852   1.3143923816e+01   5.8439841759e+01    0.1390427     0.099968 -73.82 0.0006258067    1.672    0.402
         5  -8.3985     70.4176      6.2293   2.0631913942e+01   6.6040965080e+01    0.1715379    0.1195513 -36.84 0.0006516052    1.621    0.383
         6  -8.5855     33.8980      5.5708   3.6657964703e+01   7.3218044799e+01    0.2336493    0.1562543 -48.31  0.001294749    2.046    0.511
         7  -8.3988     79.3989      3.7583   1.6585072492e+01   6.4236603775e+01    0.2291479    0.1215419 -28.19 0.0008385094    2.030    0.507
         8  -8.2582     62.8688      1.4727   2.0636036160e+01   6.8160293249e+01    0.1910845    0.1175266  58.39  0.001006778    1.549    0.355
         9  -7.7019     39.6590      1.3394   3.0695593292e+01   7.2768813252e+01    0.1137239    0.1004012 -74.58 0.0007049799    1.769    0.435
        10  -8.5553     26.9709    250.0000   8.6368758151e+01   1.8790113015e+01    0.1837213   0.05076267  31.07 0.0008092691    2.990    0.666
        11  -9.6362    242.1281    237.2045   4.3079426875e+01  -6.6498354031e+00    0.5467626    0.2271682 -15.05  0.002507978    3.571    0.720
        12  -8.9076    248.9530    249.5056   4.3819010254e+01  -8.7068772164e+00    0.2549044    0.1387684  -8.48  0.001710604    1.665    0.399
        13 -10.0992    248.8223    241.2625   4.2628023072e+01  -7.8192576702e+00    0.4758908    0.1789166 -33.36  0.001848741    2.541    0.606
        14  -8.7466    247.7787    233.9981   4.1695346082e+01  -6.9085461898e+00    0.2296081    0.1290743 -16.20  0.001323961    1.558    0.358
        15 -10.1021    246.6983    228.4661   4.1012252725e+01  -6.1619510254e+00    0.4936073    0.1702821 -28.82  0.002484351    2.797    0.642
        16  -9.2523    233.2241    248.0727   4.6128520932e+01  -6.8805704847e+00    0.3268423    0.1802349 -38.56  0.001703433    2.232    0.552
        17  -8.4144    235.0339    243.0000   4.5092209363e+01  -6.5161219900e+00     0.201443    0.1166547  18.21  0.001355746    1.414    0.293
        18  -9.1110    201.1411    248.9904   5.1753804077e+01  -3.2525458306e+00    0.3775461    0.1649557   9.42  0.001350379    5.297    0.811
        19  -9.5425    243.1320    245.9782   4.4223369390e+01  -7.7246754394e+00    0.3439856    0.1507924 -26.80  0.001961079    2.147    0.534
        20  -9.4584    218.7620    246.5292   4.8326893046e+01  -5.0660261207e+00    0.3328093    0.1356496 -33.87  0.001845503    2.539    0.606
        21  -8.8831    156.2508    247.7773   6.0018104595e+01   2.7230500292e+00    0.2009942    0.1642632  53.25 0.0009692401    1.545    0.353
        22  -8.2982     64.3394    248.6641   7.8825363310e+01   1.4788444809e+01     0.129294   0.06543525  55.68 0.0001160614    1.755    0.430
        23  -9.2545    210.8296    246.3786   4.9675981191e+01  -4.1097820356e+00    0.1771069    0.1709817 -35.42 0.0008715203    1.776    0.437
        24  -9.4888    146.8437    245.4615   6.1594334531e+01   4.3446446479e+00    0.2485218    0.1987637  66.11   0.00128593    1.758    0.431
        25  -9.3344    120.1296    245.3545   6.7009628400e+01   8.0415380773e+00    0.2764696    0.1816879  66.20  0.001573042    2.095    0.523
        26  -9.5348     78.2130    243.2509   7.5544191880e+01   1.4014817822e+01    0.4056792    0.1563087  61.35  0.001527199    4.195    0.762
        27  -8.2702     67.5881    244.7557   7.7876022216e+01   1.5086679096e+01    0.1483919    0.1018851  78.31 0.0006075154    1.570    0.363
        28  -8.6628    201.8718    243.0849   5.0792894231e+01  -2.6087511268e+00    0.2202307    0.1534567 -44.18  0.000941697    1.971    0.493
        29  -8.6746    139.4658    243.9631   6.2898011675e+01   5.5903682069e+00    0.1461645    0.1040691  80.38 0.0008091407    2.500    0.600
        30  -8.7335    168.9856    243.0431   5.6926379425e+01   1.6785970139e+00    0.1812965    0.1452315  26.28 0.0006090053    1.108    0.097
        31  -9.2174    183.3777    240.1423   5.3780391906e+01   1.5665347103e-01    0.3731003    0.2654069  61.52  0.002086688    2.780    0.640
        32  -9.4047    159.8952    239.8918   5.8288773824e+01   3.3754767327e+00    0.2811429    0.2187361 -79.03   0.00117411    2.274    0.560
        33  -8.3898     88.3235    242.1608   7.3327305411e+01   1.2890380864e+01    0.1512791    0.1069453  88.77 0.0004459095    1.737    0.424
        34  -8.4586    213.8679    241.3359   4.8419836694e+01  -3.8657465252e+00    0.1512486    0.1224164  -2.64 0.0008806548    1.178    0.151
        35  -8.1238     29.4994    241.5031   8.5482597852e+01   2.0084835357e+01    0.1176149    0.0849884  54.93 0.0008105983    1.021    0.021
        36  -8.6411    193.9782    239.2703   5.1682296005e+01  -1.1142314146e+00    0.1610986    0.1241078  17.22 0.0005417914    1.055    0.052
        37  -8.2342    146.1356    239.2114   6.0961220909e+01   5.3961552565e+00     0.164716    0.1269482  47.28 0.0005361553    1.375    0.273
        38  -9.1289    135.3241    238.4457   6.3080779126e+01   7.0394639001e+00    0.1779541    0.1426084  72.53 0.0005832795    1.705    0.414
        39  -8.3258      2.3032    239.6523   9.0777792699e+01   2.3114879179e+01    0.1226552   0.05272757  57.50 0.0007040276    1.693    0.409
        40  -9.6151    230.9710    236.2957   4.4761887512e+01  -5.2861702542e+00    0.3335758    0.2380596 -30.86  0.001828587    1.573    0.364
        41  -8.7845    209.1378    237.9149   4.8748839648e+01  -2.8629121818e+00    0.1783816    0.1257599 -36.62 0.0009108394    1.691    0.409
        42  -8.1169     52.6694    238.3189   8.0535860476e+01   1.8081730246e+01    0.1305026   0.06640417  56.12 0.0007047895    1.689    0.408
        43  -8.7509     15.5262    238.0000   8.8130629659e+01   2.2174440992e+01    0.2419971   0.05292455  29.03 0.0009422599    3.996    0.750
        44 -10.0900    214.6474    232.8076   4.7017317045e+01  -2.9040442238e+00    0.4092824     0.333732 -82.22  0.002338609    3.511    0.715
        45  -9.2206    203.1914    234.3542   4.9285642797e+01  -1.6560218776e+00    0.2974425    0.1782961 -48.14  0.001565371    2.438    0.590
        46  -9.8914    175.6676    233.1323   5.4266922332e+01   2.1842647557e+00     0.400194    0.2401099 -55.90   0.00216882    2.634    0.620
        47  -9.3243    109.5515    234.6191   6.8064988507e+01   1.1322981868e+01    0.5282883    0.1880606  48.00  0.002155429    2.874    0.652
        48  -8.2177    170.1563    235.2005   5.5632235213e+01   2.6454087739e+00    0.1518331    0.1327707  40.34 0.0005220303    1.353    0.261
        49  -8.8637     78.2710    234.6916   7.4806814919e+01   1.5567825822e+01    0.1970555    0.1505464 -86.74  0.001272625    1.488    0.328
        50  -7.9673    122.8079    233.9245   6.5160517122e+01   9.5655798697e+00    0.1890746    0.1318057  68.69  0.000976786    1.955    0.489
        51  -8.1870     99.6458    234.3262   7.0161491094e+01   1.2755201774e+01    0.1960031    0.1208939  57.88  0.001081159    1.708    0.414
        52  -8.7918    144.7303    232.9709   6.0449910668e+01   6.5803540966e+00    0.2591949    0.1241268  50.86  0.001156473    2.718    0.632
        53  -8.8892    140.1834    230.0985   6.1022082855e+01   7.7042384100e+00    0.2424915    0.1336449  50.45 0.0009112124    2.066    0.516
        54  -8.4248     92.6242    232.0853   7.1454966706e+01   1.4128431805e+01    0.3272412    0.1333992  59.60  0.001180009    4.143    0.759
        55  -9.1285     68.1808    232.0211   7.6763604390e+01   1.7372635249e+01    0.4074273    0.1378943  54.89  0.001595036    3.315    0.698
        56  -8.5116    194.3835    232.2684   5.0588376905e+01  -2.2944650320e-01    0.1395053    0.1095416 -40.56 0.0006086353    1.621    0.383
        57  -9.4521    186.5126    230.6081   5.1819718004e+01   1.0578018661e+00    0.2927234    0.2349098 -72.29  0.001647838    2.391    0.582
        58  -8.2621    157.6110    231.7711   5.7656700360e+01   4.9256069974e+00      0.14102    0.1211778 -58.89 0.0004810442    1.580    0.367
        59  -7.7740    132.4848    232.4865   6.2941764633e+01   8.4207881408e+00    0.1269973     0.102483  37.11 6.961847e-05    1.077    0.072
        60  -9.5026    236.2130    229.7715   4.2900594596e+01  -5.1231450153e+00    0.3942414    0.1539811 -30.73  0.001765638    2.446    0.591
        61  -9.3191    238.9732    221.3577   4.1128106175e+01  -4.4351659917e+00     0.240481    0.1383816 -33.20 0.0009344941    1.712    0.416
        62  -8.0821      1.4331    230.2550   9.0672479405e+01   2.4988091132e+01    0.1574644   0.07901151  73.09 0.0009426819    1.664    0.399
        63  -9.0663    229.5384    228.3075   4.3777973852e+01  -4.1613872503e+00    0.1786661   0.09833166 -35.64 0.0006522227    1.900    0.474
        64  -8.7286    161.8031    227.4185   5.6203318473e+01   5.0010221408e+00    0.2596483    0.1765829  55.85   0.00143525    2.053    0.513
        65  -9.0321    127.8460    227.1433   6.3261220091e+01   1.0003589385e+01    0.3176416    0.1862637  56.40  0.001225738    2.129    0.530
        66  -8.1931    223.2733    227.0069   4.4635164235e+01  -3.2403807902e+00    0.1581969    0.1216915  -7.74 0.0005185379    1.119    0.107
        67  -9.5584    225.3170    221.6141   4.3438027946e+01  -2.8107757533e+00    0.3555391     0.202932 -21.96  0.001310695    1.660    0.398
        68  -7.8759    120.2929    227.6469   6.4951633952e+01   1.1016562473e+01    0.1276751   0.08799132  59.66 0.0007030433    1.682    0.405
        69  -8.9328    206.1177    225.3026   4.7385041700e+01  -8.3583797857e-01    0.2602457    0.1547817 -37.90  0.001228549    1.837    0.456
        70  -8.6328    199.9667    225.9897   4.8611543348e+01  -1.1446926262e-01    0.1581453    0.1430605  47.88  0.000620031    1.639    0.390
        71  -8.7241     94.0647    224.0182   7.0311296834e+01   1.5439880026e+01      0.33983    0.1685823  55.87  0.001584351    2.225    0.551
        72  -8.8132    216.4100    223.2031   4.5226794993e+01  -1.8917692431e+00    0.2242649    0.1778588 -43.45 0.0009806481    1.772    0.436
        73  -8.7366    180.3163    223.8732   5.2008649579e+01   2.8929111840e+00    0.1974349    0.1762797  50.83 0.0007648222    1.513    0.339
        74  -8.0178    114.4299    223.9582   6.5787479887e+01   1.2532511756e+01    0.1630524    0.1057715  78.23 0.0005671979    2.398    0.583
        75  -8.6064    104.7100    223.4684   6.7879954530e+01   1.4031572540e+01    0.2678527    0.1700571  73.34  0.001365107    2.194    0.544
        76  -8.6871     10.8152    224.7680   8.8578044552e+01   2.5207836363e+01    0.1956487   0.04804055  39.64 0.0008892263    2.552    0.608
        77 -10.1262    149.3332    225.6865   5.8520914084e+01   7.0937334729e+00    0.5568683    0.3669285  89.26  0.002439688    3.896    0.743
        78  -8.7534    172.9556    222.7057   5.3281532036e+01   4.1209782576e+00     0.205799    0.1690123 -68.68 0.0006959516    1.926    0.481
        79  -9.4501    192.2924    221.1650   4.9297351508e+01   1.6092251259e+00    0.2468088    0.2272058  88.56  0.000820833    1.822    0.451
        80  -8.5078    162.6504    222.3114   5.5297673062e+01   5.6825279693e+00    0.2722853    0.1280707  47.57  0.001218565    2.561    0.610
        81  -8.2500    158.9968    220.3198   5.5756390772e+01   6.5424095254e+00    0.1917409    0.1577756  45.46 0.0007854476    1.332    0.249
        82  -7.9944    140.4202    222.2668   5.9930932775e+01   8.9859331223e+00    0.1506606    0.1264355 -74.71 0.0007746762    1.607    0.378
        83  -8.3179    202.8269    219.9007   4.7138961050e+01   3.4296887544e-01    0.1936558    0.1505281 -29.04 0.0008853874    1.371    0.270
        84  -9.1948    120.1904    218.8314   6.3880845406e+01   1.2621807742e+01    0.4208662    0.2319979  62.42  0.001832107    2.835    0.647
        85  -8.4347     82.8308    220.2430   7.2449380401e+01   1.7730110984e+01    0.2275427    0.1032706  59.73 0.0009471307    2.776    0.640
        86  -8.4847    210.1182    218.7917   4.5641748437e+01  -4.8227949266e-01    0.1832736    0.1457057 -30.79 0.0005168308    1.409    0.290
        87  -9.2504    133.0959    215.9752   6.0654734917e+01   1.1194409223e+01    0.4757577    0.2786272  70.68   0.00186267    3.894    0.743
        88  -8.7361    169.2466    215.8680   5.2993268449e+01   5.7361525486e+00    0.2449986    0.2033237 -80.26 0.0009643488    1.962    0.490
        89  -8.5945    142.9162    216.2940   5.8565563283e+01   9.6419700836e+00     0.216851    0.1783435  70.53 0.0009629438    1.611    0.379
        90  -8.0036     61.5752    216.7960   7.6971096467e+01   2.1230096725e+01    0.1686393    0.1089919  81.53 0.0008633589    1.654    0.396
        91  -8.2858    243.4599    215.9508   3.9535511896e+01  -4.3050269069e+00     0.161248   0.09228659 -28.11  0.001018832    1.558    0.358
        92  -8.9059    232.3481    214.5349   4.1113771265e+01  -2.7809448137e+00     0.206834    0.1830674 -28.17 0.0009971526    1.529    0.346
        93  -8.1041    154.3759    215.0825   5.5949135075e+01   8.1053581652e+00    0.1596236    0.1248076 -65.06 0.0009292979    1.774    0.436
        94  -9.3436    214.0286    212.0495   4.3852060647e+01  -7.9221879630e-02    0.3166263    0.2647937  60.29  0.001784137    2.104    0.525
        95  -8.3474    185.4906    214.0187   4.9478089781e+01   3.6340171103e+00    0.1680487    0.1193263 -38.39  0.000663429    1.551    0.355
        96  -8.6188     92.9577    213.7225   6.9439165530e+01   1.7607925350e+01    0.2920413    0.1550481  61.45  0.001319723    2.336    0.572
        97  -9.1060     72.8487    211.4590   7.3877752570e+01   2.0866217644e+01    0.6314495    0.2200388  57.64  0.002066062    4.365    0.771
        98  -8.0252    242.7436    211.9845   3.9001130533e+01  -3.7298345415e+00    0.1366426   0.08149088 -27.13  0.000409095    1.480    0.325
        99  -8.5808    161.7375    212.1429   5.3964408916e+01   7.4776669789e+00    0.1837342    0.1648422  46.64 0.0007816559    1.294    0.227
       100  -8.9716    204.2042    210.6065   4.5387924620e+01   1.4712904289e+00    0.2128803    0.1803823 -39.03 0.0006693747    1.486    0.327
       101  -9.4169    175.3278    209.7320   5.0804466640e+01   5.8094841661e+00    0.3336753    0.2635114  75.97  0.001551509    2.256    0.557
       102  -8.6069    147.9464    210.2575   5.6601151251e+01   9.9269442535e+00    0.2221595    0.1795175  73.99  0.001237453    1.744    0.427
       103  -8.7904    116.1950    210.0515   6.3640923065e+01   1.4882322044e+01    0.3154422    0.1790835  63.35 0.0009836825    2.604    0.616
       104  -8.2825    192.3892    210.1982   4.7533678961e+01   3.2126133325e+00    0.1565434    0.1158542 -47.29   0.00055052    1.718    0.418
       105  -9.5997    100.3947    207.6517   6.6993102906e+01   1.7743242934e+01    0.5255323    0.3046569  81.15  0.002257877    2.899    0.655
       106  -9.4418    236.4955    207.3092   3.9234224696e+01  -2.3679069853e+00    0.3954149    0.1968895 -40.73  0.001716542    2.225    0.551
       107  -8.2003     85.4033    209.1877   7.0695231577e+01   1.9606815630e+01    0.1799574    0.1205111  89.60 0.0009478074    1.798    0.444
       108  -9.4039    246.4247    207.0288   3.7595551325e+01  -3.5533479146e+00    0.2650757    0.1672368 -25.14  0.000684009    1.362    0.266
       109  -9.3452    250.0955    201.9934   3.6176273644e+01  -3.3631486125e+00    0.3137623    0.1494912 -29.79  0.001189348    1.819    0.450
       110  -8.3420    138.9847    207.7690   5.8189340821e+01   1.1774466395e+01    0.2136482     0.135472  55.92 0.0007213603    1.945    0.486
       111  -8.7518     51.6737    217.5008   7.9278961914e+01   2.2306807120e+01    0.2213667    0.1242081  69.39 0.0008833467    1.808    0.447
       112  -7.6604    156.3008    207.6450   5.4413234196e+01   9.0822529523e+00    0.1258683    0.1009194  65.28 0.0004104892    1.705    0.413
       113  -8.7298    108.7469    205.8317   6.4807167105e+01   1.6850732288e+01    0.2947695    0.1696945 -47.73  0.001452211    2.031    0.508
       114  -7.8785     12.3048    206.6560   8.7498715961e+01   2.8818757161e+01    0.1333148   0.06445061  59.45 0.0007041303    1.688    0.407
       115  -8.1322     56.3659    205.1541   7.7183151242e+01   2.4343384648e+01    0.1802897    0.1088739  84.55 0.0009341408    1.792    0.442
       116  -8.0151    218.3343    204.2846   4.1796098545e+01   4.1862798150e-01    0.1243111   0.07927447   2.10 0.0007012149    1.621    0.383
       117  -9.4032    194.9332    203.3773   4.5917172293e+01   3.8785676517e+00     0.333805     0.242074 -29.48  0.001347796    1.375    0.273
       118  -9.2410    192.4176    197.0900   4.5325329722e+01   5.2369037423e+00    0.3362386    0.2599218 -60.55  0.001569273    1.971    0.493
       119  -9.0893    183.6277    203.6640   4.8158462399e+01   5.5266591535e+00    0.2449314    0.2136565  52.96  0.001046466    1.507    0.336
       120  -9.7014    163.9904    202.9692   5.2046543495e+01   8.6837553106e+00    0.4370731    0.2373555  51.58  0.001219569    2.435    0.589
       121  -8.4624    131.0175    203.7414   5.9381486906e+01   1.3785414618e+01    0.2157899     0.174918 -89.63  0.000771762    1.633    0.388
       122  -8.4169    227.5983    202.5665   3.9910535086e+01  -5.8943945418e-01    0.2382026   0.08876435 -25.55  0.000956203    3.463    0.711
       123  -8.9779    243.1981    200.9116   3.7072368787e+01  -2.3779062427e+00    0.2476519    0.1369008 -31.39 0.0008737348    1.614    0.381
       124  -8.6072    210.9793    201.7769   4.2673923128e+01   1.7978628119e+00    0.1957293    0.1525531 -44.54  0.000785387    1.632    0.387
       125  -8.4620     11.4875    202.4903   8.7491607639e+01   2.9792848600e+01    0.2830178          nan  40.42 0.0008105147    5.899    0.830
       126  -7.9550    222.0941    201.1670   4.0610716160e+01   3.4292425604e-01    0.1486564    0.1333626 -18.84 0.0004607965    1.324    0.245
       127  -8.5766    140.4450    200.7461   5.6804521396e+01   1.2844918418e+01    0.3175392    0.1870191  54.82  0.001465924    2.129    0.530
       128  -8.2144     79.7927    200.9295   7.1118832823e+01   2.2142201966e+01    0.2244052    0.1333772  69.80 0.0007419745    2.009    0.502
       129  -9.3141    149.5040    198.4414   5.4429804398e+01   1.1808551331e+01    0.3546773     0.263501  83.05  0.001235091    2.249    0.555
       130  -8.6556    124.0451    199.2270   6.0320051800e+01   1.5774432759e+01    0.2978015    0.2063233  78.67  0.001078137    2.173    0.540
       131  -9.1282    237.1660    197.7394   3.7495805963e+01  -1.1919741150e+00     0.375888     0.134591 -36.11   0.00165463    2.565    0.610
       132  -8.5567    177.0939    198.6966   4.8632953256e+01   7.3464204783e+00    0.2070148    0.1729061 -45.52 0.0005735383    1.414    0.293
       133  -9.0786    112.8346    198.1950   6.2807784070e+01   1.7763688297e+01    0.4108926    0.2355259  63.20  0.001767342    2.466    0.594
       134  -8.8645     88.6946    198.4677   6.8664636414e+01   2.1390977638e+01    0.3531517    0.1975536  67.54   0.00149266    2.375    0.579
       135  -8.4338    202.3072    197.7467   4.3565967524e+01   3.6510313595e+00    0.2052339    0.1886848 -55.42   0.00106465    1.556    0.357
       136  -8.5806     61.0024    196.9324   7.5298627177e+01   2.5561572819e+01    0.3239507    0.1535347  67.31  0.001336865    2.667    0.625
       137  -9.6242    245.8537    193.4200   3.5361930737e+01  -1.7336112284e+00    0.2880155     0.235351 -52.33  0.001560338    1.989    0.497
       138  -8.8941    215.8073    195.3474   4.0698486859e+01   2.0502438167e+00    0.2532481    0.1559672 -49.45 0.0009997245    2.247    0.555
       139  -8.0626    132.8510    195.7708   5.7758996967e+01   1.5031103065e+01    0.1811111    0.1513037  57.49 0.0005007971    1.296    0.228
       140  -8.9400    224.5752    193.7406   3.8893223292e+01   1.0494545065e+00    0.2879743    0.1277314 -42.14  0.001151621    2.425    0.588
       141  -8.9001    185.0249    194.6015   4.6339127817e+01   6.7813331598e+00    0.2140742    0.1802167 -52.71 0.0006489786    1.529    0.346
       142  -8.1275    231.1274    194.1476   3.7861753290e+01   9.6215728707e-02    0.1495903    0.1315028 -20.48 0.0004482096    1.298    0.230
       143  -8.6389    160.6432    193.6884   5.1221824621e+01   1.0857077354e+01    0.2432104    0.1891626  74.67  0.001113244    1.997    0.499
       144  -8.6137     76.9160    193.9274   7.1030449280e+01   2.4079703158e+01    0.2124933    0.1708995  56.68 0.0005690242    1.108    0.098
       145  -8.5686     44.3683    193.8298   7.9124421431e+01   2.8306410049e+01    0.3985755    0.1213293  51.58  0.001472746    3.125    0.680
       146  -8.3929    198.8401    191.4785   4.3114834936e+01   5.1446370988e+00    0.2278939    0.1643138 -53.59 0.0008442812    1.913    0.477
       147  -8.3368    172.4791    191.5090   4.8346248779e+01   9.3095092294e+00    0.2052118    0.1297067 -55.32 0.0007312481    2.088    0.521
       148  -9.0829    139.5674    190.4566   5.5366912566e+01   1.4961490577e+01    0.3489918     0.253814  83.93  0.001318567    2.189    0.543
       149  -8.0823    205.1751    191.1447   4.1873663641e+01   4.2367680468e+00    0.1590155    0.1456695 -35.74 0.0007693783    1.356    0.263
       150  -8.2283    179.3744    191.3038   4.6895522024e+01   8.2296665283e+00    0.1687748    0.1241968 -48.17  0.000436401    1.587    0.370
       151 -10.1118     92.3280    188.8857   6.6541553883e+01   2.2936135470e+01    0.9084577    0.2067758  43.51  0.002766471    3.861    0.741
       152  -8.2813    237.0946    188.4908   3.5883879070e+01   7.5443854290e-02     0.179653    0.1316049 -22.46 0.0005085699    1.172    0.147
       153  -9.0514    216.6120    187.8802   3.9227870119e+01   3.0374810985e+00    0.2556567    0.1978026 -45.22 0.0009063414    1.594    0.373
       154  -8.2467    148.4814    188.9780   5.3097316958e+01   1.3752578475e+01    0.1922962    0.1384594 -52.47  0.001010143    1.579    0.367
       155  -8.8395    129.0096    188.2538   5.7469310866e+01   1.7166893212e+01     0.267983    0.1988257 -70.30 0.0007327886    1.688    0.407
       156  -8.7823    191.1984    186.9976   4.3776647526e+01   7.0596506371e+00    0.2477855    0.2109722 -55.04  0.001429626    1.543    0.352
       157  -9.1351    155.8749    187.1144   5.1133316698e+01   1.2859629029e+01    0.2955454    0.1950409 -59.06 0.0008986301    1.953    0.488
       158  -9.3617    120.5112    185.8682   5.9124881947e+01   1.9078234344e+01    0.4369149    0.2518852 -71.95  0.001847909    2.560    0.609
       159  -8.7509     54.7668    186.7608   7.5862066808e+01   2.8669999152e+01     0.410047     0.162028  59.98  0.001502804    3.158    0.683
       160  -8.2977     34.4180    188.1094   8.1141941989e+01   3.0735720716e+01    0.2717764    0.1145263  58.15  0.001182908    2.297    0.565
       161  -8.2559    230.4965    187.0476   3.6705269579e+01   1.1792025895e+00    0.1775413    0.1050211 -33.96 0.0007773683    1.557    0.358
       162  -8.4282    164.8561    186.5746   4.9087637367e+01   1.1447924744e+01    0.2305269    0.1822557 -68.72 0.0007344246    1.777    0.437
       163  -8.9640    109.4737    185.7876   6.1818610883e+01   2.0911613625e+01    0.3616274    0.2237372  64.47  0.001140852    2.106    0.525
       164  -9.3373    249.3330    185.3718   3.3407164048e+01  -1.1118894569e+00    0.2457111    0.1685035 -38.04 0.0008901033    1.545    0.353
       165  -8.6496    202.7822    184.3056   4.1080476767e+01   5.6743142818e+00    0.2086752    0.1643893 -41.33 0.0007182212    1.414    0.293
       166  -8.6056    183.0489    184.7127   4.4974973833e+01   8.7587248873e+00    0.2108299    0.1788783 -48.45 0.0005977117    1.400    0.286
       167  -8.6572     66.5625    184.5537   7.2587253465e+01   2.7642222652e+01    0.3109779     0.158838  62.70 0.0008466287    2.268    0.559
       168  -8.5566    224.0920    183.3485   3.7110630938e+01   2.6220349167e+00    0.2088588    0.1437593 -21.19 0.0005186399    1.304    0.233
       169  -9.0748    210.3090    183.5438   3.9561465651e+01   4.6370208755e+00    0.3242128    0.1794413 -32.22 0.0005778057    1.721    0.419
       170  -8.1291    197.3010    183.6360   4.1989093682e+01   6.6421293872e+00    0.1775349    0.1581092  81.28 0.0006922107    1.734    0.423
       171  -9.0196    174.2591    183.3273   4.6520515303e+01   1.0456102505e+01    0.2681545    0.2244111 -61.35   0.00076706    1.554    0.357
       172  -8.6729     44.2007    182.3335   7.8163279625e+01   3.0985327158e+01    0.2756576    0.1541628  58.35  0.000890176    1.676    0.403
       173  -8.1198      1.8004    183.5803   8.8905943343e+01   3.4842102814e+01    0.1763743   0.08634266  42.79 0.0009472159    1.719    0.418
       174  -9.1964    147.3246    180.2341   5.1845347254e+01   1.5649288279e+01    0.3088777    0.2440776 -82.34 0.0009139939    1.783    0.439
       175  -9.5608     26.0345    179.4299   8.2621841720e+01   3.3638214886e+01    0.5933216    0.2081554  71.48  0.002042027    3.919    0.745
       176  -8.6700    137.4895    178.9685   5.3908497222e+01   1.7615400206e+01    0.2976106    0.2231935  81.79  0.001105561    1.942    0.485
       177  -9.2935    191.3805    178.1503   4.2110840656e+01   8.5092882026e+00    0.2582464    0.2318943  62.80 0.0005679592    1.496    0.332
       178  -8.2659    169.6581    178.5321   4.6607608508e+01   1.2103175818e+01    0.2137407    0.1711659 -69.05 0.0008051957    1.743    0.426
       179  -9.2502    249.1458    176.9388   3.1917581934e+01   5.1231222255e-02    0.3014082    0.1967714 -32.04  0.001205139    1.345    0.257
       180  -8.7320    247.4944    173.5308   3.1543218141e+01   7.4230019325e-01    0.1904843    0.1411802  12.37  9.47364e-05    1.325    0.245
       181  -8.7148    250.5188    172.4918   3.0897715954e+01   4.7743947649e-01    0.1998762    0.1235138 -36.67  0.000532648    1.496    0.332
       182  -8.7039    205.1564    177.6161   3.9398886424e+01   6.3726662690e+00    0.2176573     0.165862 -41.40 0.0006734608    1.415    0.293
       183  -8.8935     36.8462    178.2361   7.9717667756e+01   3.2789248342e+01    0.2433944   0.09633927  60.62 0.0009413742    2.798    0.643
       184  -8.5543    231.1262    176.7800   3.4725092505e+01   2.5702098027e+00    0.2077049    0.1460682 -37.22  0.000619821    1.418    0.295
       185  -8.5709    217.4282    176.9160   3.7067774264e+01   4.5782177762e+00    0.2104756    0.1644489 -41.15 0.0005113224    1.420    0.296
       186  -9.2150    182.9605    175.9379   4.3365186840e+01   1.0297434467e+01    0.2793291    0.1911599 -47.89 0.0005598782    1.633    0.388
       187  -8.3750    129.0246    176.9875   5.5591487756e+01   1.9500470071e+01    0.2283307     0.171638  73.47 0.0007857803    1.744    0.427
       188  -7.9312     97.4933    177.4655   6.3603550966e+01   2.4692406360e+01    0.1412307    0.1329004  37.74 9.806777e-05    1.087    0.080
       189  -8.2773     88.8402    176.6893   6.5749156242e+01   2.6233372715e+01    0.2639514    0.1685448  73.80  0.000860861    1.983    0.496
       190  -9.0022     58.7479    175.3595   7.3603687193e+01   3.0851509640e+01    0.5182943    0.2248378  67.28  0.001775903    3.579    0.721
       191  -8.8096     55.7474    170.5000   7.3862842529e+01   3.2413441449e+01    0.4239502    0.1989989  67.99  0.001602976    2.875    0.652
       192  -9.0262     13.0252    176.7162   8.5774435917e+01   3.5497769589e+01    0.2751499    0.1073652  68.08  0.001159631    2.593    0.614
       193  -9.3305    158.6953    174.6867   4.8272425539e+01   1.4738787527e+01    0.3781842    0.2812579 -89.70  0.001125221    2.287    0.563
       194  -9.1153    104.1215    174.5792   6.1441494400e+01   2.4268869263e+01     0.482226    0.2188236  56.41  0.001601155    3.138    0.681
       195 -10.3286     75.9248    170.8702   6.8388187575e+01   2.9552648542e+01     1.078938    0.4534578 -82.55  0.003163323    4.887    0.795
       196  -8.3616    224.3426    174.0725   3.5346961536e+01   3.9684605545e+00     0.178965    0.1376728 -27.56 0.0006348024    1.180    0.153
       197  -9.5323    175.7570    172.1962   4.4129751175e+01   1.2206831916e+01    0.3191051    0.2502714 -40.87 0.0009797998    1.320    0.242
       198  -8.1489    143.0213    172.5063   5.1447897960e+01   1.7962097587e+01    0.1991716    0.1165638  58.18 0.0005294195    2.345    0.574
       199  -8.4165    134.6727    171.5720   5.3266018725e+01   1.9647870663e+01    0.2307584    0.1786828 -81.45 0.0007146567    1.714    0.417
       200  -9.6879    120.8400    169.4899   5.6310673607e+01   2.2550779787e+01    0.5851677    0.3519085 -82.05  0.001897787    3.037    0.671
       201  -8.6213     45.0313    171.1443   7.6864258719e+01   3.3570251029e+01    0.3252096    0.1753263  67.52  0.001477593    1.984    0.496
       202  -8.4715    237.1636    169.3103   3.2354357406e+01   2.7887936065e+00    0.2132453    0.1399284 -23.35 0.0006612021    1.334    0.251
       203  -8.8896    230.6198    169.9997   3.3535410665e+01   3.6444724162e+00    0.1823807    0.1356491 -25.38 0.0005670616    1.165    0.141
       204  -8.4268    205.8503    170.1055   3.7838935599e+01   7.4802352659e+00    0.1883468    0.1714548 -42.13 0.0006116747    1.302    0.232
       205  -8.3924    198.0915    169.9961   3.9262400803e+01   8.7759978299e+00    0.1906781    0.1679743 -84.01 0.0005858003    1.692    0.409
       206  -8.0517    244.4060    169.2002   3.1209053578e+01   1.7751445050e+00    0.1646969   0.09816452 -40.61 0.0005653449    1.667    0.400
       207  -9.1687    167.0125    168.4312   4.5258467735e+01   1.4456701545e+01    0.3372696    0.2354045  63.51  0.001193958    2.070    0.517
       208  -8.4912    149.7842    169.1861   4.9253646629e+01   1.7419948075e+01    0.2131392      0.19143  69.19 0.0006659197    1.296    0.229
       209  -8.5264    218.7948    168.1169   3.5156572806e+01   5.7327696517e+00    0.1832696    0.1626461 -35.29 0.0005436106    1.265    0.209
       210  -8.9989    191.9025    166.4612   3.9758985669e+01   1.0429928744e+01    0.2737598    0.1824654 -40.97  0.000523154    1.500    0.333
       211  -8.4453    111.6869    167.1672   5.8249870373e+01   2.4669368584e+01    0.2308758    0.1826978  85.27  0.001095315    1.506    0.336
       212  -8.3363    184.9978    166.0491   4.1041820951e+01   1.1701751006e+01    0.1971335    0.1693671 -73.56  0.000493519    1.610    0.379
       213  -9.4074    137.5468    164.7253   5.1299246178e+01   2.0576845005e+01    0.6742281    0.2779713  53.58  0.002102025    3.758    0.734
       214  -9.8413     95.0151    162.7818   6.1950623796e+01   2.8513207017e+01    0.8123875     0.413852  72.16  0.002344684    4.840    0.793
       215  -9.0810     20.8574    166.1956   8.3012787228e+01   3.7317719252e+01    0.3435498   0.09033039  43.16  0.001305511    3.008    0.668
       216  -8.0952    233.8414    164.7798   3.2019734802e+01   3.9432615954e+00    0.1590849    0.1357525 -39.36 0.0004702319    1.337    0.252
       217  -8.7022    212.9666    163.4444   3.5259957742e+01   7.4059612694e+00    0.2278521     0.169507 -46.55 0.0005198302    1.508    0.337
       218  -8.7445    159.5183    164.0080   4.6039621636e+01   1.6676753831e+01    0.2595609    0.1980639  57.00 0.0008127857    1.534    0.348
       219  -9.2163     33.7095    163.1727   7.9212027083e+01   3.6791477385e+01    0.5621221    0.1423445  48.56  0.001849572    3.777    0.735
       220  -8.8966    246.2059    162.8767   2.9746170963e+01   2.4214716672e+00      0.17619    0.1429284 -30.98 0.0005431091    1.205    0.170
       221  -8.4922    204.7933    162.5293   3.6545960707e+01   8.9081400425e+00    0.2408083    0.1681468 -35.75 0.0005013067    1.354    0.262
       222  -9.5431      3.8619    162.4444   8.7348232857e+01   3.9650896116e+01    0.3871606    0.1621288  51.92   0.00161552    2.094    0.522
       223  -9.0545    177.3549    160.4084   4.1472291772e+01   1.4098177680e+01    0.2679041    0.2339635 -74.86 0.0007988238    1.498    0.333
       224  -8.7309    151.4821    160.6009   4.7191772871e+01   1.8853322660e+01    0.2966909    0.2268497 -89.94 0.0009097532    1.957    0.489
       225  -8.7529    227.3832    158.9919   3.1937167922e+01   5.8073189858e+00    0.2895654    0.1831452 -53.16  0.001038371    2.164    0.538
       226  -8.3351     60.7532    160.1630   7.1183827274e+01   3.4306017323e+01    0.2591836    0.1238746  64.15 0.0009510482    2.806    0.644
       227 -10.0823    249.6976    157.2174   2.8153659960e+01   2.7324363536e+00    0.3483686    0.2700054 -54.22  0.001475078    1.768    0.435
       228  -8.5117    236.9934    158.7291   3.0355047646e+01   4.3729583284e+00    0.1716045    0.1448805 -12.62 0.0005043712    1.037    0.035
       229  -8.1101    128.3505    159.0864   5.2493593948e+01   2.3493893930e+01    0.2061285    0.1401637 -65.98 0.0006697261    1.777    0.437
       230  -9.3732    105.6428    157.8214   5.8202134459e+01   2.7881222594e+01    0.4208904     0.260442  70.45  0.001153935    2.376    0.579
       231  -8.5501    196.6376    157.6697   3.7086311289e+01   1.1138290930e+01    0.2371305    0.1912667 -77.11 0.0008464205    1.917    0.478
       232  -9.2407    167.5789    157.1854   4.2889216337e+01   1.6518064944e+01    0.3083145    0.2372476 -65.47 0.0009820129    1.684    0.406
       233  -8.6657    218.0897    156.3848   3.2968593099e+01   7.7070441532e+00    0.2548917      0.15346 -49.52 0.0007679038    1.970    0.492
       234  -8.2788    188.0426    157.3195   3.8677840825e+01   1.2728469828e+01    0.1882537    0.1758522  -2.10 0.0004707266    1.038    0.037
       235  -9.1336     81.3904    155.1598   6.4516164799e+01   3.2552081571e+01    0.4030841    0.3614725  86.48  0.001557068    1.091    0.083
       236  -8.9565    157.4513    155.8140   4.4854058393e+01   1.8701605571e+01    0.2723011     0.206221 -69.66 0.0008315598    1.753    0.430
       237  -9.1681    119.4842    155.0139   5.3987604847e+01   2.6046087056e+01    0.3863566    0.2610554  87.39  0.001366764    2.316    0.568
       238  -8.7334     49.5213    155.2278   7.3811759545e+01   3.6986240947e+01     0.371559    0.1458113  53.54  0.001347548    2.868    0.651
       239  -8.2409    204.5413    155.0729   3.5088202825e+01   1.0206954846e+01    0.2038675    0.1228502 -37.57 0.0006792041    1.555    0.357
       240  -8.6164    144.6513    154.6934   4.7607904105e+01   2.1375135787e+01    0.2836089    0.2105886  81.88  0.001002996    2.002    0.500
       241  -8.1100    232.9863    153.7944   3.0013690452e+01   5.7303352972e+00    0.1779885    0.1497443 -85.56  0.000898579    1.967    0.492
       242  -9.6214    132.8199    152.7003   5.0104700316e+01   2.4065211986e+01    0.4293626    0.3084291  72.83  0.001028188    1.920    0.479
       243  -8.7792    133.5787    148.1812   4.8984251843e+01   2.4917988780e+01    0.3425537    0.2253594 -35.76  0.001010979    1.721    0.419
       244  -8.7652     68.0403    153.8268   6.8182334930e+01   3.4882772962e+01    0.3233398    0.1804662  66.43  0.001094525    2.258    0.557
       245  -9.1311      2.6389    150.9218   8.7023465615e+01   4.2551439859e+01    0.3019088    0.1477302 -83.37  0.001497145    1.763    0.433
       246  -9.1911    243.2837    149.9796   2.7690943496e+01   4.7244351565e+00    0.2591619    0.1231174 -35.40  0.001303633    1.783    0.439
       247  -8.1724    182.4035    151.1521   3.8523478946e+01   1.4890438061e+01    0.1941221    0.1297296 -51.47 0.0008482428    1.675    0.403
       248  -8.4041    162.6570    150.5947   4.2595850227e+01   1.8754320877e+01    0.2379386    0.1790447 -65.86 0.0008840365    1.704    0.413
       249  -8.2863     98.7054    150.7953   5.8834236412e+01   3.0763399977e+01    0.2120561    0.1681537  73.41  0.000859774    1.394    0.282
       250  -9.6512     29.5377    150.6394   7.9199964984e+01   4.0362687893e+01    0.3966233    0.1869208  59.71  0.001700349    2.235    0.553
       251  -9.3648    248.9419    149.0783   2.6691519238e+01   4.0127519811e+00    0.2880812    0.1489065 -33.78 0.0007473097    1.611    0.379
       252  -7.7671    237.2463    149.9773   2.8597047633e+01   5.6479816436e+00    0.1627332   0.09221093 -34.57 0.0004300977    1.516    0.340
       253  -8.4079    213.0642    149.7931   3.2491582802e+01   9.6245837610e+00    0.1872397    0.1737882 -42.13 0.0004944968    1.221    0.181
       254  -8.9448    189.4639    149.8906   3.6853968862e+01   1.3811496414e+01    0.2441929    0.2144953 -70.32 0.0007789631    1.447    0.309
       255  -8.3869    198.8856    148.8972   3.4849211260e+01   1.2269933168e+01    0.1986374    0.1677537 -71.46  0.000554096    1.604    0.376
       256  -9.7632     89.3101    146.1724   6.0676149091e+01   3.3494117054e+01    0.6957576    0.3785204  88.15  0.002200677    3.854    0.741
       257  -9.4156     39.9128    147.8557   7.5787014130e+01   3.9983942246e+01    0.5140075    0.2288127  59.76  0.001992886    2.646    0.622
       258  -8.6496    233.5799    147.1324   2.8591402790e+01   6.6575515787e+00    0.2762213    0.1080724 -36.46  0.001208557    2.219    0.549
       259 -10.4911    148.9346    145.0549   4.4559831430e+01   2.2580929462e+01    0.6112327    0.4229398  88.16  0.001759429    2.562    0.610
       260 -10.0819     55.2041    144.8140   7.0716851472e+01   3.8926209382e+01    0.7742805    0.3335839  63.24  0.002483965    3.758    0.734
       261  -8.3193    223.2688    146.8900   3.0179880838e+01   8.3739089546e+00    0.1809455    0.1478145 -23.55 0.0003723305    1.067    0.063
       262  -9.5400    139.2263    144.9232   4.6883510268e+01   2.4529831127e+01    0.4634559    0.3214332  87.30  0.001436198    2.412    0.585
       263  -9.9648    106.5409    144.2931   5.5385707226e+01   3.0932521521e+01    0.7102697     0.396839  69.95  0.002154558    3.451    0.710
       264  -9.4605     13.2580    146.1633   8.3625237938e+01   4.2947536402e+01    0.3095469    0.1710374  58.68  0.001555074    1.718    0.418
       265  -7.8002    206.5374    146.4620   3.2944841825e+01   1.1321900825e+01    0.1345623    0.1220007 -21.47 0.0008079027    1.042    0.040
       266  -8.0764    175.7527    145.9871   3.8788032040e+01   1.7127582732e+01    0.2228452    0.1657939 -71.29 0.0009055699    1.941    0.485
       267  -8.3367    240.3820    145.1780   2.7169403289e+01   5.8846495133e+00    0.1730974    0.1005849 -41.72 0.0003591062    1.607    0.378
       268  -8.8577    247.1775    143.5866   2.5865001775e+01   5.0782154061e+00    0.2234287     0.144502 -32.61  0.000598227    1.285    0.222
       269  -8.9639    165.4561    143.8274   4.0521490224e+01   1.9560187883e+01    0.2620393    0.2280385  84.47 0.0006924575    1.434    0.303
       270  -9.6081    124.8220    142.5068   5.0045590996e+01   2.7895462659e+01    0.4618916    0.3181754  88.64  0.001622529    2.275    0.560
       271  -7.6140    194.2886    143.6691   3.4601022478e+01   1.4038009912e+01    0.1342392    0.1104489 -70.62  0.000409911    1.622    0.384
       272  -8.4804    182.0222    141.3600   3.6495127020e+01   1.6793778100e+01    0.2428698    0.1972341 -66.41 0.0006610626    1.541    0.351
       273 -10.0957     69.6143    141.0416   6.5686310354e+01   3.7895392780e+01    0.4248576    0.2862526  78.84  0.001930048    1.756    0.431
       274  -9.3432      3.0896    141.9672   8.6331482994e+01   4.4744724049e+01    0.2920236    0.1294204  60.02 0.0009386169    2.188    0.543
       275  -9.7669     23.2891    137.7449   7.9801876550e+01   4.4248750345e+01    0.5023358    0.2068988  60.42  0.001937389    2.842    0.648
       276  -7.7072    218.5236    138.4607   2.9204839988e+01   1.0549136282e+01    0.1325493    0.1175131 -28.02  0.000282093    1.053    0.050
       277  -8.3571    207.7882    138.0567   3.0937790572e+01   1.2532319455e+01    0.2065063    0.1763124 -56.89 0.0007567147    1.356    0.263
       278  -8.7177    197.4935    137.4038   3.2642982784e+01   1.4555359838e+01    0.2541831     0.209802 -58.43 0.0008141944    1.408    0.290
       279  -8.7097    171.8805    137.7977   3.7800299663e+01   1.9474883101e+01    0.2868357    0.1965616 -54.40 0.0007186324    1.633    0.388
       280  -8.9350    248.4515    134.9486   2.3964534901e+01   6.1557155854e+00    0.2690279    0.1478692 -35.50  0.000835209    1.504    0.335
       281  -8.5075    162.5103    136.1041   3.9451999173e+01   2.1703931174e+01    0.2329659    0.2079863  89.60 0.0007105441    1.326    0.246
       282  -9.9218    242.6766    139.4359   2.5681900305e+01   6.3889115576e+00    0.5893294       0.1715 -42.42  0.002222992    3.251    0.692
       283  -9.0476     39.3140    136.0652   7.4506045823e+01   4.3093077006e+01    0.2861449    0.1517717  48.56 0.0006517121    1.886    0.470
       284  -7.7149    187.7022    135.3226   3.4035609585e+01   1.6813560975e+01    0.1392134    0.1131757 -73.86 0.0003919493    1.623    0.384
       285 -10.1792     83.5155    133.1536   5.9946800598e+01   3.7716807588e+01    0.5242432    0.3298941 -78.71  0.001375246    1.961    0.490
       286  -8.6439    179.3438    133.7679   3.5344354154e+01   1.8759041059e+01    0.2716189    0.2071274 -60.59 0.0008172827    1.553    0.356
       287  -8.0527    231.4681    133.5388   2.6128730953e+01   9.1177316586e+00    0.1302261    0.1106807 -23.84 1.145385e-05    1.021    0.021
       288 -10.0483    132.1894    130.9512   4.5553917938e+01   2.9042349168e+01    0.5995427    0.3769013 -75.17  0.001592726    2.628    0.620
       289  -8.7983    112.7820    132.9114   5.1240342864e+01   3.2472184318e+01    0.3267171     0.232075  70.49 0.0009949449    1.800    0.445
       290  -8.6104    250.7892    129.9275   2.2636809597e+01   6.5315996031e+00    0.3471423   0.08632097 -34.42  0.001230675    3.521    0.716
       291  -9.8662     13.2042    129.3767   8.2198698729e+01   4.7227701045e+01    0.5148549    0.1988875  55.24  0.001929114    2.825    0.646
       292  -8.1537    247.0037    129.9553   2.3154932656e+01   7.1232147137e+00    0.1906063    0.1313462 -52.02  0.000598759    1.647    0.393
       293  -8.2598    204.5180    129.9568   2.9740561848e+01   1.4535853371e+01    0.2113308    0.1255722 -40.30 0.0006692554    1.551    0.355
       294  -8.0728    192.6468    129.8613   3.1866519674e+01   1.6844443412e+01    0.2043925    0.1225409 -47.90 0.0005299902    1.705    0.413
       295  -9.1913    168.3023    129.2193   3.6602503572e+01   2.1894796397e+01     0.312891    0.2418966 -68.70 0.0008144984    1.620    0.383
       296  -9.4687    152.9438    128.9000   3.9965800208e+01   2.5167404653e+01    0.4138784    0.2330272 -55.00 0.0007981412    2.038    0.509
       297  -9.9664     99.2922    127.7232   5.4005781644e+01   3.6287142735e+01    0.6074516      0.38416  84.35  0.001643943    2.669    0.625
       298  -9.3218     73.2636    129.4943   6.2463391815e+01   4.0299629046e+01    0.3256284    0.2259322  72.29 0.0009188704    1.716    0.417
       299  -9.2307    143.1683    131.6523   4.2948829689e+01   2.6621197300e+01    0.3377118    0.2450739 -78.64 0.0007854912    1.951    0.488
       300  -7.7237    220.3291    129.6948   2.7043154858e+01   1.1668115172e+01    0.1293744    0.1018454 -65.62 0.0004343967    1.654    0.395
       301  -8.1501    211.6647    129.1165   2.8332866111e+01   1.3341256920e+01    0.2179227    0.1526407 -51.99   0.00113169    1.558    0.358
       302 -10.5812     45.5375    124.0091   7.0695099207e+01   4.5532715571e+01     1.210863    0.5450413  70.12  0.003688481    4.328    0.769
       303  -8.0286      1.3749    129.7125   8.6011465112e+01   4.7937707588e+01    0.1392269   0.07810878  57.84 0.0007018846    1.722    0.419
       304 -10.2953     60.3144    125.0689   6.5879590133e+01   4.3352853341e+01    0.7090597    0.3955666  73.94  0.002662404    2.700    0.630
       305  -9.7867    117.7504    124.9964   4.8043155495e+01   3.3352411679e+01     0.574658    0.3674341  73.62  0.001372344    2.513    0.602
       306  -7.8266    228.4060    125.2268   2.4834701149e+01   1.0959136656e+01    0.1914562    0.1073498 -43.87 0.0009465357    1.657    0.396
       307  -8.9811    179.1509    124.4010   3.3222839023e+01   2.0584043790e+01    0.2843104    0.2211625 -59.99 0.0004538326    1.457    0.314
       308 -10.0973     28.6613    122.4910   7.6260001225e+01   4.7718334757e+01    0.6688288    0.2872558  69.46  0.002291447    3.570    0.720
       309  -7.5161    244.0000    123.9399   2.2332172010e+01   8.5096735259e+00    0.2098393   0.06109994 -36.14 0.0006894513    2.862    0.651
       310  -8.0324    188.5834    123.8029   3.1244738815e+01   1.8763198569e+01    0.2058757    0.1279813 -49.39  0.000567453    1.662    0.398
       311  -9.6757    158.5771    121.4224   3.6884285203e+01   2.5519761804e+01     0.383832    0.2802732 -81.10  0.001066048    1.995    0.499
       312  -7.6802    202.7105    121.7199   2.8205604446e+01   1.6318912635e+01    0.1348025    0.1060246   0.77 0.0002727415    1.524    0.344
       313  -8.7257    171.8771    121.1799   3.3944534235e+01   2.2728355839e+01    0.2235037    0.1988763 -68.28 0.0004768505    1.235    0.190
       314  -9.8792    141.4803    117.8514   4.0043938602e+01   2.9967618498e+01    0.6148471    0.3106171 -55.17  0.001517197    2.318    0.569
       315  -9.8011    130.9671    118.4036   4.2864061327e+01   3.2109960181e+01      0.52508    0.3456797 -83.86  0.001411053    2.650    0.623
       316  -8.9604     71.1769    119.9044   6.1241004712e+01   4.3084440933e+01    0.3300889    0.2002511  68.71  0.001079411    2.289    0.563
       317  -9.8488      3.0651    117.2673   8.4477180886e+01   5.1002997777e+01    0.5160004    0.2043543  62.51  0.002068704    2.905    0.656
       318  -8.0748    231.5499    117.4759   2.2709218855e+01   1.1631743638e+01    0.1318731    0.1116034 -39.35 0.0008068962    1.077    0.071
       319  -8.2304    185.6093    115.7316   2.9906603113e+01   2.0865899607e+01    0.2021003    0.1293629 -48.03 0.0004587916    1.553    0.356
       320  -9.7194    109.3897    114.1361   4.7802904946e+01   3.7598725563e+01    0.5152887    0.3381161 -79.00  0.001335576    2.287    0.563
       321  -8.4567    176.6928    115.2731   3.1532841551e+01   2.2842175469e+01    0.2327425    0.2048412 -66.99  0.000516599    1.235    0.190
       322  -8.6304    174.7058    111.3790   3.0975150039e+01   2.4014184037e+01    0.3092042    0.1840654 -55.64 0.0007530576    1.953    0.488
       323  -8.3667     83.9292    122.3162   5.7577518584e+01   4.0381048419e+01    0.2152823     0.192456  36.56 0.0005633888    1.149    0.130
       324  -8.3850    167.3255    114.0686   3.3164962106e+01   2.5100902500e+01    0.2161808    0.1868332 -46.80 0.0005011857    1.131    0.116
       325  -9.8718     92.7216    112.5551   5.2522176038e+01   4.1233824346e+01       0.4632    0.3169324 -74.40  0.001374835    1.789    0.441
       326  -9.7524     79.1246    112.4503   5.6947259284e+01   4.3686663929e+01    0.5216089    0.3359258  81.43  0.001703249    2.362    0.577
       327  -9.6426    121.9178    112.4774   4.3805300326e+01   3.5376042730e+01    0.3267973    0.2277023 -59.33 0.0005249799    1.554    0.357
       328  -8.8623    159.0670    111.7640   3.4377292870e+01   2.7375754890e+01    0.2734055    0.2140165 -45.91 0.0006646167    1.255    0.203
       329  -9.7998     14.5181    111.5377   7.9875604468e+01   5.1739773948e+01    0.3468309    0.1679678  53.52  0.001499313    2.268    0.559
       330  -9.3160     66.4212    110.3448   6.0839584241e+01   4.6267383580e+01    0.4012805    0.2705466  76.28  0.001740524    1.948    0.487
       331  -9.8094    133.4653    108.6462   3.9717265665e+01   3.3721023753e+01    0.4764177    0.2822891 -47.21   0.00157447    1.690    0.408
       332 -10.7456    248.8818    105.5814   1.7873162899e+01   1.0436540251e+01     0.634751    0.2128893 -33.78  0.002609907    2.577    0.612
       333  -8.2773    193.0259    115.0210   2.8365011903e+01   1.9453289320e+01    0.2206434    0.1659606 -65.82 0.0004753341    1.625    0.385
       334 -10.3635    108.9012     98.7183   4.3880867789e+01   4.1283433956e+01    0.7260283    0.4277117  68.98  0.001338624    2.847    0.649
       335 -10.7611     22.7589    102.6828   7.5620492610e+01   5.3402453024e+01    0.6560613     0.344466  68.41    0.0019657    2.436    0.589
       336  -9.5654    150.6191    102.9327   3.3998579459e+01   3.1064923708e+01    0.4958438    0.3013473 -64.52  0.001510928    2.304    0.566
       337  -9.3162    139.7840    104.4069   3.6989672299e+01   3.3219193002e+01    0.3635057    0.2692135 -74.09 0.0009270415    1.723    0.420
       338 -10.2791     45.6560    102.0375   6.6699747944e+01   5.1246679984e+01     0.825794    0.4164761  69.26  0.002764566    3.687    0.729
       339  -8.6201    166.8240    104.1169   3.0752587394e+01   2.7154593354e+01    0.2336919    0.2004672 -70.60 0.0006054313    1.268    0.211
       340 -10.0497    128.5575    101.7547   3.9159167129e+01   3.6312457384e+01    0.4310429    0.3119821 -73.72   0.00103779    1.791    0.442
       341  -8.4985      6.9928    103.0558   8.1673441258e+01   5.4415345392e+01    0.2182546     0.133373  62.76 0.0006757927    1.741    0.426
       342  -8.0504    175.6194    101.8388   2.8395190409e+01   2.5615935166e+01    0.2175753    0.1302412 -49.47 0.0005020726    1.689    0.408
       343  -8.4957    159.9738    100.9825   3.1388539447e+01   2.9318547822e+01    0.2446074    0.1834815 -74.19 0.0006025832    1.673    0.402
       344  -8.9132     82.1914     99.9378   5.2831309077e+01   4.6257109569e+01    0.3751777    0.2468592 -87.30   0.00101031    2.344    0.573
       345  -8.9585     95.0123     96.9231   4.7723879301e+01   4.4552876814e+01    0.3209827    0.2444675 -66.98 0.0005603834    1.448    0.310
       346  -9.8038     63.9564     95.8193   5.8340629367e+01   5.0321749688e+01    0.5469118    0.3374856  81.61  0.001631951    2.748    0.636
       347  -8.2300    164.9481     93.9908   2.8478786253e+01   2.9521416494e+01    0.2397137    0.1785004 -71.14 0.0005887663    1.621    0.383
       348  -7.5952    188.6782     93.3513   2.3832965372e+01   2.4243846880e+01    0.1543379    0.1079822 -67.85 0.0007048048    1.749    0.428
       349  -8.2366    176.4788     93.0242   2.5953621450e+01   2.7047502414e+01    0.2255155    0.1394438 -41.84 0.0004704278    1.534    0.348
       350  -9.2170    139.0229     92.1447   3.3796987958e+01   3.5942255234e+01    0.3650348    0.2556738 -81.72 0.0008016566    2.068    0.516
       351  -8.5803    120.5108     93.0120   3.8898423144e+01   4.0013183098e+01    0.2477715    0.1549507 -43.99  0.001037704    1.609    0.379
       352  -8.2294    107.0752     92.6600   4.2715267553e+01   4.3042370069e+01    0.2205203    0.2039696  41.52 0.0006329151    1.092    0.084
       353  -8.0912    189.3414    108.1037   2.7374024361e+01   2.1471927851e+01    0.2118508    0.1217659 -47.61 0.0006563511    1.717    0.417
       354  -8.1036    157.8462     91.7676   2.9366501977e+01   3.1601015472e+01     0.211174    0.1741157 -68.70 0.0005357973    1.313    0.239
       355  -9.7006    124.5247     90.6741   3.7116656017e+01   3.9603208735e+01    0.4029792    0.2936556 -68.13 0.0007810603    1.663    0.399
       356  -9.3448      5.1759     91.8324   8.1059744273e+01   5.7380977237e+01    0.2724736    0.1606109  61.58 0.0009747341    1.898    0.473
       357  -8.4644     47.4565     92.0000   6.3826818759e+01   5.3592161122e+01    0.3095452    0.0829828  28.13 0.0009407526    3.983    0.749
       358  -8.7353     23.8617     89.7325   7.3044067144e+01   5.6645115302e+01    0.3039061    0.1685522   9.74   0.00140291    2.216    0.549
       359  -8.3195    150.9938     88.9847   3.0094850952e+01   3.3752940238e+01    0.2450409    0.1832177 -72.26 0.0004642736    1.618    0.382
       360  -9.8139     86.5597     86.4692   4.7570362178e+01   4.8646661600e+01     0.507983    0.3486294  85.31  0.001286508    2.353    0.575
       361  -7.9073    164.0052     86.9742   2.6767334444e+01   3.1054870288e+01    0.1873976     0.166372 -46.27 0.0004368768    1.094    0.086
       362  -9.5462     48.7500     84.3123   6.1437981795e+01   5.5350258622e+01    0.5286419    0.3078341  66.46   0.00184269    2.790    0.642
       363  -8.3299    157.8177     83.7574   2.7144628353e+01   3.3121439971e+01    0.2620271    0.1846581 -38.25 0.0005649044    1.413    0.292
       364  -9.5835    104.7969     82.9408   4.0511575364e+01   4.5676452168e+01     0.407607     0.294522 -74.44 0.0008647453    1.838    0.456
       365  -9.1253    140.9212     82.6517   3.0591336291e+01   3.7383465561e+01    0.3016154    0.2222012 -52.36 0.0007126832    1.387    0.279
       366  -7.7776     64.2548     82.6119   5.4701239912e+01   5.3509198391e+01    0.1496025    0.1149251  87.73 0.0005503685    1.679    0.404
       367  -9.3656     24.6763     80.7134   7.0959264858e+01   5.8858000839e+01    0.3990641    0.2409309  75.27  0.001191857    2.241    0.554
       368  -9.2639     10.0165     80.9153   7.7477030885e+01   5.9867740848e+01    0.3444575    0.1610007  54.26  0.001462661    2.773    0.639
       369  -8.1920    150.4764     80.4792   2.7777742343e+01   3.5497400363e+01    0.2668599    0.1346008 -49.68 0.0006867714    2.103    0.524
       370  -8.6020     74.9440     80.4701   4.9959624765e+01   5.2200079280e+01    0.2852283    0.2080926 -71.48 0.0008263072    1.657    0.396
       371  -8.5261    119.5014     80.0723   3.5308943349e+01   4.2966383841e+01    0.2356959    0.1523765 -46.93  0.001011035    1.565    0.361
       372  -8.2253    166.8079     79.3792   2.4114011252e+01   3.1765635113e+01    0.2077568    0.1749302 -50.48 0.0004947932    1.144    0.126
       373  -8.0181    184.3981     77.8210   2.0542491001e+01   2.7884536189e+01    0.2029454    0.1372105 -25.79 0.0008908697    1.661    0.398
       374  -7.8798    157.3895     76.2129   2.5080227205e+01   3.4603105066e+01    0.2184002    0.1340757 -49.05 0.0004785579    1.640    0.390
       375  -9.1744    128.0649     75.1284   3.1479400694e+01   4.1928529835e+01    0.3357105     0.236488 -56.70 0.0005576519    1.549    0.355
       376  -8.4568    140.4745     75.0826   2.8430865633e+01   3.8934605615e+01    0.2296028     0.149348 -42.99 0.0006090134    1.531    0.347
       377  -9.7692     62.9360     73.6529   5.2560032386e+01   5.5827473057e+01    0.4137008    0.2872435 -65.91  0.001161102    1.639    0.390
       378  -9.5388     82.6034     72.5772   4.4630964045e+01   5.2536309931e+01    0.4239103     0.298914 -78.55  0.001206181    2.107    0.525
       379  -8.3656    163.4266     72.8533   2.2920869913e+01   3.3727072632e+01    0.2857485    0.1362617 -41.54   0.00100457    2.009    0.502
       380  -8.2243    151.3858     73.1737   2.5437304804e+01   3.6614531222e+01    0.2189974     0.134884 -49.29 0.0005066325    1.652    0.395
       381  -8.5227    115.6157     72.5652   3.4014599507e+01   4.5379710800e+01     0.289986    0.1848671 -45.64 0.0006976008    1.593    0.372
       382  -8.6421    105.9543     71.5296   3.6506243012e+01   4.7807703306e+01    0.2887198    0.2097403 -61.94 0.0007251108    1.605    0.377
       383  -8.9311     95.0493     71.0248   3.9799984310e+01   5.0311886374e+01    0.3517024    0.2147315 -54.68 0.0009531176    1.826    0.452
       384  -9.3140     35.1012     90.2107   6.8465115903e+01   5.5467923221e+01    0.4692926    0.2624074  81.85  0.001613247    2.707    0.631
       385  -9.3514     51.5154     69.5369   5.6117565848e+01   5.8522147801e+01    0.4096031    0.2493339 -76.47  0.001303666    2.452    0.592
       386  -8.8853     16.5532     69.8780   7.2439666226e+01   6.2180482672e+01    0.2468357    0.1908684  65.03  0.001068744    1.523    0.343
       387  -8.7798    147.0856     67.9855   2.4790920443e+01   3.8596303158e+01    0.3007168    0.2098352 -49.74  0.000721401    1.446    0.309
       388  -8.5946    138.7383     65.9212   2.5993854928e+01   4.1030129338e+01    0.2876286     0.195738 -57.21 0.0007044417    1.620    0.383
       389  -8.6746    121.6106     65.8188   3.0163293887e+01   4.5247576148e+01    0.2862974    0.2145813 -68.51 0.0005773978    1.600    0.375
       390  -7.7581    163.6937     65.3312   2.0701133789e+01   3.4938428259e+01     0.157708    0.1096582 -68.75  0.000703878    1.661    0.398
       391  -8.7951    110.0670     63.4264   3.2546132858e+01   4.8442771452e+01    0.2782907    0.2081624 -60.17 0.0004904947    1.522    0.343
       392  -8.3098     37.0938     64.0193   6.1057332485e+01   6.1671467911e+01    0.2118865    0.1646167  70.63 0.0007997302    1.682    0.405
       393  -7.9922    158.2806     61.6669   2.0628854439e+01   3.6885018211e+01    0.1557823    0.1093984 -66.97 0.0002422295    1.611    0.379
       394  -9.0344     97.6621     60.4535   3.5280333065e+01   5.1849978663e+01    0.2831736    0.2395132  70.65 0.0007053022    1.309    0.236
       395  -9.6149     73.3983     59.5958   4.3593498682e+01   5.7058082492e+01    0.4068074    0.2705453 -59.19  0.001150013    1.793    0.442
       396  -9.6540     23.4876     56.2829   6.5605412779e+01   6.4866422125e+01    0.4614313    0.2800882  77.86  0.002006372    2.876    0.652
       397  -9.1800      7.4383     57.0264   7.4261743118e+01   6.5847630988e+01    0.3065533    0.1875812  77.89  0.001053655    2.181    0.542
       398  -8.1652    130.7076     57.2199   2.5031676465e+01   4.4537658537e+01     0.239732    0.1818479 -58.73  0.000572433    1.422    0.297
       399  -8.0531    140.3157     56.1450   2.2521943893e+01   4.2304569016e+01    0.2163154    0.1282635 -45.49 0.0003619077    1.708    0.415
       400  -8.7362    119.1863     55.7013   2.7362182375e+01   4.7648312047e+01    0.3092392    0.2190537 -65.18  0.000785885    1.732    0.423
       401  -8.6538     44.1891     55.6230   5.4937000492e+01   6.2682188714e+01    0.2372883    0.1823288 -62.53 0.0008530602    1.419    0.295
       402  -8.9524     62.9679     54.6369   4.6018293370e+01   5.9973513139e+01    0.2695776    0.2036777 -54.56  0.000701959    1.426    0.299
       403  -8.6125     54.1806     53.4940   4.9470520833e+01   6.1670889479e+01    0.2741551    0.1832797 -66.09  0.001067743    1.976    0.494
       404  -8.3459    105.9124     52.9702   3.0038013417e+01   5.1319363556e+01    0.2372808    0.1816646 -77.57 0.0006318848    1.687    0.407
       405  -9.2623     92.4716     50.3404   3.3209096475e+01   5.4876013405e+01    0.3427412    0.2485959 -57.04  0.001073966    1.623    0.384
       406  -8.4034    145.1595     49.0981   1.9252066821e+01   4.2193623714e+01    0.2090773    0.1636796 -60.67 0.0006677932    1.318    0.241
       407  -8.0893    129.9707     49.1767   2.2483405072e+01   4.6040184429e+01    0.2179861    0.1494188 -54.27 0.0004952017    1.585    0.369
       408  -7.9433    120.6442     47.2062   2.3995813193e+01   4.8693729631e+01    0.2026041    0.1441948 -21.75 0.0008943267    1.652    0.395
       409  -8.4943    112.2046     46.7216   2.5980432035e+01   5.0855618597e+01    0.2532735    0.1935533 -50.57 0.0007436021    1.399    0.285
       410  -8.9942     82.3088     46.4917   3.5185990760e+01   5.7775015465e+01    0.2807963    0.2380556 -73.99 0.0006425618    1.471    0.320
       411  -8.2737     45.2732     44.4235   5.0208706139e+01   6.4887359459e+01    0.2122894    0.1669927 -71.23 0.0007580285    1.693    0.409
       412  -8.6647     16.8245     44.7219   6.5799423849e+01   6.8048470222e+01    0.2162119    0.1597058  80.50 0.0007007934    1.907    0.476
       413  -8.2684    132.8208     42.8068   1.9670279867e+01   4.6290446322e+01    0.2054839    0.1668222 -71.45 0.0003816425    1.316    0.240
       414  -8.6977     58.0958     42.5131   4.3313375345e+01   6.3203435081e+01    0.2620029    0.1951791 -59.70  0.001247563    1.675    0.403
       415  -9.5172      5.3947     41.8506   7.1713722101e+01   6.9454067318e+01    0.3167255    0.2035248  79.13  0.001495898    2.236    0.553
       416  -9.0204     69.6724     41.5036   3.7933722268e+01   6.1241557785e+01    0.2851927    0.2366262 -73.37  0.001084633    1.613    0.380
       417  -8.7217    105.9312     41.1392   2.5574258527e+01   5.3263444926e+01    0.2288237    0.1958979 -76.86 0.0006423996    1.327    0.247
       418  -8.3066     36.8251     40.7946   5.3124532193e+01   6.6786378106e+01    0.1683996    0.1610239  79.01 0.0006020579    1.319    0.242
       419  -8.5305     95.5356     37.9613   2.7325296569e+01   5.6228269851e+01     0.212813    0.1420619 -36.90 0.0006050002    1.566    0.361
       420  -8.2062     80.8098     36.8043   3.1683966610e+01   5.9731731484e+01    0.1884159    0.1685016 -68.98 0.0004890832    1.333    0.250
       421  -9.1969     26.3148     35.4532   5.6883218635e+01   6.9126286401e+01    0.2573256    0.2181331 -81.82 0.0009077092    1.600    0.375
       422  -8.1986    125.9381     35.3369   1.8507026002e+01   4.9115936750e+01      0.20523    0.1792774  64.18 0.0003867641    1.072    0.067
       423  -8.5509    111.7357     34.4013   2.1444188867e+01   5.2831763854e+01    0.2528978    0.1677845 -45.05 0.0006199414    1.614    0.380
       424  -8.3834    119.3735     33.1755   1.9162923020e+01   5.1082343286e+01     0.208549    0.1261054 -44.44 0.0005911438    1.754    0.430
       425  -8.5854     60.6845     32.3678   3.7647949534e+01   6.4533042632e+01    0.2270067    0.1627428 -48.36  0.000626479    1.592    0.372
       426  -8.7785     48.6902     33.1335   4.3615596335e+01   6.6506927531e+01    0.2136738    0.1821685  43.38 0.0005828792    1.303    0.233
       427  -8.6257     72.4785     31.1585   3.2248158028e+01   6.2389989598e+01    0.2125823    0.1925213  80.34 0.0006815988    1.344    0.256
       428  -8.8484     13.0331     30.3967   6.3155497977e+01   7.1416533593e+01    0.2612018    0.1744038 -75.99  0.001352183    2.013    0.503
       429  -8.0998    101.7631     29.5557   2.2095738629e+01   5.5955899321e+01    0.1986583    0.1347876  71.98 0.0009378415    1.617    0.381
       430  -8.8363     81.5883     27.4178   2.7259855905e+01   6.0973892568e+01    0.2863199    0.2081118 -66.20 0.0008751583    1.950    0.487
       431  -9.0722     92.0455     26.4595   2.3528048157e+01   5.8701593258e+01    0.2637298    0.1867266 -49.64 0.0006784771    1.634    0.388
       432  -8.4752      3.6786     27.1355   6.8270536881e+01   7.2734831400e+01    0.1769807    0.1436745 -76.33 0.0007476797    1.454    0.312
       433  -8.3802    120.9923     21.4960   1.4417999161e+01   5.2142258330e+01    0.2038204    0.1892091 -41.29 0.0004722166    1.161    0.139
       434  -8.3408    104.4889     22.5434   1.8502972960e+01   5.6186249195e+01    0.1408775    0.1302104  69.06  7.77094e-05    1.052    0.050
       435  -8.9188     63.7314     21.0763   3.0859097971e+01   6.5668712041e+01    0.2837014    0.1971623 -52.94  0.000861862    1.911    0.477
       436  -8.7854     48.3189     21.3478   3.7979287511e+01   6.8532464312e+01     0.230475    0.2060053 -44.90 0.0008532857    1.340    0.254
       437  -8.0404     34.3287     22.6721   4.6247793971e+01   7.0526856559e+01    0.1177863    0.1047519  77.53 0.0007050937    1.706    0.414
       438  -8.9501     74.1067     19.3348   2.6038814537e+01   6.3717051132e+01    0.2473527    0.1923778 -41.60 0.0006518229    1.446    0.308
       439  -8.0542     87.9796     17.4993   2.0717738742e+01   6.0784697639e+01    0.2038546    0.1279277  60.07 0.0003752987    1.502    0.334
       440  -7.9255    112.8058     16.6123   1.4199584910e+01   5.4780652903e+01    0.1911941    0.1261856  77.33 0.0003826886    1.546    0.353
       441  -8.0109     30.3752     16.1693   4.5146157445e+01   7.2170809478e+01    0.1656061    0.1137351 -48.12 0.0006320245    1.682    0.405
       442  -8.1157     97.3670     15.1624   1.7136111280e+01   5.8792424536e+01    0.1878609    0.1221584 -39.54 0.0005016487    1.682    0.405
       443  -8.0804      7.6831     15.3627   6.0489888784e+01   7.4808712675e+01    0.1094899   0.09367324  65.57 0.0007041447    1.767    0.434
       444  -8.0160     17.3411     13.7139   5.2478006842e+01   7.4203013467e+01    0.1084943   0.09583356  53.19 0.0003038446    1.639    0.390
       445  -7.9459     83.5158     10.5592   1.8750487604e+01   6.2604936625e+01    0.1333833    0.1225681  57.12 0.0001720773    1.077    0.072
       446 -10.1414    223.9966    244.0600   4.7080836966e+01  -5.3863060639e+00     0.410791    0.1985399 -42.68  0.002338522    2.784    0.641
       447  -8.0261    191.7657    249.5802   5.3526180029e+01  -2.1638071098e+00    0.1539943   0.08715571  37.05 0.0005882066    1.655    0.396
       448  -8.2666    184.0015    250.0000   5.5010033275e+01  -1.2348826187e+00    0.1917243   0.05244497  33.64 0.0008035616    2.950    0.661
       449  -9.1124    175.5290    247.4426   5.6257605340e+01   2.0030954121e-01    0.2559422    0.2072553  65.22  0.001135863    2.107    0.525
       450  -8.9576    132.3460    247.8868   6.4796400622e+01   5.9639437574e+00    0.2771967    0.1774704  59.63  0.001124867    2.099    0.523
       451  -8.6000    112.8565    248.2037   6.8804575003e+01   8.5714448251e+00    0.2266244    0.1568748 -78.01  0.001025719    2.039    0.510
       452  -9.3493    103.8783    247.0855   7.0542723284e+01   9.9677219290e+00     0.381821     0.219899 -88.26  0.001941593    2.995    0.666
       453  -8.4489     93.8321    249.2088   7.2813584990e+01   1.0947138540e+01    0.2123928   0.09354587  57.59  0.000952288    2.895    0.655
