#   1 NUMBER                 Running object number                                     
#   2 MAG_AUTO               Kron-like elliptical aperture magnitude                    [mag]
#   3 X_IMAGE                Object position along x                                    [pixel]
#   4 Y_IMAGE                Object position along y                                    [pixel]
#   5 X_WORLD                Barycenter position along world x axis                     [deg]
#   6 Y_WORLD                Barycenter position along world y axis                     [deg]
#   7 A_WORLD                Profile RMS along major axis (world units)                 [deg]
#   8 B_WORLD                Profile RMS along minor axis (world units)                 [deg]
#   9 THETA_WORLD            Position angle (CCW/world-x)                               [deg]
#  10 FWHM_WORLD             FWHM assuming a gaussian core                              [deg]
#  11 ELONGATION             A_IMAGE/B_IMAGE                                           
#  12 ELLIPTICITY            1 - B_IMAGE/A_IMAGE                                       
         1 -11.8550     80.1744     23.3255   6.2976991859e+01   6.1023474286e+01    0.7007886    0.2460209  40.86  0.002788831    2.664    0.625
         2  -9.6414     27.5546     21.3751   8.4325956580e+01   6.9408027474e+01    0.5625332    0.2618111 -22.10  0.002672753    2.472    0.595
         3  -8.9920     46.1712     20.7142   7.5014822716e+01   6.7156074529e+01    0.3907998    0.2039036 -32.86  0.001845413    1.812    0.448
         4  -9.4430      8.4196     19.9230   9.4079092164e+01   7.1363192249e+01    0.4486424    0.3208348 -14.15  0.003145098    1.166    0.143
         5  -8.9999     14.2626     17.9615   8.9935419099e+01   7.1232750490e+01    0.3452718    0.1882178  -0.06  0.001125421    1.940    0.485
         6  -9.2057     63.8626     14.2032   6.4621251272e+01   6.5128680562e+01    0.3762727      0.20964  19.36  0.001538045    1.995    0.499
         7  -9.3262    133.8595     13.5505   4.5825106695e+01   5.0097370371e+01    0.2349873    0.2045569  38.38 0.0002714218    1.136    0.120
         8  -8.5142     74.3228     13.3341   6.0512972872e+01   6.3290073888e+01    0.2280141    0.1750476   6.34 0.0005886639    1.217    0.178
         9  -9.4831     78.7961     12.7023   5.8771400842e+01   6.2482810174e+01    0.4446948    0.2028258  47.04  0.001478884    1.897    0.473
        10  -9.4813     31.7663     10.9499   7.7123182006e+01   7.0424635175e+01    0.3742065    0.1975285  10.63 0.0004666931    2.207    0.547
        11  -9.2665     32.0412      6.0827   7.4442619683e+01   7.1013372921e+01    0.2602572    0.1839658  -4.17 0.0003341966    1.158    0.137
        12  -8.1592     96.8416     12.1990   5.3360679764e+01   5.8774425194e+01    0.2646186    0.1756742  30.32  0.001050327    1.438    0.305
        13  -8.6186    108.4853     10.8672   4.9995120902e+01   5.6305434091e+01     0.299181      0.15358  76.86  0.001232351    2.851    0.649
        14  -8.7597     14.3349     10.8693   8.6574420770e+01   7.2331989052e+01     0.360861    0.1765746  29.79  0.001112187    2.209    0.547
        15  -9.7205     20.6917      8.5980   8.1816886569e+01   7.2032136365e+01    0.2631624    0.1810969  20.41 0.0003752752    1.411    0.291
        16  -8.8906      3.0832      8.1613   9.2013319457e+01   7.3656546392e+01    0.4916462    0.1558849 -27.83  0.002002612    3.837    0.739
        17  -8.5713    125.3123     10.0002   4.6176996383e+01   5.2466385000e+01    0.2428363    0.1630845  51.64 0.0003883113    1.289    0.224
        18  -8.5189    120.9259     13.4655   4.8281039470e+01   5.3187119699e+01    0.1910599     0.176292   4.29 0.0005961874    1.168    0.144
        19  -8.8227     71.4379      8.7542   5.9371999794e+01   6.4310205107e+01    0.2305651    0.1741924  25.46 0.0003726462    1.117    0.105
        20  -8.9361     41.0905      5.9344   6.9980188510e+01   6.9770741832e+01    0.3837045    0.2133124   2.32  0.001649707    2.064    0.515
        21  -9.4011     46.6228      6.2023   6.7635348943e+01   6.8900285650e+01    0.3321989    0.2046265  18.22 0.0002916058    1.501    0.334
        22  -8.6526    119.3007      6.7093   4.6153833464e+01   5.4167741290e+01    0.2340578    0.1839254  43.45 0.0001888411    1.143    0.125
        23  -8.5081     76.2875      6.4958   5.6756038270e+01   6.3582240657e+01    0.2574892    0.2256032  -0.27  0.001726452    1.179    0.152
        24 -10.3107     13.4065      4.4168   8.3826929318e+01   7.3352145885e+01     0.326904    0.2213697  13.77  0.002279273    1.361    0.265
        25  -8.3188     91.9895      5.6424   5.1896655496e+01   6.0412994507e+01     0.264975     0.120298  45.57  0.001264875    1.830    0.454
        26  -9.7317     84.8902      5.4609   5.3738586521e+01   6.1928571969e+01      0.25163     0.209057   4.32  0.001626519    1.194    0.163
        27  -7.5101    131.5121      5.4900   4.3498590585e+01   5.1372847542e+01      0.13127    0.1137322  59.02 0.0001352331    1.001    0.001
        28  -8.0525    125.3321      3.8876   4.4019976829e+01   5.2975845794e+01    0.1704121    0.1539802  31.84 0.0004717549    1.137    0.121
        29  -8.4470    110.2767      1.9767   4.6195305126e+01   5.6638749869e+01    0.2717009    0.2303982 -34.81   0.00173087    1.381    0.276
        30  -8.0565    105.5484      1.5001   4.7002285878e+01   5.7751886131e+01    0.3227911   0.08469079  56.73  0.001238201    2.763    0.638
        31  -8.8961     58.0047      3.2562   6.1491652890e+01   6.7308959074e+01    0.2537794     0.160937  16.82 0.0005249333    1.476    0.322
        32  -7.3927    143.2283      2.0529   4.0521403360e+01   4.8828203214e+01      0.14454     0.109768 -16.67 0.0003145641    1.542    0.352
        33  -8.4667      2.8663      1.7035   8.8929659476e+01   7.4647935482e+01    0.1722083    0.1101946 -16.20 0.0004920313    1.206    0.171
        34  -8.9171    159.6569      1.4002   3.8115764814e+01   4.4896054135e+01    0.2508126    0.1039802  67.17 0.0001339808    2.008    0.502
        35  -8.1295     99.9783    118.8203   8.8321285262e+01   3.9132665602e+01    0.2536502    0.1797615  -0.95  0.001074857    2.054    0.513
        36  -8.9176    238.8852    250.1704   8.2703638094e+01  -9.9760675004e+00    0.2063825    0.1238062  30.24 0.0005149134    1.495    0.331
        37  -9.0411    221.2589    250.5643   8.5911194216e+01  -7.7363178589e+00    0.2886225   0.09026845  41.84 0.0008577662    3.664    0.727
        38  -9.7413    200.1283    250.0651   8.9749362167e+01  -4.7563958640e+00    0.3452719    0.1308335  37.35  0.001123674    2.260    0.558
        39  -9.7219    191.2902    249.7120   9.1375497039e+01  -3.4407893634e+00    0.3237195    0.1597109  31.62  0.001708798    1.699    0.411
        40  -8.5400    169.3912    250.1711   9.5683449229e+01  -2.8397147669e-01    0.1487149    0.1201409 -59.55 0.0009525417    1.723    0.419
        41  -7.3297     39.2828    110.3560   1.0579575238e+02   4.9629856399e+01    0.1447433   0.08698145 -40.83 0.0007017519    1.665    0.399
        42  -8.2999      1.6942    109.8947   1.1785084502e+02   5.2473673739e+01    0.2133249    0.1128524 -56.49  0.001173197    1.524    0.344
        43  -7.9662    133.3869    107.7454   7.5942250862e+01   3.5041674746e+01    0.4716664    0.1486977 -42.64  0.001410339    3.154    0.683
        44  -8.0572    123.8686    107.3496   7.8423383234e+01   3.7144417941e+01    0.3973502    0.2324406   5.08  0.001031968    5.453    0.817
        45  -7.7123    109.2415    106.5963   8.2414820392e+01   4.0256590068e+01    0.2139203    0.1479685  27.24 0.0009418011    1.633    0.388
        46  -9.2441     14.8407    105.1220   1.1299397949e+02   5.2866098287e+01    0.3990141     0.139538 -40.09  0.001576208    3.212    0.689
        47  -8.3074     66.3059    105.1398   9.5655232135e+01   4.7749903324e+01     0.261331     0.172631   5.13 0.0009330776    2.060    0.515
        48  -7.7381     93.0687    103.9893   8.6650362665e+01   4.3842045989e+01    0.2504629    0.1825369 -12.96  0.001131293    1.768    0.435
        49 -10.0940     11.1762     94.9685   1.1264110114e+02   5.5509825164e+01    0.7341026    0.3103126 -23.72  0.003055316    3.489    0.713
        50  -7.6021    131.0435     96.7911   7.3501018190e+01   3.7884356507e+01    0.2094494    0.1253436  46.28 0.0008602229    1.696    0.410
        51  -7.8699    249.6763     95.6731   5.0344787038e+01   1.1879526383e+01    0.1293901    0.1014882  -0.02  0.000704892    1.692    0.409
        52  -7.5496     83.3218     93.3183   8.6886108685e+01   4.7942025386e+01    0.1536355    0.1110909 -16.65 0.0007043362    1.667    0.400
        53  -8.3802     43.6528     91.8489   1.0040895987e+02   5.3641017544e+01    0.3007956    0.2040001   1.63  0.001559616    1.810    0.447
        54  -6.9235    128.2458     91.2436   7.2641074769e+01   3.9643619690e+01    0.1426664    0.1181652   2.98            0    1.399    0.285
        55  -8.1245    110.1678     90.8927   7.7686738745e+01   4.3528085804e+01    0.3060259    0.1990919  16.40   0.00123469    2.182    0.542
        56 -10.2439     99.4134     86.4564   7.9654495311e+01   4.6578812153e+01    0.5328926    0.3162684 -21.38  0.002059715    2.434    0.589
        57  -9.0373    240.1531     96.0024   5.1703853288e+01   1.3681887210e+01    0.2233498    0.1524522 -12.66  0.001086009    1.973    0.493
        58  -8.3359    196.0428     86.1696   5.6205848869e+01   2.4860205978e+01    0.2493394    0.2084738 -35.24 0.0007843077    1.169    0.145
        59  -8.8305     65.7010     84.4181   9.0473364927e+01   5.2644645598e+01    0.4108166    0.2258385 -28.90 0.0005700391    2.239    0.553
        60  -9.2136     34.3123     83.3356   1.0187690701e+02   5.6530379407e+01    0.4373857    0.1861612 -42.73  0.001613552    2.123    0.529
        61  -9.6286     38.7906     80.2412   9.9405859749e+01   5.6812700811e+01    0.3888856    0.2439207  -1.05  0.001001312    1.987    0.497
        62  -8.3545     20.9226     84.7800   1.0725768379e+02   5.7274380906e+01    0.1976008    0.1418137 -42.21 0.0004708983    1.222    0.182
        63  -9.8182      7.5626     77.8823   1.1097577662e+02   5.9670732696e+01    0.7582664    0.2536384 -35.16   0.00309612    3.259    0.693
        64  -8.8407     87.8929     78.9289   8.1077769358e+01   5.0282163363e+01      0.55576    0.3189187  15.52  0.002111355    2.766    0.639
        65  -9.0939     48.4617     77.4062   9.4923978694e+01   5.6415292688e+01    0.4495341    0.2553704  -8.42  0.001922819    2.651    0.623
        66  -7.8023    184.1662     78.1321   5.6201252339e+01   2.9023202271e+01    0.2120137    0.2014716   3.52 0.0005074828    1.156    0.135
        67  -8.6655     29.3564     69.2975   1.0032471124e+02   6.0116876168e+01    0.2816274    0.1570667 -31.09  0.001215502    1.787    0.440
        68  -9.3038     23.9837     73.5348   1.0357656650e+02   5.9612973181e+01    0.5233289    0.1942079 -36.66  0.002126187    2.841    0.648
        69  -8.1416     23.4804     69.4837   1.0278812521e+02   6.0549726443e+01    0.2260793    0.1722605 -59.53 0.0006215501    1.225    0.183
        70  -8.0618     74.9214     74.3110   8.4113268302e+01   5.3435275463e+01    0.1976864    0.1747407  10.78 0.0004764129    1.133    0.117
        71  -8.2197     48.1990     71.3933   9.3304222513e+01   5.7758312326e+01    0.1802968    0.1221281  38.02 0.0009503331    1.718    0.418
        72  -8.2486    106.6525     66.8653   7.1138187937e+01   4.9012340547e+01    0.2914404    0.1893042  23.34  0.001277831    1.872    0.466
        73  -8.8761     83.3576     64.4900   7.7878175707e+01   5.3965167886e+01    0.4402719    0.2657869  14.10  0.001843686    2.355    0.575
        74  -8.9997     18.3461     62.1107   1.0306535447e+02   6.2523882673e+01     0.495379    0.1904657 -28.53   0.00197748    3.329    0.700
        75  -8.0232    147.4194     62.3828   5.9040719903e+01   4.0516275609e+01    0.2729874    0.1992868 -67.29 0.0006194807    1.746    0.427
        76  -9.5384     62.5077     61.1834   8.4411672991e+01   5.7984012742e+01    0.5804507    0.3020609  17.83  0.001643359    2.607    0.616
        77  -8.3071     26.0161     60.6134   9.9349621441e+01   6.2262868731e+01    0.3360303    0.1682546 -31.59   0.00164655    1.982    0.495
        78  -8.7788     11.6912     61.1118   1.0568044911e+02   6.3162339255e+01    0.2082606    0.1686088 -46.47 0.0005853744    1.046    0.044
        79  -9.4918     36.8577     58.7723   9.4126200683e+01   6.1648245642e+01    0.4501071    0.2642696   4.69   0.00183541    2.044    0.511
        80  -7.7830    111.0538     58.4519   6.6967771688e+01   4.9555571441e+01    0.2092014    0.1158223  27.74   0.00051814    2.391    0.582
        81  -7.5610     50.3055     58.6815   8.8441502543e+01   6.0135272500e+01    0.1203425    0.1076633  86.42 0.0003577755    1.631    0.387
        82  -9.2080     99.6282     54.9860   6.9158789699e+01   5.2546001181e+01    0.3546946    0.2575872 -25.93 0.0007966011    1.396    0.284
        83  -9.6714     74.9713     50.5804   7.5864264676e+01   5.7957998938e+01    0.3872927    0.2648908  -3.66   0.00043573    1.714    0.417
        84  -8.1189    118.3724     50.9197   6.2323498349e+01   4.9148063766e+01    0.2400974    0.1957302  61.59 0.0007545791    1.320    0.243
        85  -7.7023    172.0290     49.9792   5.0473594677e+01   3.6385524267e+01     0.200843    0.1624485  29.43  0.001047903    1.452    0.311
        86  -9.1585     44.6120     48.9502   8.7447395645e+01   6.2717081625e+01    0.4761805    0.2579972  11.44  0.002237589    2.322    0.569
        87  -8.1172    106.7016     48.5974   6.4731848565e+01   5.2086195648e+01    0.2871518     0.194807  17.29  0.001344325    1.787    0.440
        88  -9.0439     56.1068     43.5455   8.0515014128e+01   6.2164128263e+01    0.7696233    0.3492323 -18.58  0.002357457    5.195    0.807
        89  -9.1721     18.2535     39.7615   9.6400817462e+01   6.7066611162e+01    0.5147441    0.2356742 -14.47  0.002298505    2.984    0.665
        90  -9.2686     19.2176     35.6242   9.4450411660e+01   6.7764305308e+01    0.2821424    0.2175861  20.99  0.001129011    1.481    0.325
        91  -9.4155     21.8712     32.0776   9.1768026113e+01   6.8179625879e+01    0.3506849    0.3143606 -15.14            0    1.250    0.200
        92  -8.7245     10.2540     47.5661   1.0273188170e+02   6.6077499318e+01    0.2522617    0.1850966 -19.46 0.0006862541    1.274    0.215
        93  -9.2093     13.9162     45.5289   1.0038551303e+02   6.6255635167e+01    0.3218544    0.2738611   9.39  0.001315496    1.347    0.257
        94  -8.8352      2.7028     44.6170   1.0550228432e+02   6.7078816285e+01    0.2566852    0.1403505 -43.87   0.00153709    1.366    0.268
        95 -11.0593     83.2078     40.1504   6.8905165426e+01   5.8150925053e+01    0.4580792     0.306914  15.34  0.002305306    1.675    0.403
        96  -7.8004     35.3062     42.3358   8.9181321416e+01   6.5008556694e+01    0.1347611    0.0808103 -21.04 0.0007040611    1.672    0.402
        97  -7.5553     30.9816     42.6661   9.1314198491e+01   6.5394989360e+01    0.1835519   0.08276972  45.51  0.000704699    4.302    0.768
        98  -7.6774    114.2105     41.2265   5.9982209461e+01   5.1511162350e+01    0.2429357    0.1342698  22.99 0.0005775961    2.695    0.629
        99  -7.7206    124.1449     39.9852   5.7037078422e+01   4.9398867983e+01    0.2339875      0.15512  12.84 0.0006220659    2.008    0.502
       100  -8.9790     93.7818     42.8511   6.6490591735e+01   5.5666166493e+01    0.6075338    0.2582266  35.00  0.002296217    2.717    0.632
       101  -8.2906    105.5312     37.3846   6.0919489145e+01   5.3967795713e+01    0.3657985    0.2213622   3.34  0.001563688    2.422    0.587
       102  -8.6650     67.6510     37.6967   7.3545801388e+01   6.1314581011e+01      0.26668    0.2173544 -30.79  0.001388546    1.260    0.206
       103  -9.0127     70.7794     35.4206   7.1421952808e+01   6.1124920513e+01    0.4795722    0.2159898  46.42  0.002100617    2.373    0.579
       104  -8.3724     35.4990     37.5357   8.7253348164e+01   6.5851596113e+01    0.2727113    0.1676753 -45.40  0.001129644    1.567    0.362
       105  -8.8441     38.7458     35.4259   8.4892944505e+01   6.5844728615e+01    0.2949702    0.1959424  10.49  0.001063282    1.506    0.336
       106  -8.3615     92.9066     36.6591   6.4363941040e+01   5.6741006673e+01    0.3507782    0.2130816  47.05  0.001103468    1.573    0.364
       107  -8.7320     96.2923     32.9839   6.1888455420e+01   5.6537182624e+01    0.2737405    0.1900759  29.86 0.0002996053    1.400    0.286
       108  -8.1047      3.0160     25.5040   9.9287857894e+01   7.0730231064e+01    0.1890407    0.1142222 -21.25 0.0004041586    1.433    0.302
       109  -9.3795      5.7441     34.3689   1.0089904365e+02   6.8931294988e+01    0.4521884     0.184776  -2.77  0.002099212    3.196    0.687
       110  -9.3325      2.2302     30.6894   1.0152417821e+02   6.9817999594e+01    0.3375359    0.2333741 -78.61  0.001663111    2.232    0.552
       111  -7.2126    167.7005     33.6998   4.6453460602e+01   3.9611378434e+01    0.1382183    0.1018476  34.80  0.000521444    1.581    0.367
       112  -8.8229     55.7950     35.4398   7.7361243063e+01   6.3552371516e+01    0.2695994    0.1578463 -33.69   0.00112498    1.599    0.375
       113  -8.6070     42.3233     27.8116   8.0004775846e+01   6.6639760922e+01    0.2513025    0.1702149   6.56 0.0006775826    1.432    0.302
       114  -7.3744    144.4556     27.5244   4.8522473514e+01   4.6067658873e+01    0.1394805    0.1238139  48.13 2.398443e-05    1.079    0.073
       115  -7.8237    128.1931     27.2313   5.1653096841e+01   5.0032912934e+01    0.1731552    0.1553536 -73.72 0.0003984374    1.274    0.215
       116  -7.7855    109.4496     26.7489   5.5848775141e+01   5.4441071853e+01    0.1734027    0.1283495  -2.55 0.0004230367    1.499    0.333
       117 -10.1831    184.4533    246.6443   9.2238495857e+01  -2.0012121953e+00    0.4806834    0.2360253  20.54  0.002221065    2.430    0.589
       118  -9.0304     97.6276    244.1772   1.0928889956e+02   1.1401440660e+01     0.238709    0.1565275  60.80 0.0007044647    1.488    0.328
       119  -8.6276     61.9438     26.9412   7.1189640732e+01   6.3848545506e+01    0.1996355    0.1625365   7.55  0.000445545    1.045    0.043
       120  -7.5807    144.5303     23.4928   4.7203532400e+01   4.6498159537e+01    0.1371375     0.123316  56.36 -1.635297e-05    1.029    0.028
       121  -8.6430    209.5677    239.6709   8.6350842015e+01  -4.6688571845e+00     0.210636    0.1728735  20.37 0.0007744879    1.142    0.124
       122  -7.8878    129.0089     22.3795   4.9791652936e+01   5.0375482445e+01    0.2672587   0.09964553  53.14  0.001063147    2.254    0.556
       123  -8.3275     64.9649     22.6193   6.8083299209e+01   6.3915225926e+01    0.2890625    0.1128665  44.48  0.001254934    2.461    0.594
       124  -8.9583     92.4679     20.4914   5.7974340717e+01   5.8857851342e+01    0.2994519    0.2074236  23.87 0.0009465215    1.430    0.301
       125  -9.3000    188.1297    233.8545   8.9559720851e+01  -6.3990061858e-01    0.2765906    0.1874549 -43.44   0.00147062    1.734    0.423
       126  -7.9657    247.9861    233.9861   7.8457545641e+01  -9.1308794681e+00    0.1421855    0.1065724  -3.94 0.0003955592    1.055    0.053
       127  -8.4286    140.4408     19.9158   4.6767503622e+01   4.7874894047e+01    0.2073981     0.172788  75.58 0.0004014019    1.172    0.147
       128  -8.5639    233.0968     18.6778   3.5057010704e+01   2.6056303484e+01     0.168709    0.1370369  89.88 0.0004652771    1.143    0.125
       129  -7.3126    146.5622     19.4177   4.5540479635e+01   4.6431786786e+01    0.1352234    0.1191724  57.70 -2.527196e-06    1.042    0.041
       130  -7.2987    151.6341     18.2470   4.4339162697e+01   4.5308307919e+01    0.1360921   0.09648038 -79.45   0.00062643    1.616    0.381
       131  -8.4299    127.8009     16.8436   4.8101914892e+01   5.1233347748e+01     0.203994    0.1600555  40.52 0.0003794331    1.205    0.170
       132  -8.5878    208.1388    221.8593   8.3660023445e+01  -1.8636501248e+00    0.2268311     0.202449 -49.63 0.0007278767    1.565    0.361
       133  -7.2135     55.7465    220.0308   1.1552302581e+02   2.1747309273e+01    0.1407573   0.09570926 -80.65 0.0008414748    1.420    0.296
       134  -8.0159    105.3106     14.3459   5.2093723187e+01   5.6696605954e+01    0.1424949   0.08709309  29.25 0.0005160982    1.706    0.414
       135 -10.3130    228.1605    215.5915   7.8783524631e+01  -3.9170900708e+00    0.2215141    0.1834283 -11.79 0.0004064194    1.129    0.115
       136  -7.2612    101.0626    214.9881   1.0522445503e+02   1.6566404039e+01     0.152438    0.1304696  50.82 0.0009247116    1.040    0.039
       137  -8.8848    197.7399    211.9565   8.3967578184e+01   1.3299883319e+00    0.2238497    0.1788473  11.57 0.0003613263    1.123    0.110
       138  -7.8233    216.7969    207.7903   7.9494509693e+01  -1.0237983371e+00    0.1589459     0.149475   9.79 0.0004611124    1.284    0.221
       139  -8.4388    245.2773     13.0305   3.2923182872e+01   2.4125976300e+01    0.1634871    0.1284496 -59.53 0.0003863508    1.071    0.066
       140  -8.2700    198.3281    207.1474   8.2986862372e+01   2.0299381244e+00    0.2080286     0.158369  21.80 0.0002806585    1.192    0.161
       141  -8.2505     88.3327     13.1077   5.6068255336e+01   6.0500871175e+01    0.2275448    0.1497047  39.99 0.0006387123    1.314    0.239
       142  -7.7565     38.0000     12.9271   7.5040385757e+01   6.9348686203e+01    0.1916476   0.06056907 -35.26 0.0008113224    3.004    0.667
       143  -8.3980     11.4994    207.4858   1.2361500034e+02   2.9135807603e+01    0.1163718   0.08906733  77.23  8.30997e-05    1.003    0.003
       144  -7.9701    225.2967    203.9967   7.7193312996e+01  -1.7459982316e+00    0.1779821    0.1436179 -15.97 0.0003218412    1.116    0.104
       145  -7.1126    138.9760    198.9706   9.4310211121e+01   1.3707706527e+01    0.1679489    0.1437782  36.66 0.0009392204    1.083    0.077
       146  -7.8815    132.9439    199.0280   9.5698591035e+01   1.4731251735e+01    0.1961068    0.1823576  25.80            0    1.068    0.064
       147  -7.5223    222.9880    187.9886   7.4557923708e+01   1.1710280543e+00    0.1543106    0.1313856  -3.50            0    1.009    0.009
       148  -8.4140    187.4678    186.9965   8.1420768494e+01   7.4369801248e+00    0.2235611    0.1881331  45.60 0.0002357172    1.309    0.236
       149  -7.4647    149.2793    175.3353   8.7637376849e+01   1.6805407204e+01    0.1490549    0.1146464 -10.46 0.0002881151    1.612    0.380
       150  -8.2395     51.7853    175.2017   1.1185177898e+02   3.2294859583e+01    0.1913441    0.1584786  79.82 0.0004080506    1.091    0.083
       151  -7.3141    151.3501    165.3221   8.5129760624e+01   1.8565473273e+01    0.1579163    0.1181596  -3.04 0.0004407439    1.747    0.428
       152  -7.4912    145.8184    157.5980   8.4837498100e+01   2.1334708007e+01    0.1996459    0.1431205  49.19 0.0009162258    1.451    0.311
       153  -7.8532    205.3876    151.8103   7.0368751109e+01   1.0695595671e+01    0.2083903    0.1292277 -28.80 0.0009400331    1.635    0.388
       154  -7.7768    133.7099    147.6450   8.5704446483e+01   2.5957308075e+01    0.1590469    0.1211846 -14.53 0.0007027178    1.680    0.405
       155  -8.8617     67.5061    144.7764   1.0330621039e+02   3.7792634873e+01    0.4853013    0.2765278  61.50  0.002054846    2.292    0.564
       156  -7.8499    139.8230    138.8850   8.2145814461e+01   2.6736719621e+01    0.2427798    0.2124136  -6.30 0.0007072784    1.271    0.213
       157  -9.2151    192.4210    133.3436   6.8718783868e+01   1.6852254519e+01    0.2889456    0.2527441 -33.31 0.0002159642    1.083    0.077
       158  -7.3831     55.3909    135.2771   1.0520159106e+02   4.1700190975e+01    0.1426202      0.10097 -29.80 0.0006996663    1.736    0.424
       159  -7.7006     68.2332    127.7100   9.9944776175e+01   4.1953996716e+01      0.27909    0.1595002  72.06  0.001021467    3.121    0.680
       160  -7.6453    132.5130    124.9928   8.0684760332e+01   3.1389468956e+01    0.2202396    0.1342939 -24.09 0.0008076956    2.366    0.577
       161  -7.4141     85.5062    121.7251   9.3381561542e+01   4.0879083273e+01    0.3406234    0.1907651  -6.00 0.0008920829    5.972    0.833
       162  -9.0279     13.3559    119.9736   1.1553281560e+02   4.9371287913e+01    0.4371816    0.1453104 -38.34  0.001532894    4.397    0.773
       163  -7.9583    119.2238    119.2029   8.2846886770e+01   3.5408113313e+01    0.2578019    0.1691578  -6.92 0.0009367479    2.696    0.629
