#   1 NUMBER                 Running object number                                     
#   2 MAG_AUTO               Kron-like elliptical aperture magnitude                    [mag]
#   3 X_IMAGE                Object position along x                                    [pixel]
#   4 Y_IMAGE                Object position along y                                    [pixel]
#   5 X_WORLD                Barycenter position along world x axis                     [deg]
#   6 Y_WORLD                Barycenter position along world y axis                     [deg]
#   7 A_WORLD                Profile RMS along major axis (world units)                 [deg]
#   8 B_WORLD                Profile RMS along minor axis (world units)                 [deg]
#   9 THETA_WORLD            Position angle (CCW/world-x)                               [deg]
#  10 FWHM_WORLD             FWHM assuming a gaussian core                              [deg]
#  11 ELONGATION             A_IMAGE/B_IMAGE                                           
#  12 ELLIPTICITY            1 - B_IMAGE/A_IMAGE                                       
         1 -10.6815     12.6357     29.6930   1.1468968589e+02   6.7572162505e+01    0.3969302    0.1171453 -64.69  0.001675556    3.012    0.668
         2  -9.1300     40.6991     14.2881   9.6530032378e+01   6.8005741028e+01    0.1070694   0.09275063 -66.18 0.0001884911    1.560    0.359
         3 -10.4432    162.7544    225.3983   1.1079447714e+02   1.0439371819e+01    0.2628727    0.1584507  30.62  0.001668677    1.705    0.414
         4  -9.6057     49.3422    226.6765   1.2926441840e+02   2.5614262249e+01    0.1058697   0.04906686  63.31 0.0007050729    1.729    0.422
         5 -10.2740    126.2156    220.8743   1.1633348119e+02   1.6547400225e+01    0.1616759    0.1168955  60.60 0.0005267989    1.206    0.171
         6  -9.9939     74.8023    219.8395   1.2476482907e+02   2.3676038654e+01    0.1505423    0.0881327  61.87 0.0006754258    1.356    0.263
         7  -9.5216    143.7701    216.9860   1.1296632325e+02   1.4440168586e+01    0.1218399   0.09387728 -55.38 0.0008840836    1.665    0.399
         8  -9.6407     62.3256    217.6652   1.2664769731e+02   2.5511546429e+01    0.1090701   0.05469369  64.93 0.0004417682    1.716    0.417
         9  -9.6314    131.6044    214.1670   1.1471231318e+02   1.6680642976e+01    0.1284448    0.1046784 -39.10 0.0009410352    1.721    0.419
        10  -9.9712     77.0113    214.1866   1.2397178506e+02   2.4266818168e+01    0.1862102   0.08113594  59.55  0.001078382    2.066    0.516
        11  -9.8297    116.1652    210.2068   1.1693846784e+02   1.9546516203e+01    0.1576471    0.1071936  65.81 0.0009318887    1.388    0.279
        12  -9.8265     99.9836    206.8197   1.1940602951e+02   2.2370087607e+01    0.1950008   0.09344118  60.69  0.001080109    2.092    0.522
        13  -9.7698     56.9710    205.8141   1.2672662609e+02   2.8012650872e+01    0.1842009   0.07778308  59.70  0.001085133    2.038    0.509
        14 -10.4439    185.8681    203.4341   1.0406727515e+02   9.4040542141e+00    0.2426079    0.1354252 -43.63  0.001416185    2.299    0.565
        15 -10.7703    164.6773    201.5471   1.0744117834e+02   1.3176257672e+01    0.3598802     0.156715 -48.02  0.001848747    2.936    0.659
        16  -9.4521     41.6691    202.3528   1.2908344095e+02   3.0275687467e+01    0.1113484   0.05291627  65.73 0.0007046544    1.778    0.438
        17  -9.4027     80.3415    201.6634   1.2236836524e+02   2.5830927796e+01    0.1168557   0.06327878  66.25 0.0007050459    1.762    0.433
        18 -10.6281     89.0489    199.2479   1.2060804412e+02   2.5073711179e+01    0.2377752    0.1309775  87.75  0.001373124    2.287    0.563
        19  -9.8839    149.7605    199.1629   1.0974227869e+02   1.5959297099e+01    0.1953289    0.1152928  72.50 0.0009580215    2.859    0.650
        20 -10.4757    177.6479    198.3280   1.0473399379e+02   1.1430462688e+01    0.1773781    0.1327083  67.96  0.001112769    1.707    0.414
        21 -10.2313    125.6605    198.0001   1.1390474121e+02   1.9963133964e+01    0.2525418    0.1403072  47.33  0.001501543    1.455    0.313
        22 -10.1194    113.2596    198.1568   1.1615516505e+02   2.1816586867e+01    0.2365659    0.1166253  60.67  0.001246453    2.179    0.541
        23 -10.9404    173.0351    195.8447   1.0517571959e+02   1.2539137934e+01    0.1825874    0.1427836  57.03  0.001211598    1.302    0.232
        24 -10.2669     66.5508    194.2916   1.2418618739e+02   2.8789749938e+01    0.2609894    0.1355603  77.53  0.001547616    2.079    0.519
        25 -10.0281     43.7202    193.5453   1.2816888358e+02   3.1535929412e+01    0.1857926   0.09476593  76.39  0.001188525    1.815    0.449
        26  -9.7369     78.0180    193.0577   1.2201461469e+02   2.7558279259e+01    0.1853058    0.1029316  67.74  0.001130481    1.745    0.427
        27  -9.7466    173.7810    191.8317   1.0445207531e+02   1.2952019373e+01    0.1587361    0.1287773  61.27 0.0004436477    1.342    0.255
        28  -9.9292    139.2492    190.0747   1.1043370192e+02   1.9020263869e+01    0.2344827    0.1322406  62.84  0.001145553    2.100    0.524
        29  -9.8669    129.9295    188.7844   1.1198251782e+02   2.0726800716e+01    0.2039032    0.1143073  62.66  0.001080406    2.021    0.505
        30 -10.7563     87.0572    189.2056   1.1999041613e+02   2.7014105118e+01    0.2251665    0.1233372  58.06   0.00135493    1.602    0.376
        31  -9.9149    156.5943    187.7905   1.0694147050e+02   1.6467334110e+01    0.1894559    0.1571687 -67.85  0.001133579    1.499    0.333
        32 -10.6365     55.1613    186.9087   1.2564555452e+02   3.1411010217e+01    0.3256828    0.1380958  71.89  0.001635829    2.879    0.653
        33 -10.1877     34.4782    187.3024   1.2938855836e+02   3.3579588121e+01    0.2614215     0.113254  72.94  0.001513481    2.259    0.557
        34  -9.5215    149.3186    187.6696   1.0825457473e+02   1.7716532822e+01    0.1208314   0.08556499  70.33 0.0007047668    1.688    0.408
        35 -10.4879    120.7350    186.4848   1.1340197246e+02   2.2548007573e+01    0.2632636     0.158337 -72.27   0.00149994    2.123    0.529
        36 -10.5646    109.9823    186.4789   1.1541732265e+02   2.4195861717e+01    0.3067707      0.16339  62.78  0.001641932    2.046    0.511
        37  -9.3631     49.3182    202.6389   1.2780858745e+02   2.9397839197e+01    0.1119395   0.05514142  66.61 0.0007042593    1.766    0.434
        38  -9.9601     66.1622    184.9644   1.2346156056e+02   3.0446031864e+01     0.185811   0.09770051  75.32 0.0009744462    2.030    0.507
        39 -10.0649     74.6406    184.3199   1.2182280655e+02   2.9496361212e+01     0.182955    0.1033275  68.49  0.001103687    1.723    0.420
        40  -9.7747    174.4053    183.2090   1.0301535428e+02   1.4032982214e+01    0.1543227    0.1182371 -58.44 0.0009512392    1.719    0.418
        41  -9.5842    211.7874    182.4053   9.6340275422e+01   7.4983141480e+00    0.1806081   0.09432454  36.24 0.0009451133    1.640    0.390
        42 -10.6028     83.6421    182.3576   1.1993261145e+02   2.8657427149e+01    0.1822714    0.1085326  68.04 0.0008345844    1.638    0.390
        43  -9.8333     44.6417    182.3753   1.2722177116e+02   3.3383677013e+01    0.1741232   0.09157256  66.76 0.0008889731    1.658    0.397
        44 -10.1488    148.0119    180.9980   1.0753478208e+02   1.8956432303e+01    0.1966798    0.1383681  71.73  0.001134664    1.746    0.427
        45 -11.4608     78.1347    176.2408   1.2035471126e+02   3.0477364408e+01     0.466199    0.1640422  52.15  0.002197769    2.619    0.618
        46 -10.5880     60.0610    176.8781   1.2389216212e+02   3.2624749437e+01    0.2527246    0.1184606  67.39  0.001358463    2.275    0.560
        47 -10.6142     12.6771    175.4453   1.3258962570e+02   3.7725317181e+01    0.2438067   0.09734917 -84.22  0.001480389    2.128    0.530
        48 -11.9727     95.1801    186.6351   1.1821068876e+02   2.6326979311e+01    0.4249585    0.2281145  74.69  0.002227938    2.448    0.591
        49 -10.4069    105.9824    175.4412   1.1483665937e+02   2.6680702865e+01    0.2546285    0.1201629  55.88  0.001272418    2.089    0.521
        50  -9.7769     23.5131    174.5159   1.3056966191e+02   3.6921097271e+01     0.185883   0.07546993  87.87  0.001035001    2.376    0.579
        51 -10.1780      2.8130    172.9276   1.3422912516e+02   3.8993676119e+01    0.3059494   0.09046011  83.15  0.001440156    3.617    0.724
        52  -9.9956     44.6905    171.5809   1.2638438032e+02   3.5334330212e+01    0.1944949    0.1038966  80.00  0.001189342    1.788    0.441
        53 -10.5697    122.3869    170.0741   1.1088877874e+02   2.5039498986e+01    0.3048566     0.176851  69.77  0.001501792    2.320    0.569
        54  -9.5408    206.6694    170.3468   9.5090568347e+01   9.9224456611e+00    0.1185384    0.1005433  81.93 0.0007049661    1.761    0.432
        55 -10.4860     54.8821    168.9606   1.2418294186e+02   3.4685551281e+01    0.3049346    0.1391982 -85.48  0.001608679    2.422    0.587
        56  -9.8572     88.8332    168.8239   1.1742129032e+02   3.0368912077e+01    0.1711068    0.1178503  69.16 0.0009858977    1.362    0.266
        57  -9.6818    112.2049    167.8055   1.1260023668e+02   2.7068465783e+01     0.212244    0.1161525  73.07 0.0009526894    2.836    0.647
        58 -10.7027     99.8801    166.5323   1.1491264586e+02   2.9187141133e+01     0.356652    0.1493061  59.00   0.00151113    3.006    0.667
        59 -10.2952    139.9893    165.5291   1.0671829085e+02   2.2843604360e+01    0.3239674    0.1998845  66.95  0.001634785    2.055    0.513
        60 -10.7004     79.7877    163.6226   1.1863924433e+02   3.2579456574e+01     0.393764    0.1929245  78.02  0.001732195    3.254    0.693
        61  -9.9477     47.4762    163.9738   1.2520175560e+02   3.6453779511e+01    0.1636274    0.0925009 -79.23  0.001030605    1.600    0.375
        62  -9.9192     37.6504    163.7336   1.2712659181e+02   3.7537766536e+01      0.22989    0.1127919 -85.62  0.001368758    1.882    0.469
        63  -9.8731     69.9767    163.0263   1.2057336158e+02   3.3975172210e+01    0.1962837    0.1142364  71.31  0.001134608    1.756    0.431
        64 -10.6749     93.2336    160.5429   1.1549351158e+02   3.1274281542e+01    0.3011307    0.1838116  78.97  0.001628435    1.973    0.493
        65 -10.2789     62.0307    160.5124   1.2193041591e+02   3.5438315529e+01    0.2460921    0.1223922  87.93  0.001253586    2.430    0.589
        66 -10.2024      8.4940    159.6892   1.3251314504e+02   4.0957548062e+01    0.2928549   0.09746555  71.28  0.001420905    3.205    0.688
        67  -9.8652     31.3319    159.8466   1.2807323121e+02   3.8903276878e+01    0.2104947   0.08174654 -84.94  0.001076808    2.559    0.609
        68 -10.4381    106.0213    158.4025   1.1254465302e+02   2.9746004101e+01    0.3249534    0.1709716  61.81  0.001524659    2.197    0.545
        69  -9.8781     22.7360    158.5551   1.2967936641e+02   3.9953940235e+01     0.228613   0.09943901  86.97  0.001285602    2.175    0.540
        70  -9.6146    196.4951    157.4884   9.4501426881e+01   1.3576367825e+01    0.1322246    0.1146717  31.47 0.0001268482    1.013    0.012
        71 -10.2095    120.0216    156.0088   1.0927121963e+02   2.7927956135e+01    0.2101622    0.1432689  75.09 0.0009737659    1.754    0.430
        72 -10.6482     82.1387    154.8290   1.1708167633e+02   3.3934304089e+01    0.3906988    0.2104582  69.56  0.001969291    2.255    0.556
        73 -10.4680     68.2653    153.8619   1.1990407709e+02   3.5953386682e+01    0.3226351    0.1730809  74.14  0.001685134    2.194    0.544
        74 -10.2450    133.6137    153.3517   1.0601795224e+02   2.6073248575e+01    0.2849335    0.1745728  78.23  0.001259941    2.745    0.636
        75 -10.7149     28.3964    149.1208   1.2782790057e+02   4.1254440023e+01    0.3818619    0.1360082  83.12   0.00152743    4.242    0.764
        76 -10.9534     39.3712    146.9863   1.2533167999e+02   4.0605218435e+01     0.459246    0.2141405  86.61  0.002405629    2.329    0.571
        77  -9.8922    200.0000    148.0313   9.1999479868e+01   1.4233081307e+01    0.2070373   0.07621624 -35.21 0.0008047147    2.958    0.662
        78 -11.3771     56.0624    144.7040   1.2148767118e+02   3.9244257599e+01    0.6395288     0.295516 -84.21  0.003123728    2.508    0.601
        79 -10.5227    149.4795    145.5482   1.0134583005e+02   2.4546315863e+01    0.4277426    0.2620595  76.59  0.001761367    3.035    0.670
        80 -11.0196    107.5298    145.3250   1.1024561411e+02   3.1980026819e+01    0.5298667    0.2986761  76.12  0.002275433    2.942    0.660
        81 -10.7936     49.6518    154.7597   1.2390835835e+02   3.7983407299e+01    0.3784388    0.1878874  81.52  0.001910378    2.266    0.559
        82 -10.3800     12.8506    144.9518   1.3073884219e+02   4.3421296837e+01    0.3190324    0.1130671 -85.18  0.001642775    2.535    0.605
        83 -10.9585    125.6639    143.5890   1.0601676567e+02   2.9255385754e+01    0.3914076    0.2365063  84.30  0.001631218    3.069    0.674
        84 -10.8756     88.3473    144.0649   1.1427539971e+02   3.5162095857e+01     0.305885    0.1999407  81.25  0.001550685    1.742    0.426
        85 -10.8682      2.3674    140.8075   1.3263761368e+02   4.5029682342e+01    0.3109232   0.07751084 -86.70  0.001256503    4.199    0.762
        86 -10.2763     68.5064    138.9974   1.1801945135e+02   3.8882889445e+01    0.3186087    0.1426311 -82.14  0.001335025    3.200    0.687
        87 -11.0140     22.7134    135.9585   1.2795220898e+02   4.4381458006e+01    0.5924227    0.2195115 -85.24  0.002881648    2.680    0.627
        88 -11.0586     38.9703    134.7913   1.2421624184e+02   4.3102085072e+01    0.3673025    0.1422134 -73.19  0.001846323    2.280    0.561
        89 -10.3569    132.5989    132.2674   1.0240112215e+02   3.0128470961e+01    0.3357399    0.2073476 -76.13  0.001453135    2.608    0.617
        90  -9.8887    112.8264    133.2470   1.0701428814e+02   3.3455285385e+01     0.223603    0.1334036  77.90 0.0009462558    2.757    0.637
        91 -11.3060     83.5644    131.6062   1.1348952811e+02   3.8360305480e+01    0.4201298    0.2605335 -88.63   0.00170335    1.947    0.486
        92  -9.4042    143.6764    132.3321   9.9996046015e+01   2.8017551340e+01    0.1395684    0.1058955  83.84 0.0007050385    1.704    0.413
        93 -10.7097     12.2354    128.7776   1.2968870919e+02   4.6686117901e+01    0.3942199    0.1630067  78.11  0.002030919    2.553    0.608
        94 -10.9980     12.3858    123.4174   1.2922156714e+02   4.7765423082e+01    0.5050042    0.1040841 -59.87  0.002102565    3.983    0.749
        95 -11.0165     99.1918    127.7386   1.0917862218e+02   3.6795202687e+01    0.5481325    0.3178314 -87.15  0.002361319    2.800    0.643
        96 -10.4248     73.1577    129.2797   1.1558261373e+02   4.0272562367e+01    0.3214507     0.193376 -89.74  0.001680473    1.949    0.487
        97  -9.6192    153.3148    129.6712   9.7382733320e+01   2.6603475508e+01    0.1392139    0.1087581  86.91 0.0005066941    1.675    0.403
        98 -10.3581    118.3143    125.8101   1.0436017421e+02   3.3968284206e+01    0.3718245    0.2008348  67.03  0.001461884    3.002    0.667
        99 -11.2901     58.9237    122.8785   1.1807100401e+02   4.3400234094e+01    0.6988504      0.29897 -81.22   0.00283482    3.325    0.699
       100 -11.5667     43.1425    120.8022   1.2164158442e+02   4.5584367173e+01     0.879579    0.3503469 -86.54  0.003433894    3.821    0.738
       101 -11.4541     27.7581    121.3443   1.2541884380e+02   4.6938368888e+01    0.7160242    0.2769603  76.90  0.002746332    4.432    0.774
       102 -10.4488    142.1450    119.7552   9.7678307009e+01   3.0647841974e+01    0.3820445    0.2264428 -67.04  0.001575062    2.605    0.616
       103 -10.7730     70.9769    119.1706   1.1454783633e+02   4.2676601932e+01    0.3765254    0.1888409 -74.58  0.001771781    2.236    0.553
       104  -9.9653    130.9862    118.7393   9.9984463461e+01   3.3017538469e+01    0.2443127    0.1484309 -83.93 0.0008878677    3.515    0.716
       105 -11.3122      2.4655    114.7857   1.3084451500e+02   5.0230524918e+01     0.672256    0.1852633 -85.76  0.002780241    3.719    0.731
       106 -10.4891    109.4406    114.5864   1.0420347194e+02   3.7772998407e+01    0.4417907    0.2448314 -74.15  0.001759039    2.941    0.660
       107 -10.7739     92.8463    112.6725   1.0792136854e+02   4.0902858842e+01    0.4206276    0.2696969 -82.12  0.001665431    1.993    0.498
       108 -10.9863     78.9043    112.0764   1.1134018275e+02   4.3100728788e+01    0.5288842    0.2856342 -82.97  0.002262125    2.794    0.642
       109  -9.5299    122.3141    112.6634   1.0069130035e+02   3.5845519883e+01    0.1423319    0.1068799  87.17 0.0004490279    1.692    0.409
       110 -11.1734     14.1138    109.4092   1.2753915714e+02   5.0541194409e+01    0.4766982    0.2005459 -79.29  0.002592022    1.960    0.490
       111 -10.7443     66.3582    109.6780   1.1414890802e+02   4.5294964527e+01     0.422447    0.2103141 -75.36  0.001946721    2.316    0.568
       112 -11.6468     44.9459    100.5475   1.1834774810e+02   4.9734025456e+01    0.9102674    0.4073595 -83.97  0.003829787    3.106    0.678
       113 -12.1888     22.1443    100.1418   1.2444671682e+02   5.1894866608e+01    0.9757971     0.393461 -88.44  0.004340902    3.014    0.668
       114  -9.4072    150.4768    103.9872   9.2118671968e+01   3.1866017682e+01    0.2075389    0.1233458 -63.38 0.0008100051    2.558    0.609
       115 -11.6567      6.6473    100.9274   1.2860953662e+02   5.2839785740e+01    0.5183657     0.132204 -70.12  0.002390562    2.744    0.636
       116  -9.9708    128.6249    102.3349   9.6792044327e+01   3.6676793729e+01    0.2248191    0.1719798 -88.66  0.001111263    1.702    0.413
       117 -10.8160    109.3362     99.2307   1.0083989104e+02   4.0932411796e+01    0.5403464    0.3129821  70.40  0.002115247    3.012    0.668
       118 -10.2894     81.9129     99.9319   1.0819784301e+02   4.5256300752e+01    0.3087344    0.1818365 -72.42  0.001482516    1.956    0.489
       119 -11.4113     63.4403     94.1057   1.1209641782e+02   4.9024589404e+01    0.8092131    0.3221332 -65.51  0.003410556    2.541    0.606
       120 -10.4065     94.9123     96.6550   1.0400791483e+02   4.3936413042e+01    0.2778718    0.1733917 -70.85  0.001258987    1.932    0.483
       121 -12.2570      5.1784     89.2051   1.2780645643e+02   5.5410360774e+01    0.6265705    0.2062596 -69.51  0.003200287    2.182    0.542
       122 -11.0881     34.7957     87.3561   1.1909664689e+02   5.3586699714e+01    0.7720497    0.2130425 -66.51  0.003123551    2.986    0.665
       123 -10.3379    124.5953     90.8868   9.4899430334e+01   3.9727402202e+01    0.2844864    0.1779331 -59.34  0.000959954    1.870    0.465
       124 -10.7791     86.4089     85.9587   1.0382646999e+02   4.7550842582e+01    0.5860572     0.295485 -66.45  0.002402166    2.590    0.614
       125 -11.2990     48.2495     82.5920   1.1425062450e+02   5.3294916793e+01    0.7081698     0.315964 -70.61  0.003233779    2.311    0.567
       126 -10.7587    104.6574     82.9792   9.8008139942e+01   4.5102113160e+01     0.408386    0.2637951 -73.25  0.001786448    2.241    0.554
       127 -11.4901     24.6849     74.1393   1.1994800842e+02   5.7315032319e+01    0.6769987    0.2718074 -35.25  0.002609897    4.763    0.790
       128 -10.1086     74.4850     80.0415   1.0583756102e+02   5.0585839281e+01    0.3126748    0.1227491 -60.58  0.001212286    2.725    0.633
       129 -11.3498      8.9537     80.4917   1.2570127073e+02   5.7040016929e+01    0.3812983    0.1552251 -83.24  0.001898168    2.342    0.573
       130 -10.4625     61.8665     75.6097   1.0859055308e+02   5.3225642009e+01    0.5177307    0.1557019 -58.09  0.001936795    2.994    0.666
       131 -10.9264     82.2527     72.6376   1.0162343054e+02   5.0998864829e+01    0.5100688    0.2378694 -64.14   0.00191894    3.067    0.674
       132 -10.1858     42.5772     71.6115   1.1376609292e+02   5.6270900324e+01    0.3596162    0.1018907 -61.87  0.001402019    2.954    0.661
       133 -10.0703     95.3688     71.5678   9.7461378150e+01   4.9068906135e+01    0.2745824    0.1181237 -58.80 0.0009523216    3.231    0.691
       134 -11.1896      5.9276     70.5299   1.2530163754e+02   5.9354155205e+01    0.3622049    0.1261744 -72.53  0.001802335    2.191    0.544
       135 -11.1423     24.1643     80.2056   1.2110587602e+02   5.6039625640e+01    0.4363344    0.2183846 -84.77  0.002261596    2.122    0.529
       136 -11.0013     51.1063     67.6391   1.1010824416e+02   5.6221602886e+01    0.6970486    0.2119342 -64.38  0.002339859    4.063    0.754
       137 -11.3284     16.5369     69.0777   1.2169565366e+02   5.9005676444e+01    0.5394518    0.1620494 -67.08  0.002453356    2.474    0.596
       138 -10.4943     37.0585     62.6803   1.1362796611e+02   5.8735127840e+01    0.4805373    0.1538195 -62.28  0.002019972    2.617    0.618
       139 -10.4798      9.7453     64.8973   1.2323711358e+02   6.0339478172e+01    0.2335128    0.1111545 -72.64  0.001320298    1.656    0.396
       140 -10.4698     73.1505     57.9698   1.0026421754e+02   5.5401230423e+01    0.6536602    0.1907213 -51.38  0.002299358    3.170    0.684
       141 -10.2573     24.9703     57.7443   1.1671943834e+02   6.0831882503e+01    0.3787473    0.1213634 -59.89   0.00173985    2.272    0.560
       142 -12.0741      7.3648     55.1451   1.2242608483e+02   6.2562224689e+01    0.7219741    0.1947926 -66.23  0.003282786    2.556    0.609
       143 -10.2770     44.1154     53.5888   1.0892000441e+02   5.9969341941e+01    0.5483645    0.1653489 -55.41  0.002244558    2.622    0.619
       144 -10.4097     53.6954     52.3673   1.0518121768e+02   5.9147642884e+01    0.4601909    0.1604491 -60.29  0.001699153    3.303    0.697
       145 -10.8716     19.9099     51.5455   1.1719657785e+02   6.2532431303e+01    0.3415636    0.1387752 -74.14  0.001541243    2.691    0.628
       146 -10.6548     30.9141     50.3428   1.1286227346e+02   6.1918392402e+01    0.4948272     0.184255 -68.82  0.002008354    3.136    0.681
       147 -10.1484     92.3685     49.8463   9.1511287041e+01   5.3861156138e+01    0.4228785    0.1152486 -47.98  0.001269464    4.063    0.754
       148  -9.8680     62.7463     49.3569   1.0108934781e+02   5.8611829493e+01    0.3457888    0.1234077 -41.59  0.001343924    2.759    0.638
       149 -10.6404     16.8319     43.1751   1.1644754433e+02   6.4513125769e+01    0.5108852     0.118741 -61.90  0.002078385    3.026    0.670
       150 -10.1151    100.4446     54.3960   9.0634016201e+01   5.1521992530e+01    0.2433576    0.1988838 -30.05  0.000297114    1.176    0.150
       151 -11.8684      5.1386     40.1274   1.2036172337e+02   6.5852601701e+01     0.634162    0.1714483 -71.05  0.002546969    3.469    0.712
       152 -10.1190     58.0088     42.2747   1.0045302310e+02   6.0651117135e+01    0.2610044    0.1554668 -70.41  0.001174173    2.688    0.628
       153  -9.9378     68.9005     40.4731   9.5920422469e+01   5.9483198109e+01    0.3409674    0.1376571 -49.07   0.00142116    2.319    0.569
       154  -9.9700     36.6076     39.5446   1.0768642085e+02   6.3635406661e+01    0.3617986   0.09844295 -56.32  0.001404159    3.034    0.670
       155  -9.5039     83.8553     40.1725   9.0736796937e+01   5.7143735595e+01    0.1888308    0.1516228  -8.31 0.0004824171    1.349    0.258
       156  -9.3883     60.5043     32.5002   9.6006458224e+01   6.2188839261e+01    0.1296122    0.1106466 -34.55  9.58837e-05    1.022    0.021
       157 -10.6108     27.2267     30.0451   1.0851604257e+02   6.6408789043e+01    0.4432138   0.05694367 -47.79  0.001412738    4.757    0.790
       158 -10.3506     84.5797    227.7984   1.2377454508e+02   2.1271510425e+01      0.12984   0.08172949  85.01 0.0009458691    1.660    0.398
       159  -9.0612     44.4200     25.5405   9.9647393855e+01   6.5540578102e+01    0.1256637   0.09943671 -34.33  0.000136728    1.054    0.051
       160  -9.0746    110.4656     24.5418   7.6502230874e+01   5.4484089504e+01    0.1438486    0.1297758   2.70 0.0001385558    1.033    0.032
       161 -11.0013      3.4052     26.8222   1.1796905769e+02   6.8684619492e+01    0.2677417     0.112692 -66.73  0.001448927    1.911    0.477
