#   1 NUMBER                 Running object number                                     
#   2 MAG_AUTO               Kron-like elliptical aperture magnitude                    [mag]
#   3 X_IMAGE                Object position along x                                    [pixel]
#   4 Y_IMAGE                Object position along y                                    [pixel]
#   5 X_WORLD                Barycenter position along world x axis                     [deg]
#   6 Y_WORLD                Barycenter position along world y axis                     [deg]
#   7 A_WORLD                Profile RMS along major axis (world units)                 [deg]
#   8 B_WORLD                Profile RMS along minor axis (world units)                 [deg]
#   9 THETA_WORLD            Position angle (CCW/world-x)                               [deg]
#  10 FWHM_WORLD             FWHM assuming a gaussian core                              [deg]
#  11 ELONGATION             A_IMAGE/B_IMAGE                                           
#  12 ELLIPTICITY            1 - B_IMAGE/A_IMAGE                                       
         1 -13.8409     34.8687    192.0102   1.1401157646e+02   2.9634109351e+01     7.663092     2.806163  80.89   0.02065521    6.637    0.849
         2 -11.7527    215.3363     37.3115   3.7684279664e+01   2.7853018758e+01    0.9296606    0.6037316 -70.57  0.004771081    1.502    0.334
         3 -11.0935      2.2400     28.2205   9.6499668081e+01   7.0267446477e+01    0.9664332   0.08834653 -56.11  0.002605348    8.108    0.877
         4 -11.6080    235.2242     19.0314   3.1958918101e+01   2.5896209106e+01    0.6674083    0.4855175 -59.06  0.002712487    1.137    0.121
         5  -9.9506      2.0980      4.1809   8.6452119218e+01   7.4195961990e+01    0.6094881   0.08240847 -44.75  0.002168192    5.361    0.813
         6 -10.5132    134.8302    230.0223   9.5375746399e+01   7.3389561569e+00     0.440305    0.2881313 -43.44  0.002342714    1.727    0.421
         7 -11.1041     56.5797    241.2492   1.1351906420e+02   1.6251730338e+01    0.7012296    0.4048767  31.17  0.003909296    1.758    0.431
         8 -13.2645      9.2031    207.5977   1.2094862057e+02   2.8548434931e+01     1.927214    0.9225875 -84.90  0.009210525    1.835    0.455
         9 -10.8178     14.3731    248.7097   1.2218957989e+02   1.9496193723e+01     0.560735    0.3811912  82.83   0.00222563    1.249    0.199
        10 -12.0343      3.4834    244.8665   1.2398449028e+02   2.1298147107e+01     1.741898    0.4622461 -79.78  0.007823847    3.459    0.711
        11 -11.1004    113.3500    231.5094   1.0031941732e+02   1.0351271238e+01    0.4529693    0.2237011  40.96  0.002137949    1.755    0.430
        12 -11.2005    108.5349    230.1604   1.0121442242e+02   1.1344351513e+01    0.4259221    0.3628876  63.47  0.002618672    1.181    0.153
        13 -11.5516     99.6890    228.5556   1.0298298556e+02   1.2984223260e+01    0.6673064    0.2856888  41.67  0.002959253    2.013    0.503
        14 -11.0312    127.2490    230.5866   9.7125408002e+01   8.4069817909e+00    0.4111929    0.3738554 -20.33  0.002585545    1.238    0.192
        15 -12.9612     41.0543    248.7449   1.1716791021e+02   1.6618748461e+01     3.966844     1.010601  27.60   0.01230201    6.490    0.846
        16  -9.4857    154.8873    227.1233   9.0559765395e+01   4.7358032814e+00    0.2056772    0.1772476  46.33   0.00123779    1.239    0.193
        17 -10.1737    114.5265    224.1958   9.9095478126e+01   1.1638660699e+01     0.302569    0.2715424  52.17  0.001862271    1.063    0.059
        18  -8.7038     76.7932    224.3529   1.0760817155e+02   1.7123401836e+01    0.2454017    0.1757812 -75.44 0.0009015898    1.462    0.316
        19 -10.0674     76.5784    220.5015   1.0723853895e+02   1.7980522007e+01    0.3924252    0.1926037  49.51  0.001836667    1.897    0.473
        20  -8.7385     32.5579    222.7008   1.1705819784e+02   2.2923654478e+01    0.2936704    0.1099766 -78.89  0.001304893    2.689    0.628
        21 -10.4219     84.9594    220.8194   1.0537700986e+02   1.6740953990e+01    0.5501232     0.320022 -79.61  0.001745328    2.073    0.518
        22  -9.4998     42.9362    217.9289   1.1446765842e+02   2.2802909343e+01    0.2167913    0.1699413 -88.11 0.0003537132    1.178    0.151
        23 -12.0955     11.1450    232.8119   1.2198396172e+02   2.2982377538e+01    0.9617553    0.4406969  84.23  0.005204854    2.041    0.510
        24 -11.5215     25.5235    203.9789   1.1717363756e+02   2.7814677920e+01    0.4705906    0.4084908 -50.55 0.0009220603    1.438    0.305
        25 -10.0041    101.3979    236.9019   1.0359798368e+02   1.1059533208e+01    0.2939399    0.2091638 -56.11   0.00170049    1.593    0.372
        26 -10.1774      2.0312    168.3186   1.1992997802e+02   3.8226566477e+01     0.432182    0.1825168 -71.39  0.002118885    1.907    0.476
        27 -10.2480     55.5297    177.3469   1.0725560896e+02   3.0830582673e+01    0.4345235    0.2983125 -30.81  0.002137077    2.005    0.501
        28  -9.4155      8.7600    168.2752   1.1827222478e+02   3.7739301763e+01    0.1944155    0.1524031  39.97 0.0006677795    1.401    0.286
        29  -9.9768     72.0819    162.5076   1.0066573599e+02   3.2371273342e+01    0.3139746    0.2758663 -52.43 0.0004938497    1.156    0.135
        30 -11.6863     58.7057    158.4494   1.0378490316e+02   3.5184033163e+01    0.5444646    0.3107884 -40.15  0.001452674    2.114    0.527
        31  -9.5459      2.1726    161.0614   1.1933834961e+02   3.9963659351e+01    0.2930092    0.1812746  84.42  0.001338438    1.434    0.303
        32 -11.8368     78.7082    156.0800   9.7723392063e+01   3.3042852985e+01     1.847163     1.022013  61.71  0.002063373    2.526    0.604
        33 -10.6170     70.0061    145.7087   9.8411780576e+01   3.6936109959e+01    0.4897988    0.3912978  25.60  0.001474569    1.374    0.272
        34 -10.7311     67.5269    142.5169   9.8575698765e+01   3.8094547518e+01    0.5083004    0.3513633  51.74  0.001518392    1.582    0.368
        35  -9.1491     32.7565    156.8588   1.1082677105e+02   3.8484978060e+01    0.2788082     0.209277 -71.52 0.0008152422    1.167    0.143
        36 -10.2119     61.4393    171.9120   1.0497559469e+02   3.1437413407e+01    0.3377742    0.2799069 -24.95 0.0009534397    1.509    0.337
        37  -9.4515     95.1267    142.1128   9.0301140742e+01   3.3964419059e+01    0.3690865    0.2849798  10.15  0.001741291    1.588    0.370
        38  -8.5908     98.7417    138.8329   8.8549888392e+01   3.4162098957e+01    0.2965408    0.2310157 -24.44  0.001339662    1.509    0.337
        39 -10.5540     83.0077    140.5145   9.3549589301e+01   3.6335212664e+01    0.3434122    0.2735022 -47.45 0.0004395443    1.228    0.186
        40 -10.3798     57.1167    130.1378   9.9506049705e+01   4.2617567779e+01    0.5583277    0.2141518 -69.27  0.001863555    3.139    0.681
        41  -9.4052     94.2003    127.4247   8.7355950786e+01   3.7768830312e+01    0.2957733    0.2658331 -15.12 0.0004496786    1.198    0.165
        42 -10.5529     20.0681    194.7522   1.1768946089e+02   3.0471203561e+01    0.4114862    0.2043162  65.59  0.001165036    2.011    0.503
        43 -10.1878     67.5666    128.4310   9.5859690457e+01   4.1674195019e+01    0.5489249    0.3464393  86.92  0.002043704    2.414    0.586
        44  -9.1787    106.7969    131.0997   8.4467263675e+01   3.4619543947e+01    0.3506262    0.3060195  17.43   0.00123543    1.239    0.193
        45  -8.3558     49.3454    122.7050   1.0061185155e+02   4.5431291240e+01    0.1437431     0.105048  67.36 0.0007031878    1.668    0.401
        46  -8.2570    105.1410    119.6105   8.2192500092e+01   3.7691415717e+01    0.2464512    0.2070182 -61.72 0.0004098214    1.242    0.195
        47  -8.8790     53.0000    111.9616   9.7233054933e+01   4.7690911266e+01    0.2435695   0.07506179 -59.83 0.0008037461    2.952    0.661
        48  -7.8365    205.5264    110.4922   5.6158964313e+01   1.8343041356e+01    0.1440289    0.1325824 -40.51 1.811097e-05    1.033    0.032
        49 -10.1603      1.8658     97.2970   1.1256236613e+02   5.5524457489e+01    0.4834479    0.1265383 -74.85  0.001631564    3.924    0.745
        50  -8.2336     41.5214     91.9719   9.6874315226e+01   5.3816679536e+01    0.2074923    0.1226559 -57.01 0.0004848545    1.518    0.341
        51 -10.9563      2.3233     79.1577   1.0944284903e+02   5.9737506879e+01    0.9873827   0.04480274 -63.66  0.002926617    5.034    0.801
        52  -8.1182     57.4898     75.9904   8.6458601059e+01   5.5488937850e+01    0.1790157    0.1253844 -78.72 0.0006535366    2.354    0.575
        53  -9.0259     13.1600     59.9204   1.0061889255e+02   6.3390196749e+01    0.1738473    0.1599567 -54.64 0.0005506829    1.240    0.194
        54  -7.7047     28.5138     52.5404   9.1399889626e+01   6.3671840783e+01    0.1260708    0.1071393 -25.02 0.0001290082    1.060    0.056
        55 -11.7920    207.7202     41.9343   3.9596949747e+01   2.8924313452e+01    0.6255797    0.5290031 -80.15  0.002972484    1.046    0.044
        56 -10.9609     68.6425    244.2557   1.1129821048e+02   1.4123701289e+01    0.7739449    0.3959447 -89.80    0.0037382    2.576    0.612
        57 -11.1742    222.3689     30.5862   3.5488127337e+01   2.7189114295e+01     0.563823    0.4213474  64.75  0.001841532    1.425    0.298
        58  -8.8848    128.3333     35.8607   5.0656513650e+01   4.8439711453e+01    0.3015355    0.2140028 -71.54 0.0009052004    1.883    0.469
        59 -10.3152     89.6922    232.8784   1.0569120360e+02   1.3547006185e+01    0.2588366    0.1861857  30.21 0.0009986346    1.386    0.278
        60  -8.5923     32.5754    233.8589   1.1783775871e+02   2.0564968628e+01    0.2797598    0.1065619 -80.39  0.001288247    2.711    0.631
