#   1 NUMBER                 Running object number                                     
#   2 MAG_AUTO               Kron-like elliptical aperture magnitude                    [mag]
#   3 X_IMAGE                Object position along x                                    [pixel]
#   4 Y_IMAGE                Object position along y                                    [pixel]
#   5 X_WORLD                Barycenter position along world x axis                     [deg]
#   6 Y_WORLD                Barycenter position along world y axis                     [deg]
#   7 A_WORLD                Profile RMS along major axis (world units)                 [deg]
#   8 B_WORLD                Profile RMS along minor axis (world units)                 [deg]
#   9 THETA_WORLD            Position angle (CCW/world-x)                               [deg]
#  10 FWHM_WORLD             FWHM assuming a gaussian core                              [deg]
#  11 ELONGATION             A_IMAGE/B_IMAGE                                           
#  12 ELLIPTICITY            1 - B_IMAGE/A_IMAGE                                       
         1 -13.0856     66.3924    142.9899   1.2984492338e+02   3.8336794098e+01     1.855986    0.8180038  85.65   0.00311375    4.834    0.793
         2 -13.9093      7.2536     15.4975   1.2348106957e+02   7.1088377353e+01     2.779694    0.6677756 -54.70   0.01243508    2.637    0.621
         3 -14.2047    200.4731     10.4922   6.6847262912e+01   3.3049122745e+01     2.318906     1.330744  41.23   0.01016632    1.906    0.475
         4 -13.4628    188.8303     27.6736   7.3878864198e+01   3.4267336358e+01     1.294001      1.09444  11.40  0.006103759    1.256    0.204
         5 -11.2997     83.9865    244.7986   1.3579834885e+02   1.9314135664e+01    0.4001824     0.176245  68.57  0.002435496    2.647    0.622
         6 -10.6249    248.7593    249.5267   1.1224211720e+02  -3.7074834584e+00    0.2216099    0.1064553  39.49  0.001574561    1.481    0.325
         7 -11.6051    125.1576    249.6743   1.3004737003e+02   1.3413402643e+01    0.3700157    0.1114068  44.58  0.002041225    2.320    0.569
         8 -11.5110    102.7755    247.7843   1.3321794328e+02   1.6578370506e+01    0.2569178    0.1686934  48.26  0.001240818    1.158    0.137
         9 -10.8859     98.9165    249.5012   1.3391190141e+02   1.6856134705e+01    0.2543528    0.1225336  48.48  0.001063499    1.439    0.305
        10 -11.0298     97.0457    245.6566   1.3391522808e+02   1.7576451703e+01    0.1618358    0.1273997  79.83 0.0004815024    1.322    0.243
        11 -10.2827     74.8107    249.6739   1.3744933671e+02   1.9782006289e+01    0.1869888    0.1532272  13.83  0.001534292    2.450    0.592
        12 -10.9338     66.5645    243.0123   1.3826641927e+02   2.1626316148e+01    0.1927289    0.1272184  75.90 0.0005942299    1.325    0.245
        13 -10.9718     67.3909    250.0942   1.3854661919e+02   2.0591421540e+01    0.2185628    0.1628178  67.88  0.001140327    1.171    0.146
        14  -9.9106     63.2660    250.6223   1.3916826745e+02   2.0993287822e+01    0.1836394   0.05823272  46.73 0.0008989028    2.072    0.517
        15 -14.0528     34.4315    246.1312   1.4306282764e+02   2.4701477634e+01     2.229912    0.7755575  39.78   0.01455492    2.469    0.595
        16 -14.3699     10.7538    207.7151   1.4505286510e+02   3.2673924794e+01     2.318907    0.7457446 -87.19  0.009817434    2.886    0.653
        17 -10.1868    194.2895    237.1352   1.1845754389e+02   4.9605775180e+00     0.191518    0.1248319 -63.90  0.001212666    3.269    0.694
        18  -9.0530    172.6535    238.7050   1.2187397826e+02   7.9646149757e+00    0.1022436   0.06464336  27.57 0.0007032089    1.671    0.401
        19 -11.0962     46.3404    248.1821   1.4146411644e+02   2.3180398334e+01    0.2760101    0.1164551  60.84  0.001023119    1.739    0.425
        20 -10.7052     35.2718    229.5594   1.4222117285e+02   2.6955035960e+01    0.2491679    0.1690584  77.74  0.001366445    1.207    0.172
        21 -10.9646    147.9807    230.0000   1.2473068080e+02   1.2548479130e+01    0.2357126    0.1128928  44.79  0.001482002    1.546    0.353
        22 -14.8094     58.5475    212.8929   1.3765434353e+02   2.6915086516e+01     7.685312     1.752303  54.37   0.03425528    3.813    0.738
        23 -12.8399     45.3317    232.9003   1.4087566964e+02   2.5410258691e+01    0.3074441    0.2247812  82.13 0.0008094351    1.275    0.216
        24 -11.0599    173.9473    222.4042   1.1980051419e+02   9.5487739835e+00    0.3379883     0.217497  60.47  0.001847833    1.764    0.433
        25 -10.1425     27.6581    221.8316   1.4302280602e+02   2.8875275836e+01    0.1705184   0.09255892  53.54 0.0006674638    1.316    0.240
        26  -8.8816    152.6683    212.9609   1.2208412507e+02   1.3956990870e+01    0.1394281    0.1189137  53.51 0.0003755478    1.121    0.108
        27 -11.2238     23.5834    203.1612   1.4280360747e+02   3.2197837915e+01    0.2257603    0.2050269 -68.58  0.001667045    1.722    0.419
        28 -13.9954     51.7561    223.4178   1.3938430845e+02   2.6091023832e+01    0.8908507    0.5198979  68.49  0.005555614    1.335    0.251
        29 -11.4880     69.4161    198.3581   1.3476550651e+02   2.7921894125e+01    0.2600421    0.2044684 -53.73  0.001546218    1.830    0.453
        30  -9.8450    192.1562    193.3083   1.1293085578e+02   1.0029051465e+01     0.295492    0.1832082 -68.45  0.001363731    4.172    0.760
        31 -11.6573     74.4060    190.7211   1.3324023460e+02   2.8555758009e+01    0.2112712    0.1898142  89.33 0.0007337231    1.317    0.241
        32  -8.5787    105.8368    181.5781   1.2655056095e+02   2.5746485925e+01    0.1565587   0.08729837  55.09  0.000438886    1.562    0.360
        33 -10.9474     83.2531    178.1056   1.3039836074e+02   2.9546932818e+01     0.198588    0.1675831  86.21  0.000393434    1.153    0.133
        34 -13.2670     70.7790    175.8661   1.3253480795e+02   3.1582139549e+01    0.3744337    0.2487845 -46.85   0.00177286    2.244    0.554
        35 -12.0518     89.2300    168.4476   1.2818094617e+02   3.0427436428e+01    0.8981007    0.4765896  60.38  0.005001953    1.835    0.455
        36 -11.1419    229.7176    230.1676   1.1238598630e+02   4.1746100584e-01    0.4303654    0.2745018 -57.14  0.002405115    4.421    0.774
        37  -9.9868    101.4975    152.2323   1.2359812890e+02   3.1581620481e+01    0.2448984    0.2227448 -65.61 0.0008708221    1.247    0.198
        38  -9.4248    104.0542    148.0053   1.2244312022e+02   3.1973656406e+01    0.2127243    0.1680648 -39.16   0.00115207    1.667    0.400
        39 -12.0225     90.3977    151.7452   1.2584393228e+02   3.3341620522e+01    0.2221287    0.2180276  71.77  0.000505576    1.305    0.234
        40  -8.6502    192.2000    143.9669   1.0434339453e+02   1.6555093501e+01    0.1593209    0.1035316 -34.90 0.0004074735    1.667    0.400
        41 -12.2680     30.5627    139.6468   1.3730988301e+02   4.3030653418e+01    0.3853377    0.1968592  48.85  0.002382771    1.799    0.444
        42  -9.7264    111.7103    137.2297   1.1908148928e+02   3.2773056109e+01    0.2733322    0.2166123 -19.02  0.001173657    1.948    0.487
        43  -8.8010     88.5368    137.9240   1.2427822453e+02   3.6292070039e+01    0.1658174    0.1132897 -67.27 0.0002740565    1.423    0.297
        44 -10.5525     99.3624    134.5861   1.2135132274e+02   3.5294453736e+01    0.2180899    0.2062655 -33.44 0.0002526631    1.351    0.260
        45  -9.6089    242.1580    138.8435   9.5030889758e+01   7.5598357735e+00    0.1791476    0.1303835  14.79 0.0003255528    1.296    0.229
        46 -10.8160     43.5034    128.1215   1.3322757100e+02   4.4051167329e+01    0.3048444   0.08831174 -65.79  0.001341187    2.865    0.651
        47 -15.4311      4.3428    237.5607   1.4699303144e+02   2.8773346570e+01     10.33075    0.5703316 -76.68   0.03996231    9.267    0.892
        48  -9.2162    108.3217    124.0571   1.1748758335e+02   3.5905603184e+01    0.1706752    0.1525204 -80.61  0.000328189    1.068    0.064
        49 -10.7878    168.1561    113.2989   1.0227346952e+02   2.6298504267e+01    0.3575449    0.2881826 -88.98  0.001082506    1.600    0.375
        50 -10.9588     53.1371    111.4925   1.2870432135e+02   4.6467326246e+01    0.3165102    0.1783945 -66.54  0.001781163    1.544    0.352
        51  -9.3782    203.7050    111.4227   9.5194073485e+01   1.8912434894e+01    0.2037081     0.121072  40.17 0.0009481704    1.657    0.397
        52  -9.5929    155.1423     75.8107   9.5197539215e+01   3.5653899903e+01    0.2076509    0.1767913   7.80 0.0005170291    1.335    0.251
        53 -10.1748    152.2295    248.4000   1.2592005552e+02   9.8464906084e+00     0.145393   0.06764542  49.60 0.0003652666    1.616    0.381
        54 -11.0558     81.3680    248.2926   1.3640888727e+02   1.9178563030e+01    0.2832233    0.1498361  68.87   0.00176021    1.773    0.436
