#   1 NUMBER                 Running object number                                     
#   2 MAG_AUTO               Kron-like elliptical aperture magnitude                    [mag]
#   3 X_IMAGE                Object position along x                                    [pixel]
#   4 Y_IMAGE                Object position along y                                    [pixel]
#   5 X_WORLD                Barycenter position along world x axis                     [deg]
#   6 Y_WORLD                Barycenter position along world y axis                     [deg]
#   7 A_WORLD                Profile RMS along major axis (world units)                 [deg]
#   8 B_WORLD                Profile RMS along minor axis (world units)                 [deg]
#   9 THETA_WORLD            Position angle (CCW/world-x)                               [deg]
#  10 FWHM_WORLD             FWHM assuming a gaussian core                              [deg]
#  11 ELONGATION             A_IMAGE/B_IMAGE                                           
#  12 ELLIPTICITY            1 - B_IMAGE/A_IMAGE                                       
         1 -14.0076    221.5130     13.2632   4.1733912896e+01   2.7931910612e+01     1.214409    0.9384843  38.05  0.002861487    1.640    0.390
         2 -13.7592    197.0071     36.7434   5.0864184200e+01   3.1197583517e+01     1.553008     1.134118   6.48  0.003471068    1.881    0.468
         3 -13.9306    205.6628     30.4413   4.7964902810e+01   2.9816650540e+01     1.479346     1.226294 -17.54  0.006917987    1.377    0.274
         4 -12.4679    212.6562     23.2982   4.5223276545e+01   2.8944892010e+01     0.530131    0.4142709  34.11   0.00115506    1.600    0.375
         5 -12.1582      2.9603      3.9519   9.7453063850e+01   7.3585272851e+01    0.5031821    0.3141307 -28.94  0.003542358    1.186    0.157
         6 -10.4792     56.9357      2.1261   7.0029115673e+01   6.7444094038e+01     0.210449    0.1420832 -33.30  0.001265446    1.648    0.393
         7 -11.0064     47.6276      2.4818   7.3973162633e+01   6.8873951189e+01    0.2144045    0.1910383  -6.87 0.0006757277    1.304    0.233
         8  -9.6556     95.3848     41.7771   7.4458667027e+01   5.5140208611e+01    0.2802298    0.1251335 -38.90  0.001142619    2.211    0.548
         9 -15.1325    108.0073    247.6673   1.1441191614e+02   1.0346407007e+01     5.881907     2.296494  31.59  0.004231385    3.971    0.748
        10 -13.5999     38.2079    210.1741   1.2392424258e+02   2.6506817670e+01    0.7058305    0.5424579 -38.46  0.004010609    2.258    0.557
        11 -15.7575     47.1290    200.0726   1.2142259819e+02   2.7503326216e+01     6.259163     2.057307  60.45   0.02429599    3.764    0.734
        12  -9.2193     99.1940    186.4099   1.0901053055e+02   2.3117145441e+01    0.1875766    0.1101374  51.93   0.00071139    1.583    0.368
        13 -11.9172     64.2429    181.8365   1.1607707646e+02   2.9220258364e+01    0.3656522    0.2570961 -39.51  0.002017122    2.110    0.526
        14 -11.8099     69.2211    176.3248   1.1432775525e+02   2.9763809461e+01    0.2768106    0.2388987 -53.97 0.0006782819    1.387    0.279
        15  -8.9099     99.4760    180.5020   1.0810858524e+02   2.4331807293e+01    0.1344282    0.1210155  73.09 0.0008099725    1.033    0.032
        16 -11.3030     43.0272    179.8042   1.2042863579e+02   3.2276191412e+01    0.3436584    0.2111712  22.81  0.001302705    2.376    0.579
        17  -9.0498     96.2342    201.3611   1.1159761859e+02   2.0500811544e+01    0.1714368    0.1025797  50.61 0.0002446617    1.470    0.320
        18 -13.3961     66.0753    162.3896   1.1326088401e+02   3.3334404989e+01    0.4825156    0.3026668 -45.28   0.00180182    1.982    0.495
        19 -11.4794     78.6220    166.0768   1.1081370526e+02   3.0739219985e+01    0.2738393    0.2422801 -74.96 0.0003713585    1.127    0.113
        20 -13.8160     82.3736    158.7934   1.0883842913e+02   3.1852082290e+01     2.903069     1.074336  56.06  0.003452484    4.093    0.756
        21 -10.3621    195.2394    168.7284   8.5112600613e+01   8.7376141435e+00    0.3208791    0.2586607  47.72 0.0007539858    1.280    0.219
        22  -9.7621    160.9214    165.2305   9.1617540649e+01   1.6265499253e+01    0.2186969    0.1935163  73.84 0.0006013744    1.262    0.208
        23 -10.8874     33.4409    156.2710   1.2019166006e+02   3.8573504885e+01    0.2595606    0.1678579  59.81  0.001541979    1.495    0.331
        24  -9.6061    175.0110    149.3035   8.5159590048e+01   1.6520626414e+01    0.2169784     0.192986  43.12  0.000731931    1.107    0.096
        25 -10.7767    133.6612    144.2501   9.3553989588e+01   2.6166945883e+01      1.08253    0.2568208 -54.42  0.002461147    6.412    0.844
        26 -10.8311     99.4668    144.4746   1.0212696387e+02   3.2450931444e+01    0.2775086    0.2579089 -84.73 0.0008313973    1.010    0.010
        27 -10.1697    102.2199    140.7639   1.0070596697e+02   3.2844304239e+01    0.3797863    0.2477479 -29.66 0.0009678717    2.250    0.556
        28 -12.3108     87.5479    143.0086   1.0490899082e+02   3.4741384292e+01    0.2899631    0.2498248 -53.40 0.0005068721    1.196    0.164
        29 -10.3953     82.9605    142.9073   1.0607368084e+02   3.5474653779e+01    0.3028571    0.2206714  71.41 0.0008630091    1.495    0.331
        30 -14.1379     68.3225    144.2079   1.1005656370e+02   3.7274770546e+01     3.358686     1.515749 -86.65  0.003054961    5.185    0.807
        31 -13.2495      8.3319    187.3324   1.2801943899e+02   3.4172587248e+01    0.4854898    0.4162732  34.42  0.002859313    1.597    0.374
        32 -11.1802     17.8955    138.0294   1.2198976322e+02   4.4190579196e+01     0.265978    0.1125715 -59.72  0.000792116    2.008    0.502
        33  -9.8716    156.7867    138.1577   8.6704041980e+01   2.2685935126e+01       0.2143    0.1828969  15.09  0.001064262    1.329    0.248
        34 -10.8304     31.6444    137.5316   1.1849683790e+02   4.3088196838e+01    0.2362845    0.1744837  70.03 0.0008060206    1.328    0.247
        35 -10.1876    110.0923    132.1774   9.6888897300e+01   3.3438251912e+01    0.3227152    0.2660117 -12.80  0.000930167    1.591    0.371
        36 -10.0314    105.8951    131.0950   9.7757962280e+01   3.4452567497e+01    0.3428805    0.2733874 -80.89  0.001627783    1.367    0.268
        37 -10.5630    160.0305    128.7912   8.3730085424e+01   2.3945071293e+01    0.3835599    0.2157391 -28.11  0.001429324    2.353    0.575
        38 -11.6494     46.5846    129.4567   1.1347837700e+02   4.3463701103e+01    0.4139125    0.1943423  42.03  0.001962972    2.267    0.559
        39 -10.9249     97.3082    128.6374   9.9523468463e+01   3.6533788635e+01    0.2739091    0.2446868 -15.74 0.0003903852    1.353    0.261
        40  -9.2145    125.6587    127.3194   9.1759776288e+01   3.1560234732e+01    0.1588941    0.1201499  84.11  0.000509349    1.717    0.418
        41 -10.1141    116.6944    126.2428   9.3833950956e+01   3.3566837765e+01    0.2991917     0.189175 -66.99  0.001259697    1.898    0.473
        42 -10.1649     53.9595    149.3148   1.1442632201e+02   3.7911974868e+01    0.1810019    0.1589696 -89.41 0.0007016163    1.058    0.055
        43  -9.8664    107.0063    120.2812   9.5038661027e+01   3.6768882123e+01    0.2360447     0.201229 -54.49 0.0003673465    1.122    0.109
        44  -9.8815    135.0000    119.9739   8.7604218819e+01   3.1279226540e+01    0.2632187   0.08728124 -46.23 0.0008071352    2.975    0.664
        45 -11.4089    193.2298    193.8976   9.0421496192e+01   4.8384791974e+00    0.6621259    0.4354554 -62.74  0.003110893    2.526    0.604
        46  -9.9617    168.1472    112.8436   7.7845037639e+01   2.5389583507e+01    0.3615443    0.2393686 -62.81  0.001288055    1.981    0.495
        47  -9.9716    205.3051    110.2530   6.9546321909e+01   1.7246033012e+01    0.3149065    0.2113844  43.98  0.001032891    1.554    0.357
        48 -10.1636     41.4041    103.2807   1.1055197967e+02   5.0236014222e+01    0.2070176    0.1461416  60.35 0.0007612238    1.686    0.407
        49  -9.3011     24.8966     82.5078   1.1185548397e+02   5.6531704541e+01    0.1494543    0.1257129  13.44 0.0003880338    1.465    0.317
        50 -16.0157     10.8241    240.9754   1.3033848213e+02   2.3700067434e+01     2.454107     1.698589  51.06  0.009954984    1.371    0.271
        51  -9.5674    158.5480     80.4956   7.0934544027e+01   3.4023184022e+01    0.1555933    0.1524753  -5.74 0.0001831649    1.028    0.028
        52  -9.8396     50.7404     63.8727   9.7925878347e+01   5.8131784252e+01     0.275811    0.1660842  50.00  0.001348843    2.348    0.574
        53 -10.0396     13.5713     59.9444   1.1108755811e+02   6.2312817163e+01    0.1775384    0.1675276 -37.23 0.0004181553    1.225    0.183
        54 -11.8001    142.2556     47.4944   6.4078304558e+01   4.3676090852e+01     1.075977    0.6132887 -79.06  0.003130188    4.907    0.796
        55 -13.8987     67.4919    242.9086   1.2111785849e+02   1.6817887334e+01     1.865711    0.7452458  54.39  0.007848779    2.029    0.507
        56 -13.6313     46.8899    219.7341   1.2303035864e+02   2.3633372895e+01     1.162778    0.6769062 -77.54   0.00382811    1.612    0.379
        57 -15.4156      3.3113    170.1510   1.2792475524e+02   3.8212605050e+01      6.28792     0.588447 -73.42   0.01998418    5.747    0.826
        58 -10.6509     77.3766    235.4640   1.1877396427e+02   1.6795237297e+01    0.2005806    0.1482619  75.62 0.0006275951    1.181    0.153
        59  -9.2045    102.1570     29.8156   6.7704347756e+01   5.5510336531e+01    0.1958852    0.1514155  18.01 0.0006166314    1.297    0.229
        60 -10.4232      2.0000     22.9586   1.0569819271e+02   7.0372361154e+01    0.1861456   0.04970105 -56.85 0.0008041208    2.954    0.661
        61 -11.1279    144.3987     41.5553   6.1579297511e+01   4.4020894188e+01     0.439025    0.2933542 -83.47  0.001172339    2.281    0.562
        62 -10.6423    189.6818     15.1100   4.5666572732e+01   3.5668948056e+01      0.24304    0.1810072  89.28 0.0008021819    1.314    0.239
        63 -14.8752      9.1764    207.6368   1.2901818012e+02   3.0014902777e+01     1.263001     1.071467 -77.14   0.01025594    1.456    0.313
        64 -10.5780     73.7749    188.2507   1.1475811940e+02   2.6537058500e+01    0.3449978    0.1844609  70.14  0.001635117    2.174    0.540
        65 -11.4481    183.9318    216.0030   9.6035645963e+01   2.9987636748e+00    0.2497783    0.1939363 -25.53  0.001519632    1.468    0.319
