#   1 NUMBER                 Running object number                                     
#   2 MAG_AUTO               Kron-like elliptical aperture magnitude                    [mag]
#   3 X_IMAGE                Object position along x                                    [pixel]
#   4 Y_IMAGE                Object position along y                                    [pixel]
#   5 X_WORLD                Barycenter position along world x axis                     [deg]
#   6 Y_WORLD                Barycenter position along world y axis                     [deg]
#   7 A_WORLD                Profile RMS along major axis (world units)                 [deg]
#   8 B_WORLD                Profile RMS along minor axis (world units)                 [deg]
#   9 THETA_WORLD            Position angle (CCW/world-x)                               [deg]
#  10 FWHM_WORLD             FWHM assuming a gaussian core                              [deg]
#  11 ELONGATION             A_IMAGE/B_IMAGE                                           
#  12 ELLIPTICITY            1 - B_IMAGE/A_IMAGE                                       
         1 -16.9793    165.0147     71.2323   7.0097667273e+01   3.4050731933e+01     6.713171     3.164689  46.99   0.02487909    2.148    0.534
         2 -16.6939    199.9790     93.4839   6.9537281892e+01   2.1393612352e+01     3.381809     3.087736 -19.97   0.01777011    1.094    0.086
         3 -18.1532    193.9755    165.7304   8.8128985707e+01   9.7035302670e+00     6.496995     4.044412  16.52   0.02780826    2.292    0.564
         4 -16.6319    228.3685    124.6151   7.2353218185e+01   9.5191409784e+00     3.711613     2.287358 -23.68    0.0169297    1.676    0.403
         5 -12.5574    132.3005     33.1535   6.4564861347e+01   4.8185173847e+01    0.3375351    0.3100549  63.75 0.0004459131    1.154    0.134
         6 -17.1387    130.8380    103.4701   8.7708163196e+01   3.5719093854e+01     5.127941     3.729779  34.39   0.02381368    1.512    0.339
         7 -12.1790    201.9046     22.7227   4.9159779888e+01   3.1552661708e+01    0.5035321    0.2172859 -30.26  0.001745357    2.265    0.559
         8 -11.3289    175.1724     22.3167   5.2725063770e+01   3.8583117299e+01    0.2486049    0.2374507 -89.88 0.0003355274    1.034    0.032
         9 -12.6076    238.8159     17.3993   4.3802669538e+01   2.2989743087e+01    0.4615935    0.2204295 -38.07  0.002149936    1.854    0.460
        10 -11.0116     12.4715     15.3078   1.0011492153e+02   7.0738002248e+01    0.2924345    0.1471318 -50.28  0.001715803    1.714    0.417
        11 -18.9332    181.2400    136.6488   8.4328674130e+01   1.7724456609e+01     6.535742     3.911063  46.95   0.02846859    1.648    0.393
        12 -12.5184    248.4136      5.5251   4.0171270578e+01   2.2077597607e+01    0.5286941    0.2730817 -23.37  0.002565859    2.154    0.536
        13 -12.7008    238.5930      4.7899   4.0760764215e+01   2.4437772231e+01    0.4583082    0.2196634 -33.02  0.002200015    1.940    0.485
        14 -10.2470     26.9662      7.0224   8.9056493455e+01   7.0757743593e+01    0.1474669     0.138278 -40.07 0.0004793716    1.626    0.385
        15 -11.5444    227.8452      5.8324   4.1913901012e+01   2.6901910822e+01    0.1951905     0.136395 -62.02 0.0004586779    1.334    0.251
        16 -10.4931    178.3088      5.9267   4.7165093169e+01   3.9488403308e+01    0.2317045    0.1585526 -50.68   0.00117248    1.541    0.351
        17 -10.9854    223.8782      4.8574   4.2016936430e+01   2.7971957375e+01    0.1954942    0.1384389 -61.68 0.0005302097    1.322    0.244
        18 -10.8623    107.6354      4.8510   5.9148040380e+01   5.7199188179e+01    0.2387739     0.160329  42.82 0.0007275617    1.324    0.245
        19  -9.9944      8.1197      4.9001   9.7773515795e+01   7.2780871162e+01     0.149912    0.1264865 -20.54  0.001180567    1.250    0.200
        20 -11.0740    202.0760      3.8567   4.3836746265e+01   3.3539806600e+01    0.2141133    0.1671517 -72.64 0.0004878789    1.235    0.190
        21 -10.9738     40.0723      2.9192   8.0765219860e+01   6.9756814797e+01     0.229038    0.1619045  38.55  0.001142188    1.703    0.413
        22 -10.3248     62.8296      6.8369   7.3505251514e+01   6.5865043233e+01    0.1864284    0.1400305   6.00 0.0003239808    1.158    0.136
        23  -9.9653     85.4949      2.5222   6.3930126531e+01   6.2146219385e+01    0.1304222    0.1099217  17.79 4.041887e-05    1.007    0.007
        24 -11.1032    207.7814      1.6023   4.2653051685e+01   3.2309643120e+01     0.268993    0.1128755  68.15  0.001139326    2.132    0.531
        25 -10.0130    141.4329      1.5321   5.1076550950e+01   4.9383836418e+01    0.1346211    0.1261454  64.23 0.0002116967    1.069    0.064
        26 -10.5257    149.3779    234.1096   1.0810913560e+02   6.6981279444e+00     0.187562    0.1354591  40.04 0.0003874095    1.176    0.150
        27 -11.5995    213.8216    249.2593   9.8891338404e+01  -5.6138655968e+00    0.2482933    0.1719564  13.47  0.001405489    1.422    0.297
        28 -11.3456    202.0067    249.0491   1.0085700378e+02  -3.7717183401e+00    0.1849149     0.163183 -26.32 0.0007241386    1.448    0.310
        29 -10.8164    227.8901    232.1869   9.3935372669e+01  -5.8703978873e+00    0.1940318    0.1479056  26.64 0.0003206102    1.056    0.053
        30 -10.5890    201.6433    233.3345   9.8652203260e+01  -1.8237797529e+00    0.1695003    0.1364225  62.45  0.001102362    1.685    0.407
        31 -11.9164    174.6990    231.7498   1.0322059614e+02   2.8402624109e+00    0.4057224    0.2725381  28.53  0.001871709    1.444    0.308
        32 -11.0401    164.8834    231.2654   1.0492881872e+02   4.5486509655e+00    0.2271146    0.1553155  57.59 0.0008340648    1.516    0.341
        33 -11.7355    214.1305    229.7043   9.5910628958e+01  -3.3990475482e+00     0.228125    0.1889018  39.75  0.001203126    1.261    0.207
        34 -11.5326    182.8466    237.3549   1.0254987248e+02   7.3188023244e-01    0.2986741    0.2070339  23.69   0.00144939    1.452    0.311
        35 -11.0672    206.8634    229.7147   9.7183765558e+01  -2.2209744345e+00    0.1896286    0.1488249  -5.09 0.0006307351    1.375    0.273
        36 -11.2992    143.2528    230.2420   1.0873535180e+02   8.2935662323e+00    0.3156695    0.1948306  64.14  0.001556696    1.864    0.463
        37 -10.4227    139.3996    228.5920   1.0923463041e+02   9.1852023835e+00    0.2184051    0.1239263 -56.77  0.001221606    2.166    0.538
        38 -10.3615     81.9143    230.1701   1.1979167880e+02   1.7728244084e+01    0.1746916    0.1192212  63.34 0.0003444928    1.161    0.139
        39 -10.4132     69.3322    230.1715   1.2198699366e+02   1.9439342451e+01    0.1745163    0.1295028  49.01 0.0004925014    1.301    0.231
        40 -10.1570    183.2563    228.7118   1.0124132366e+02   1.8284990456e+00    0.1659804    0.1493132  77.73 0.0006189006    1.454    0.312
        41 -12.9024    242.6226    224.0794   9.0122321588e+01  -7.2258161361e+00     0.633379    0.4503172  35.18  0.003419192    1.295    0.228
        42 -11.0656    238.0175    221.2536   9.0421590369e+01  -6.1928289908e+00    0.2103251    0.1543039  36.77 0.0004194285    1.306    0.234
        43 -11.7786    196.7937    226.6997   9.8505726500e+01  -1.6891246311e-01    0.3143428     0.188404  40.61 0.0005762587    1.370    0.270
        44 -10.3889    194.0266    223.2449   9.8470875837e+01   7.6001781174e-01    0.1809543    0.1318028  36.34 0.0004628181    1.122    0.109
        45 -11.3711    198.5009    221.3837   9.7371018503e+01   2.5454868943e-01    0.4219553    0.2141548  27.92  0.001589647    2.120    0.528
        46 -11.8888    202.9651    225.5231   9.7221708294e+01  -1.0434432072e+00    0.2919933    0.2181438  37.32 0.0006117412    1.129    0.114
        47 -12.0507    206.1501    222.8563   9.6232844779e+01  -1.2271437472e+00    0.2779172    0.2551024  11.01 0.0009539743    1.194    0.162
        48 -10.8285    220.0414    225.6570   9.4237518480e+01  -3.8598210941e+00    0.4015584    0.1611484  30.93  0.001711074    2.529    0.605
        49 -12.4047    181.9751    221.7383   1.0043661545e+02   3.0254545740e+00    0.5177897    0.2161579  37.16  0.002023404    2.131    0.531
        50 -11.8234    175.3317    224.2859   1.0203598621e+02   3.7951113050e+00    0.2851607    0.2075058  26.98 0.0007456997    1.341    0.254
        51 -12.0437    170.9967    223.7269   1.0275212904e+02   4.6168246600e+00     0.340119    0.2837297  60.01  0.002246006    1.294    0.227
        52 -13.2340    166.7772    223.4350   1.0348943783e+02   5.3811425972e+00    0.7248654    0.2200826  41.85   0.00259682    2.728    0.633
        53 -12.0461    133.5218    222.4843   1.0955830654e+02   1.1139960328e+01    0.2624115    0.2220541  73.91  0.001675551    1.202    0.168
        54 -12.5434    130.1667    220.5238   1.0994099361e+02   1.2019498204e+01    0.4107858    0.3253245 -45.86  0.002661177    1.601    0.375
        55 -10.8785    216.6205    221.9048   9.4225397954e+01  -2.8395539964e+00    0.2109614     0.148317  40.36 0.0003944444    1.289    0.224
        56 -12.0144    125.9627    204.9597   1.0871894256e+02   1.5443498772e+01    0.4398608    0.3648663 -61.11  0.002287762    1.361    0.265
        57 -11.9570    128.7889    211.4410   1.0903437405e+02   1.3809386221e+01     0.284128    0.2420605 -86.09 0.0007818745    1.267    0.211
        58 -13.0103    124.4605    215.7207   1.1041829695e+02   1.3779127185e+01    0.6046796    0.4390612  28.78  0.003585379    1.644    0.392
        59 -11.5692    121.5150    212.4724   1.1057311400e+02   1.4833571633e+01    0.2732567    0.2374356 -50.54  0.001126452    1.426    0.299
        60 -10.8814    230.4940    220.0720   9.1506986600e+01  -4.8645737053e+00    0.2373142    0.1533688  36.23 0.0007282725    1.320    0.243
        61 -10.1815    108.3676    219.7757   1.1394336306e+02   1.5644044870e+01    0.1496674    0.1102311 -54.82 0.0008234066    1.655    0.396
        62 -15.6427    213.8904    194.4243   8.9933547734e+01   1.3409794834e+00     2.174852      1.51564  34.20  0.009878606    1.264    0.209
        63  -9.6726    125.2682    249.3439   1.1409480376e+02   8.2515590049e+00    0.0991264   0.08422593  19.16 0.0002935605    1.609    0.378
        64 -10.7782     13.3291    216.5827   1.3055931976e+02   2.8377905272e+01    0.1511958    0.1167414  49.77  0.001218481    1.464    0.317
        65 -10.4639     68.9624    203.1529   1.1966725932e+02   2.4501907516e+01    0.1895644    0.1331663  70.04  0.001219559    1.190    0.160
        66 -10.9722     45.0989    201.7066   1.2404423071e+02   2.7792798336e+01    0.2783939     0.221334 -49.40  0.001927575    1.865    0.464
        67 -10.1043    236.8783    213.5256   8.9288216756e+01  -5.0982566942e+00    0.1804797    0.1029368  38.75  0.001013586    1.546    0.353
        68  -9.7637     76.6062    200.7974   1.1795244069e+02   2.3914949739e+01    0.1650223    0.1017623 -85.65 0.0006273349    1.630    0.387
        69 -10.6969     34.0651    197.9386   1.2579851603e+02   2.9787547391e+01    0.1699599     0.123207  76.93 0.0003475733    1.033    0.032
        70 -11.1588    112.1233    196.1204   1.1029830940e+02   1.9411945255e+01    0.1774476    0.1650033  44.83 0.0002616766    1.232    0.188
        71 -11.7816    101.8290    194.4581   1.1217586691e+02   2.1400108499e+01    0.3706205    0.1448596  38.07  0.001033238    2.604    0.616
        72 -11.0337     95.9395    196.0290   1.1356873561e+02   2.2010927297e+01    0.1838931    0.1570703  70.88            0    1.035    0.034
        73 -10.3343     46.8414    194.8347   1.2314853682e+02   2.8954757644e+01    0.1622688    0.1371405 -87.94  0.000291652    1.224    0.183
        74 -10.5409     49.6502    192.8013   1.2242987097e+02   2.9030772466e+01    0.1744164    0.1459855 -89.18  0.001249747    1.186    0.157
        75 -10.2730     71.6370    193.2398   1.1813819209e+02   2.6113395850e+01    0.1879679    0.1367305 -67.65 0.0001725735    1.407    0.289
        76 -10.2983    245.0273    191.1545   8.3796775584e+01  -3.6244480176e+00    0.2186636    0.1644391 -12.16 0.0008458777    1.235    0.190
        77 -12.3376     91.4359    188.6235   1.1356945511e+02   2.4187462653e+01    0.4922851    0.2662037  64.74  0.002389345    2.039    0.510
        78  -9.5729     76.7344    192.3360   1.1701642746e+02   2.5588350223e+01    0.1276969   0.07977815  74.62 0.0003802809    1.588    0.370
        79 -11.0129    239.8539    189.9946   8.4462524512e+01  -2.5989616127e+00    0.2811003    0.2105671  10.55 0.0008262168    1.208    0.172
        80 -11.1177     13.3589    204.7216   1.2992451807e+02   3.0593064454e+01     0.165393   0.08557729  48.25 0.0007260086    1.686    0.407
        81 -10.1472    248.4404    185.3327   8.2090006288e+01  -3.4354965864e+00    0.3012484    0.1246269  33.21  0.001311238    2.465    0.594
        82 -11.2126     96.2422    185.2049   1.1212353672e+02   2.4144122152e+01    0.1763746    0.1626682  81.84 0.0004630736    1.142    0.124
        83 -10.2213     17.3721    184.7034   1.2797682546e+02   3.4152751211e+01    0.1795483    0.1066141 -74.96  0.000629189    1.450    0.311
        84 -10.9162     86.0554    180.7328   1.1369412840e+02   2.6632865399e+01    0.3896281    0.1905831 -72.24   0.00181294    2.227    0.551
        85 -11.0237     50.9284    180.1636   1.2098872058e+02   3.1493923207e+01    0.2818692    0.1736209  26.02  0.001562287    2.332    0.571
        86 -13.1606     95.0519    175.6724   1.1107152350e+02   2.6320519534e+01    0.8313937    0.3278081 -66.51  0.003232531    2.911    0.656
        87 -11.8456     88.3284    173.8306   1.1228359682e+02   2.7754575376e+01    0.3901412     0.268952  68.04  0.002164508    1.422    0.297
        88 -13.1141    101.4003    172.9980   1.0929029237e+02   2.5870283528e+01    0.4555196     0.359795  89.80  0.000854113    1.245    0.197
        89 -11.6591     98.0748    166.5848   1.0905933109e+02   2.7787929142e+01    0.2853261    0.2226951  84.92  0.001618846    1.267    0.210
        90  -9.6094     16.7275    176.6655   1.2754166982e+02   3.5864099146e+01    0.1035198    0.0729643 -61.86 0.0002200236    1.598    0.374
        91 -12.2178     82.9456    166.4706   1.1245320394e+02   3.0159984773e+01    0.5047574     0.269739  86.88  0.002108909    2.766    0.638
        92 -11.6934     86.4649    165.4828   1.1151847248e+02   2.9848728282e+01    0.2277784    0.1931541 -71.65  0.001388867    1.158    0.136
        93  -9.8478     79.6458    170.7019   1.1376799129e+02   2.9720604097e+01     0.119415    0.1029856 -26.79 0.0007035579    1.696    0.410
        94 -10.0729     33.5826    169.7530   1.2358368946e+02   3.5665386835e+01    0.1630263   0.09139642 -88.60 0.0003203211    1.557    0.358
        95 -10.9898     76.9920    168.2934   1.1403452695e+02   3.0627555708e+01    0.1787038    0.1497223  77.84 0.0005997341    1.035    0.034
        96 -11.2069     92.5619    165.2065   1.1009678954e+02   2.8967620830e+01    0.2283525    0.1960362 -54.69  0.000796685    1.303    0.233
        97 -12.1624     92.3017    161.0995   1.0952776757e+02   2.9911978939e+01      0.32284    0.3091241 -24.43  0.002019106    1.348    0.258
        98 -11.7708     65.5534    163.8501   1.1601038177e+02   3.3180570795e+01    0.3621323    0.2147407  82.29  0.001074741    1.852    0.460
        99 -11.6672     41.9120    159.2737   1.2075102790e+02   3.7060031286e+01    0.4413009    0.1729062 -78.22  0.001948482    2.536    0.606
       100 -11.0927     98.6602    160.7520   1.0800655548e+02   2.8967789833e+01    0.2518826    0.2059064  61.44 0.0006077283    1.153    0.133
       101 -10.4279     15.9710    161.4430   1.2654132244e+02   3.9148085770e+01    0.1475548    0.1082285  39.43  0.001027406    1.607    0.378
       102 -10.8549    173.0072    247.2375   1.0559585369e+02   1.0320407385e+00    0.1724178    0.1560109  35.29 0.0004555713    1.180    0.152
       103 -10.1589     49.0493    165.4882   1.1985737562e+02   3.4878408082e+01    0.1664499     0.112516  45.30 0.0003963928    1.514    0.340
       104 -11.0708     15.8305    156.3003   1.2614943789e+02   4.0270655569e+01    0.2010647    0.1209378 -89.78 0.0005780396    1.330    0.248
       105 -10.2307     50.6668    150.3317   1.1770906293e+02   3.8072472527e+01     0.135432   0.08222846  73.31 -0.0002955916    1.728    0.421
       106 -11.2949     55.1842    148.1469   1.1635876726e+02   3.8031197877e+01    0.3325536    0.1335006 -57.55  0.001493023    2.252    0.556
       107 -10.2241    224.4464    216.2684   9.1912970273e+01  -3.4181213143e+00    0.1463497    0.1158926 -36.69  0.000501227    1.571    0.364
       108 -10.3354    249.0102    159.8816   7.6794560932e+01  -2.9701201361e-02    0.3224939    0.2560073 -64.72  0.001746095    2.053    0.513
       109 -11.4522     87.2444    139.9859   1.0722989575e+02   3.5480684749e+01    0.3097613    0.1940114 -66.97 0.0008248695    1.545    0.353
       110 -11.3454     88.8296    136.1562   1.0613419890e+02   3.6116279378e+01    0.2789248    0.2404695 -44.30   0.00101347    1.290    0.225
       111  -9.5770     14.5051    140.5419   1.2503968143e+02   4.3845257120e+01    0.1176909   0.08971722 -84.40 5.830062e-05    1.024    0.023
       112 -11.1482     80.3089    137.2303   1.0848956199e+02   3.7171136593e+01    0.2278045     0.201272  77.61 0.0003843453    1.090    0.083
       113 -10.2171     94.3935    135.2517   1.0454983977e+02   3.5429573263e+01    0.1966615    0.1278085 -69.34 0.0007304483    1.579    0.367
       114 -16.5972    213.4971    140.8798   7.8881264378e+01   9.9464856656e+00     1.997313     1.450241 -54.84  0.009686142    1.713    0.416
       115 -11.0310     78.1707    131.7839   1.0806806004e+02   3.8752323688e+01    0.2294388    0.1744564 -50.52  0.000404738    1.334    0.250
       116 -11.8191     75.7377    128.3921   1.0808518341e+02   3.9896690195e+01    0.2972963    0.2654479  32.21  0.001393421    1.320    0.243
       117 -10.1276     60.2393    123.1992   1.1127743245e+02   4.3195872128e+01     0.258507    0.1753599  66.26 0.0007095532    1.669    0.401
       118  -9.5358     63.5193    122.5052   1.1027302227e+02   4.2941815138e+01    0.1350271    0.1167322 -69.96 0.0001358204    1.034    0.033
       119 -11.3186     63.6880    126.7308   1.1096831927e+02   4.1929519440e+01    0.2507031     0.199891  85.35 0.0002898324    1.239    0.193
       120 -11.1015     70.1422    121.8450   1.0836302114e+02   4.2215485355e+01    0.2581324    0.1781114 -81.89 0.0007643283    1.532    0.347
       121 -11.2459     71.0341    117.2800   1.0724280897e+02   4.3163156079e+01    0.2656297    0.1790355 -54.97 0.0004548126    1.340    0.254
       122 -10.5345     30.0058    121.9307   1.1911735362e+02   4.6743186056e+01     0.183074    0.1463689 -73.24  0.001209173    1.049    0.047
       123 -10.9071      9.7962    116.9788   1.2375865217e+02   4.9485586957e+01    0.1821759    0.1703797  74.93 0.0002736523    1.286    0.222
       124 -11.4012      6.0034    114.5216   1.2446637116e+02   5.0293042498e+01    0.2292121    0.1315548 -74.82 0.0007538481    1.311    0.237
       125 -11.6425     58.4899    216.3215   1.2277697795e+02   2.3353303480e+01    0.4058356    0.2679888  36.85   0.00263171    1.750    0.429
       126 -11.4757     68.3159    114.0547   1.0736127990e+02   4.4290931984e+01    0.3592961    0.2098643 -32.32  0.001567981    2.525    0.604
       127 -10.6777    132.7709    246.5808   1.1251049799e+02   7.5022838484e+00    0.2017143    0.1472205  61.66  0.000590307    1.261    0.207
       128  -9.6067     40.6664    115.7335   1.1535221893e+02   4.7158012584e+01    0.1219651   0.08777951 -41.10  0.000230018    1.585    0.369
       129  -9.7215     56.5322    113.4899   1.1055927341e+02   4.5927445732e+01    0.1339613    0.1139119 -68.33 -3.158665e-06    1.013    0.013
       130 -11.3103     33.3103    109.1532   1.1635465186e+02   4.9397231004e+01     0.217243    0.1814257 -76.28 0.0003348353    1.048    0.046
       131  -9.7814     24.4098    109.1742   1.1884750911e+02   5.0164665478e+01    0.1805827   0.09789256 -80.81 0.0009485472    1.706    0.414
       132 -11.6461     85.1512    107.2044   1.0112479035e+02   4.3423326649e+01    0.3986861    0.2105687 -47.18 0.0009017236    1.792    0.442
       133 -10.7711     85.1435    100.5842   9.9552863098e+01   4.4947505287e+01    0.3183705    0.1900997 -61.18 0.0006771479    1.677    0.404
       134 -10.5852    241.3814    104.5378   6.5336021978e+01   9.9845337711e+00    0.2850243    0.1600036 -29.81 0.0009015792    1.668    0.400
       135 -16.8341    127.4379    153.9445   1.0012600151e+02   2.5367652592e+01     3.290291     2.628642  53.71   0.01758479    1.208    0.172
       136 -12.4825     72.7587     97.6390   1.0250529851e+02   4.7492155965e+01    0.4688379     0.283671 -61.23 0.0009368129    1.559    0.359
       137 -11.6534     94.5665    214.1970   1.1592375601e+02   1.8755689564e+01    0.3300546    0.2033417  41.53  0.001139921    1.536    0.349
       138 -11.0498     60.9153     97.5109   1.0604599456e+02   4.9112698874e+01    0.2549588    0.1753602 -60.94 0.0005846655    1.273    0.215
       139  -9.8746     33.2017     96.5185   1.1425420048e+02   5.2325595450e+01    0.2451156    0.1334416 -87.18  0.001151321    2.328    0.571
       140 -12.4225    227.3461     90.7468   6.4085643254e+01   1.5342140221e+01    0.4406261    0.3972646 -47.33  0.001895784    1.098    0.089
       141 -11.8890    230.9756     85.2520   6.2105031757e+01   1.5386718257e+01    0.2905935    0.2764822 -33.47  0.001652966    1.023    0.023
       142 -17.4450    171.9987    154.2567   9.0240817488e+01   1.6328086708e+01     5.433995     2.668592  24.02   0.01531588    4.972    0.799
       143  -9.5412     17.4986     95.4938   1.1878945132e+02   5.3822516202e+01    0.1232156   0.09360772 -63.89 -0.000158733    1.066    0.062
       144 -12.1672     98.1225     91.8428   9.3496521730e+01   4.4719658005e+01    0.3283422    0.2795621 -21.52  0.001124143    1.289    0.224
       145 -11.6295     92.1638     92.9151   9.5531622632e+01   4.5524363970e+01    0.2329941    0.2298777  44.44  0.001367607    1.100    0.091
       146 -11.1724     65.6597     90.0154   1.0284143144e+02   5.0215064394e+01    0.3350561    0.2437395  49.56  0.001822782    1.605    0.377
       147 -11.6543     88.2576     89.0814   9.5659929471e+01   4.7035874271e+01    0.4082542    0.2980213   5.88  0.001575602    1.923    0.480
       148 -10.5227    248.5795     87.9179   6.0195653510e+01   1.1021818707e+01    0.2174918    0.1562625 -19.01 0.0004905147    1.434    0.303
       149 -11.6521    239.8052     83.1750   6.0264841663e+01   1.3695027399e+01    0.5014024     0.216501 -33.44  0.001234688    2.094    0.522
       150 -11.5586     78.8796     89.0982   9.8514436067e+01   4.8528996469e+01    0.2739704    0.1998629 -43.30 0.0003111462    1.272    0.214
       151 -10.4964      8.8844     81.2662   1.1917568020e+02   5.7582292688e+01    0.1651132    0.1345089 -84.88 0.0005057913    1.215    0.177
       152 -10.9836     26.9586     79.3615   1.1293414619e+02   5.6753765585e+01    0.2286374    0.1379372 -55.24  0.000553167    1.303    0.232
       153  -9.7139    248.1786     77.5934   5.7708151695e+01   1.2675724041e+01    0.1732456    0.1324126  45.06 0.0004342654    1.467    0.318
       154 -10.0369    230.8981     74.5962   5.9363188201e+01   1.7079292980e+01    0.2125469    0.1781111  38.96 0.0005089909    1.321    0.243
       155 -11.3581     86.8965     67.1028   8.9545517432e+01   5.1946496184e+01    0.2759814    0.2327837 -55.07  0.000735823    1.250    0.200
       156 -11.9322     87.4645     72.7104   9.1142489027e+01   5.0697549555e+01    0.3866597     0.331252 -52.11 0.0002168774    1.161    0.139
       157 -11.0885     93.3633     71.7038   8.8987463694e+01   4.9873499367e+01    0.2648425    0.1359492 -48.99 0.0007066004    1.899    0.473
       158 -11.1464     91.3604     69.2671   8.8833197161e+01   5.0728327698e+01    0.2254953    0.1907758 -22.84 0.0005022807    1.166    0.143
       159 -10.4742    235.9633     71.9288   5.7952180802e+01   1.6303484612e+01    0.3670751      0.20715 -50.32 0.0009229176    1.844    0.458
       160 -11.2945     99.8180     71.5626   8.6974641399e+01   4.8713302402e+01    0.2569037     0.193611 -41.01 0.0002965753    1.242    0.195
       161 -12.5773      6.6296     68.0895   1.1761659003e+02   6.0607542782e+01    0.2738773    0.1876532 -52.46 0.0003817336    1.172    0.147
       162 -11.9407     52.3373     68.2583   1.0153066043e+02   5.6704253058e+01    0.4677612    0.2893386 -67.80  0.001902289    1.899    0.473
       163 -10.0324     43.9805     68.9815   1.0466136097e+02   5.7477299191e+01    0.1571776    0.1287294 -48.39 0.0003829072    1.006    0.006
       164 -10.8570    244.5107     66.5610   5.5444963934e+01   1.5138655305e+01    0.2782595    0.2014284 -66.79  0.001326112    1.558    0.358
       165 -10.8686    241.4873     64.9734   5.5436695472e+01   1.6063986428e+01    0.3268716    0.1985284 -54.33  0.001065408    1.743    0.426
       166 -10.2920     24.0287     71.2559   1.1221154470e+02   5.8781594512e+01    0.1609976    0.1354221 -53.62 0.0003421431    1.074    0.069
       167  -9.5813     36.9762     65.0336   1.0611390965e+02   5.9029126230e+01     0.152761    0.1218013 -49.44 0.0003903171    1.016    0.016
       168  -9.7517    229.9867     63.0369   5.6478055423e+01   1.9052304635e+01    0.1752741    0.1570746 -42.13  0.000456274    1.040    0.039
       169 -11.4628    129.9383     62.0563   7.5380108196e+01   4.4185873078e+01    0.2528381    0.2325555  68.68 0.0003469787    1.201    0.167
       170 -15.9279    231.2541    166.6228   8.1285349264e+01   2.2553019368e+00     2.333975     1.562717 -11.97    0.0120301    1.611    0.379
       171 -10.2915     29.8455     62.8106   1.0813190717e+02   6.0147470774e+01    0.1610944     0.131438 -71.74  0.000534584    1.293    0.227
       172 -12.0027     18.4499     58.0441   1.1117801633e+02   6.2041272686e+01     0.243115     0.178905 -66.42 0.0003502491    1.255    0.203
       173 -10.8416     10.1776     59.2052   1.1454095480e+02   6.2321010883e+01    0.2261364    0.1136238 -52.33  0.001302527    1.470    0.320
       174 -12.3562    138.1940     58.3118   7.2051406832e+01   4.2901019007e+01    0.4267685    0.3115841  12.14   0.00112114    1.735    0.423
       175 -11.0841     34.7481     58.0250   1.0502604992e+02   6.0726288193e+01    0.2778254    0.1630278 -42.89 0.0004758029    1.420    0.296
       176 -10.3209      1.4157     57.8299   1.1749523862e+02   6.3074368877e+01    0.1698304   0.08524352 -65.01 0.0006059462    1.493    0.330
       177  -9.6325    235.3860     57.2343   5.4251458593e+01   1.8616382227e+01    0.1406253    0.1049159  35.10 0.0001785525    1.636    0.389
       178  -9.7582    241.1799     56.2837   5.3278618385e+01   1.7392266080e+01    0.2017324    0.1455209 -56.43   0.00103267    1.376    0.273
       179 -10.2293    165.5115    245.9910   1.0674078048e+02   2.3958256627e+00    0.1425676    0.1177381 -40.24  0.001019341    1.565    0.361
       180 -11.4940    112.1508     55.4134   7.7896480892e+01   4.9306957327e+01    0.4440574    0.2631556  60.82  0.001099823    2.207    0.547
       181 -12.4627    249.3930     52.9085   5.1459830336e+01   1.5980032049e+01     0.271024    0.2298942 -50.22 0.0003980329    1.058    0.055
       182 -11.4544    128.3477     49.1314   7.1316167633e+01   4.6753223316e+01    0.3861257    0.2038536  46.46  0.001182255    1.867    0.464
       183 -11.8424    125.2078     53.4498   7.3648635261e+01   4.6765770633e+01    0.5203324    0.2622612  39.18  0.001496405    2.169    0.539
       184 -12.4974    117.2306     49.2436   7.4273497215e+01   4.9262397327e+01    0.6505149     0.444899 -86.06  0.001820064    2.831    0.647
       185  -9.5834     61.2730     53.6405   9.3794182446e+01   5.8585836632e+01    0.1259852    0.1022189 -71.97 0.0004357494    1.652    0.395
       186 -12.2889    242.3821     48.4228   5.1153994902e+01   1.8211759883e+01    0.3041567    0.2711827  49.49 0.0007179231    1.267    0.211
       187 -12.7238    147.2302     46.4597   6.5926861826e+01   4.2597503563e+01    0.4563581    0.3767509 -14.59 0.0005150436    1.274    0.215
       188 -12.0402    145.9477     42.7680   6.4937966421e+01   4.3468540362e+01    0.4029789    0.2181249  51.74  0.001431017    1.765    0.433
       189  -9.7052     66.3114     50.6863   9.0948143334e+01   5.8446751890e+01    0.1242232    0.1064137 -77.59 0.0003614245    1.633    0.388
       190 -10.8286    230.7275     47.6987   5.2369483796e+01   2.1080820889e+01    0.3795089    0.2160135 -61.68  0.001630411    2.078    0.519
       191 -12.5455    140.6937     46.8967   6.7548278877e+01   4.4149028717e+01    0.5446256    0.2819613 -31.24  0.001196407    1.944    0.486
       192  -9.4690     36.2749     49.2978   1.0183791458e+02   6.2373661260e+01    0.1261265   0.07808127 -31.62 0.0002012881    1.530    0.347
       193 -10.0649     29.4679     49.4990   1.0459031023e+02   6.2960804654e+01     0.123661   0.09808557 -44.09 3.262064e-05    1.020    0.020
       194 -11.9992    168.8596     44.6432   6.0939477193e+01   3.7335317371e+01    0.5558339    0.3217666  29.29   0.00205892    2.388    0.581
       195 -10.6122    173.9539     44.5143   5.9965424323e+01   3.6027097953e+01    0.2865826    0.2084186  43.54 0.0007892533    1.414    0.293
       196 -12.8356    175.7255     40.1853   5.8286941135e+01   3.6172949888e+01    0.4938914    0.3858426 -79.24  0.001176921    1.466    0.318
       197 -12.4319    181.7714     37.0254   5.6288524278e+01   3.5017435363e+01    0.3417781    0.3079739 -44.36 0.0003754773    1.120    0.107
       198 -12.4524    156.5026     44.4226   6.3276316219e+01   4.0555775600e+01    0.5499832    0.3882598  67.75  0.001817322    1.507    0.336
       199  -9.7127      3.5233     46.4841   1.1419022965e+02   6.5341347252e+01    0.1163565   0.08488782 -52.29 5.257121e-06    1.009    0.009
       200 -10.9445    192.1349     43.9069   5.6718545194e+01   3.1365465740e+01    0.3658682     0.237562  66.73 0.0003250875    1.549    0.354
       201 -11.4065    191.8039     40.2019   5.5667452819e+01   3.1963765898e+01    0.2194863    0.2146604  52.40 0.0003240011    1.064    0.060
       202 -10.8696    186.3215     43.9341   5.7661187548e+01   3.2878108821e+01    0.2472951    0.2022696  86.81 0.0003122067    1.300    0.231
       203 -10.7041    130.1362     44.0933   6.9068480610e+01   4.7124788650e+01    0.2273071    0.1945941  20.34  0.000391149    1.187    0.157
       204 -12.2739    116.6347     41.1297   7.1441443944e+01   5.0688880144e+01    0.6334772    0.2954315  40.05  0.002376314    2.275    0.560
       205 -11.0883    124.8776     43.1404   7.0036532292e+01   4.8503223041e+01    0.3060038    0.1989881 -35.57 0.0003505597    1.535    0.348
       206 -10.8673    124.0007     39.5087   6.8921143428e+01   4.9253963610e+01    0.3206918    0.1962072  60.42  0.001426359    1.804    0.446
       207 -10.9980    216.3018     41.0918   5.2444830378e+01   2.5548468892e+01    0.3171387    0.2049826  50.15 0.0009513321    1.649    0.394
       208  -9.6384     37.4442     42.5235   9.9139331741e+01   6.3591966125e+01    0.1251971    0.1002975 -36.40 7.356287e-05    1.017    0.017
       209 -10.0390    105.2680     41.5965   7.4787013588e+01   5.3077329862e+01    0.1980507    0.1283605  36.88 0.0007623247    1.569    0.362
       210 -11.9980     93.0313     38.7221   7.7359021666e+01   5.6000293383e+01    0.4930037    0.2298951 -44.60  0.001774402    2.394    0.582
       211  -9.9887     41.6777     40.9049   9.6853811117e+01   6.3453348487e+01    0.2254128    0.1104013 -23.36 0.0009628557    2.866    0.651
       212 -11.9412    133.2100     38.8187   6.6423582156e+01   4.7173766999e+01    0.3452033    0.3406851 -62.90  0.001347089    1.110    0.099
       213 -11.3504    156.0018    245.0974   1.0829093505e+02   4.0414673510e+00    0.2772264    0.1842349  27.56  0.001072198    1.635    0.389
       214 -10.7717    155.8272     37.4030   6.1051355045e+01   4.1724073619e+01     0.248629    0.1802126 -20.17 0.0008260864    1.472    0.321
       215 -10.4734     55.4636     38.5284   9.0493044373e+01   6.2212415704e+01     0.130282     0.108146 -24.30 -1.633827e-05    1.004    0.004
       216 -12.2167    243.5961    243.2821   9.3062410015e+01  -9.4118420220e+00    0.3199869    0.1567914  40.98   0.00187436    1.790    0.441
       217 -10.8617    219.9094     35.0028   5.0338629612e+01   2.5449068469e+01    0.2715066    0.2003031 -59.65 0.0004934786    1.345    0.257
       218 -12.7896    214.5774     31.5348   5.0049918105e+01   2.7234141267e+01    0.4872228    0.2786138  66.05  0.002240198    1.715    0.417
       219 -12.2100    216.6598     25.9710   4.8290216889e+01   2.7398585741e+01    0.3295953     0.254692 -57.43 0.0003831007    1.244    0.196
       220 -11.5774    213.9976     19.7171   4.6901362530e+01   2.8811244625e+01    0.2941683    0.2352205 -16.15 0.0003918027    1.430    0.301
       221 -11.6740     85.6633     33.3453   7.7553149549e+01   5.8239462847e+01    0.2742257    0.2182636 -17.62 0.0001735927    1.153    0.133
       222 -12.1831    199.3598     32.6222   5.2337419838e+01   3.0997602938e+01    0.3109874    0.2819868  80.89 0.0006875156    1.066    0.062
       223 -11.3066    140.4382     32.2729   6.2431506354e+01   4.6306493427e+01    0.3149506    0.1632625 -41.94  0.001293403    2.089    0.521
       224  -9.9345    115.2592     32.9791   6.8696231580e+01   5.2193684295e+01    0.1919278    0.1749303   1.04 0.0002113631    1.039    0.038
       225 -10.4794    117.3128     29.7185   6.6897211608e+01   5.2175377647e+01    0.2132887    0.1811918 -30.86 0.0005206618    1.218    0.179
       226 -10.6570     55.4600     33.5030   8.8504208777e+01   6.3093569170e+01    0.2109506    0.1156742  21.17   0.00102507    2.234    0.552
       227 -12.6565    188.1215     32.8851   5.4032983290e+01   3.3894688047e+01     0.403628    0.2890053 -27.02 0.0006697712    1.452    0.311
       228 -10.5672    195.2602     28.4061   5.1673460943e+01   3.2592615402e+01    0.2030361    0.1353195  82.75 0.0009442706    1.597    0.374
       229 -11.0380     68.9063     31.6997   8.2663574282e+01   6.1396106582e+01    0.2780906    0.2143483  52.30  0.001592847    1.723    0.420
       230  -9.9883    169.4508     29.4889   5.5940448143e+01   3.9221965776e+01    0.1457981    0.1398737  57.54 0.0002666154    1.017    0.017
       231  -9.8292      6.7637     28.9780   1.0790099858e+02   6.8636816114e+01    0.1484835   0.07272535 -54.06 0.0003189471    1.549    0.354
       232 -11.1910    140.5663     27.9643   6.0851793705e+01   4.6829671647e+01    0.3451495    0.1434715  43.45  0.001266455    2.475    0.596
       233 -16.5336    188.8090    114.5499   7.7306036336e+01   2.0214076788e+01     1.801613     1.315598  67.45  0.008177012    1.655    0.396
       234 -10.9639    209.6343     25.1903   4.8905123663e+01   2.9274205247e+01    0.3565112    0.1965247  78.21  0.001565885    1.917    0.478
       235 -10.7172    121.7575    243.8979   1.1413804119e+02   9.6063982702e+00    0.2116667     0.136863  55.28 0.0008267731    1.254    0.203
       236 -10.0424    228.6508     23.6936   4.6376241480e+01   2.4696993852e+01    0.1380668    0.1020755  36.52 0.0004205499    1.704    0.413
       237 -10.3689     47.8024    243.7087   1.2651749978e+02   1.9831943683e+01    0.2128032   0.09587201  74.19  0.001237928    2.168    0.539
       238 -10.3961     65.5712     23.4973   8.0354645171e+01   6.3195889368e+01    0.1304837    0.1081869  -9.44 -0.0003226761    1.011    0.011
       239 -11.0126    222.8597     21.7746   4.6486506598e+01   2.6351542704e+01    0.2043115    0.1828901  47.08 0.0006178269    1.266    0.210
       240 -10.0507     98.1936     21.3586   6.8672601969e+01   5.7446409227e+01    0.1829325    0.1287937  62.12  0.000573586    1.721    0.419
       241 -12.8528    193.4742    249.7112   1.0239996983e+02  -2.5175754643e+00    0.3109969    0.1894076  42.76 0.0005734181    1.317    0.241
       242 -11.0602    229.9894     20.0397   4.5304527335e+01   2.4803491976e+01    0.2358471    0.1412817 -61.80  0.001135016    1.706    0.414
       243 -12.2022     16.2922     18.7592   9.9648295377e+01   6.9851180849e+01     0.223374    0.1899289  -5.82 0.0002964108    1.269    0.212
       244 -10.4784     81.6985    242.9422   1.2091298672e+02   1.5602457330e+01    0.1538237    0.1135214  68.14 0.0004434953    1.079    0.073
       245  -9.5647     70.6398     19.7500   7.6817271280e+01   6.2895966563e+01      0.13254   0.08785451  13.01 0.0003269478    1.609    0.379
       246  -9.4741     28.7024     28.3003   9.7664345686e+01   6.7096789642e+01    0.1024936   0.09168365 -68.20 0.0001921551    1.577    0.366
       247  -9.9266     79.0197    213.6562   1.1878550249e+02   2.1109836144e+01    0.1661284    0.1202636  57.65 0.0004286035    1.137    0.120
       248 -11.3127    165.1023     38.3167   5.9585643201e+01   3.9202111194e+01    0.2727303    0.2555031  74.54 0.0002249129    1.070    0.065
       249 -10.5161     52.2527     15.6224   8.1931199427e+01   6.6358041200e+01    0.2877516    0.1417833  39.49 0.0008831372    2.195    0.544
       250 -10.1390     33.0000    242.9760   1.2880060816e+02   2.1666105705e+01    0.1481296    0.0486125 -76.33 0.0007982895    2.914    0.657
       251  -9.7010     95.0000     14.9578   6.6831342600e+01   5.8886475026e+01    0.2172208   0.07278899 -26.34 0.0008044631    2.957    0.662
       252 -10.2641     90.0000     13.9964   6.7866197367e+01   6.0020264049e+01     0.211316     0.071436 -26.66 0.0006597631    2.904    0.656
       253 -10.6728     30.4670    214.0017   1.2753453822e+02   2.7085735850e+01    0.1585118    0.1144072  65.37 0.0003460451    1.115    0.103
       254 -11.3247    189.4724    241.6765   1.0198874924e+02  -9.0062880567e-01    0.2096209    0.1453305  39.80 0.0005999662    1.141    0.124
       255 -10.1161    108.4621     10.4848   6.1329723475e+01   5.6461969616e+01    0.1371865    0.1203601  24.74 7.789605e-05    1.009    0.009
       256 -10.3925    224.4657    241.4911   9.5958600504e+01  -6.3836384868e+00     0.116726   0.08790987  24.52 3.226354e-05    1.005    0.005
       257 -10.4030    207.8606    241.1877   9.8736491001e+01  -3.7733779864e+00    0.1761236    0.1334696  38.87 0.0008414715    1.181    0.153
       258 -10.4996    111.1242    240.9832   1.1569251596e+02   1.1677200793e+01    0.3045708    0.0987364  49.76  0.001005278    2.510    0.602
       259  -9.1708     56.6574    241.6985   1.2496392009e+02   1.9088140410e+01   0.08638445   0.08353547  49.53 0.0007038158    1.677    0.404
       260  -9.6346    158.2783    239.3336   1.0717445635e+02   4.4819654423e+00    0.1110398   0.08491472  16.78 0.0003222621    1.607    0.378
       261 -12.3361    126.6431    237.2800   1.1256633534e+02   9.8701496115e+00    0.2697917    0.2040875 -89.96 0.0006058248    1.538    0.350
       262 -12.3096    193.7545    236.0201   1.0043519624e+02  -8.7811969443e-01    0.3192196    0.2527138 -41.73  0.002190107    1.619    0.382
       263 -11.5684    245.2465    235.8737   9.1623338616e+01  -8.8930394911e+00    0.2799354    0.1811634 -27.88  0.001159422    1.737    0.424
       264 -11.8091    232.5089    236.0184   9.3761596509e+01  -7.0075363743e+00    0.2978388    0.1981764  18.90 0.0009641328    1.287    0.223
       265 -10.8742    102.7885    236.3849   1.1669790285e+02   1.3666450264e+01    0.2415335    0.1461429  73.16   0.00137694    1.776    0.437
       266 -10.3203    118.5104    235.0455   1.1377220143e+02   1.1495328593e+01    0.1830326    0.1298068  49.77 0.0004579127    1.124    0.110
       267 -10.3658     33.3171    235.6816   1.2835209864e+02   2.2871619291e+01     0.112636   0.05382528  66.25 0.0007040142    1.656    0.396
