#   1 NUMBER                 Running object number                                     
#   2 MAG_AUTO               Kron-like elliptical aperture magnitude                    [mag]
#   3 X_IMAGE                Object position along x                                    [pixel]
#   4 Y_IMAGE                Object position along y                                    [pixel]
#   5 X_WORLD                Barycenter position along world x axis                     [deg]
#   6 Y_WORLD                Barycenter position along world y axis                     [deg]
#   7 A_WORLD                Profile RMS along major axis (world units)                 [deg]
#   8 B_WORLD                Profile RMS along minor axis (world units)                 [deg]
#   9 THETA_WORLD            Position angle (CCW/world-x)                               [deg]
#  10 FWHM_WORLD             FWHM assuming a gaussian core                              [deg]
#  11 ELONGATION             A_IMAGE/B_IMAGE                                           
#  12 ELLIPTICITY            1 - B_IMAGE/A_IMAGE                                       
         1 -14.8262      7.7631    147.6963   1.4503330779e+02   4.3714072914e+01     9.332399     3.736629  68.54   0.04337248    2.802    0.643
         2 -13.4502    195.1124     29.3692   6.8724294466e+01   3.2899277402e+01     1.461532     1.371745 -65.15  0.007234775    1.067    0.062
         3 -13.5858    210.0330      9.7190   6.1667396468e+01   3.1330090500e+01     1.413757     1.006871  43.40  0.007611905    1.692    0.409
         4 -12.1518      2.5463      5.1871   1.1833612787e+02   7.4145242429e+01    0.6545123    0.3290637 -38.22  0.004188434    1.481    0.325
         5 -10.7834      2.7996     38.8833   1.3035089635e+02   6.8029442994e+01    0.2725337    0.1018424 -51.53  0.001452396    1.848    0.459
         6 -12.3685    244.6747    248.4651   1.0973288586e+02  -1.0038761340e+01    0.8395298    0.2921867  41.39  0.004190269    2.554    0.609
         7 -10.5803    122.1952    250.3987   1.3145422481e+02   8.5625422017e+00    0.2702269    0.1123639  46.89  0.001396507    1.838    0.456
         8 -10.4102    111.6781    250.5082   1.3334298884e+02   1.0145631033e+01    0.3171866   0.07664559  45.19   0.00129163    3.009    0.668
         9 -10.3804     97.7069    249.3092   1.3571078876e+02   1.2407683097e+01    0.2365504    0.2002738 -43.26  0.001201742    1.809    0.447
        10 -10.6016    101.1827    246.1965   1.3480689847e+02   1.2404507445e+01    0.2108526     0.137199  69.63 0.0009384393    1.484    0.326
        11 -10.4109     29.5114    249.4232   1.4727386023e+02   2.1215786227e+01    0.2482233    0.1926914  70.54  0.001651038    1.210    0.173
        12 -11.3414     34.8750    245.0418   1.4617669427e+02   2.1360803787e+01    0.5084705    0.3313999 -78.55  0.003784568    1.566    0.361
        13 -10.1457      2.2070    249.8001   1.5153611363e+02   2.4000465590e+01    0.2043936     0.114037  64.95  0.001471344    1.189    0.159
        14 -10.5168     22.1666    244.7244   1.4822427589e+02   2.2825836526e+01    0.2468701    0.1183422  58.69  0.000744198    1.486    0.327
        15 -11.4702     12.9274    241.2154   1.4954354986e+02   2.4402657512e+01     0.310359    0.1465944 -89.83  0.001704796    1.794    0.443
        16  -9.1927    156.3506    250.2990   1.2530841693e+02   3.2134190544e+00     0.116345   0.08131961  21.31 0.0007036615    1.690    0.408
        17  -9.5419    183.4598    238.4956   1.1885018872e+02   4.6637522650e-01    0.1225937   0.09685152  32.42 3.952894e-05    1.036    0.035
        18 -11.4617    139.3569    249.6190   1.2828628087e+02   6.0058166635e+00    0.3471378    0.1954726  48.86   0.00205404    1.412    0.292
        19 -11.5329    198.0237    245.4826   1.1723431494e+02  -2.7741026610e+00    0.3898403    0.2404291 -41.68  0.002413333    2.070    0.517
        20 -10.4375      5.1186    241.1340   1.5077260592e+02   2.5196345380e+01     0.222358    0.1314404  34.05  0.001583571    2.110    0.526
        21 -12.7144      9.1583    206.9991   1.4858022615e+02   3.1103418994e+01    0.7027328    0.5095557  38.75  0.004412284    1.639    0.390
        22  -8.7918    152.4836    212.9434   1.2103942137e+02   9.6535572710e+00    0.1627995    0.1315428 -54.76 0.0003527554    1.459    0.315
        23  -8.6975     92.5672    214.7532   1.3326586975e+02   1.9270065977e+01    0.1559069    0.1072666  89.09 0.0002784876    1.507    0.336
        24 -11.5449     61.7411    198.8912   1.3785408052e+02   2.6818480099e+01     0.268773    0.2411413 -47.38 0.0006613839    1.591    0.372
        25 -10.7784     17.5814    198.5342   1.4655233838e+02   3.1972030154e+01    0.2855079    0.1514759  54.99  0.001072268    1.552    0.356
        26  -9.8860    192.5240    194.0957   1.0999912885e+02   5.5074008138e+00    0.5498884    0.2848088 -62.51  0.001762831    5.502    0.818
        27 -10.2263    149.0238    229.4900   1.2402886946e+02   7.5232826691e+00    0.2052057    0.1027516  42.36  0.001044327    1.624    0.384
        28 -11.4421      2.1994    153.5801   1.4674881511e+02   4.2831499213e+01    0.3268729    0.2103408 -79.44   0.00218739    1.222    0.181
        29 -11.8082     67.7916    190.6980   1.3575495471e+02   2.7718057277e+01    0.2603363    0.2276422 -74.20 0.0004877266    1.278    0.218
        30 -12.6277     35.1649    233.1292   1.4545643366e+02   2.3438726549e+01    0.2785787    0.2286351  87.04 0.0007868326    1.311    0.237
        31 -14.3962     40.7960    225.4977   1.4399657615e+02   2.4191224059e+01     2.459656     1.443445  31.99  0.006240624    2.149    0.535
        32 -10.8026     77.7736    177.8242   1.3204920238e+02   2.9084604093e+01    0.2355233    0.2008216 -80.97 0.0003575746    1.141    0.124
        33 -13.0873     64.5662    176.0817   1.3481686138e+02   3.1321410803e+01    0.4594068    0.2700845 -47.90  0.001419939    2.205    0.547
        34  -8.8742     99.0623    175.9681   1.2694453800e+02   2.6181994599e+01    0.2330569    0.1458536  70.50  0.001112678    1.825    0.452
        35 -11.6756     85.3940    168.5541   1.2902931689e+02   2.9999408986e+01    0.6170521    0.5643877  51.11  0.003835791    1.204    0.170
        36  -9.8724     97.8658    152.4787   1.2343886044e+02   3.1640922297e+01     0.273398    0.2545626  74.59 0.0007544949    1.062    0.058
        37 -11.9287     86.4724    151.7685   1.2616711881e+02   3.3662362137e+01    0.2794015    0.2484296 -47.71 0.0005855908    1.299    0.230
        38  -9.0664    101.0102    148.1779   1.2187773929e+02   3.2092331965e+01    0.2051208    0.1923908 -24.13 0.0005394786    1.307    0.235
        39 -12.2468     67.2201    143.7332   1.2978506944e+02   3.8376113292e+01    0.6990005    0.4415743  65.89  0.003338696    1.734    0.423
        40  -8.3692    192.2535    144.2934   9.9911321567e+01   1.4294804175e+01     0.143028    0.1138851   2.92 0.0002151132    1.488    0.328
        41  -9.6544    109.5548    137.6062   1.1763263413e+02   3.3001166888e+01    0.3544754    0.2476834 -19.88   0.00143409    2.368    0.578
        42 -10.3398     96.7805    134.7678   1.2039947365e+02   3.5935014578e+01    0.2515497    0.2211385 -34.54 0.0004664795    1.331    0.249
        43 -10.5325     57.3982    132.5257   1.3061868137e+02   4.2314000776e+01    0.3164015    0.2069379 -86.58  0.001640565    1.576    0.366
        44  -8.7725     90.7722    131.1982   1.2129488891e+02   3.7784845554e+01    0.2067996    0.1752797  81.53 0.0006584583    1.189    0.159
        45  -8.6295     79.2290    131.4553   1.2448056520e+02   3.9552853599e+01    0.1881513    0.1241284  54.54 0.0003864701    1.599    0.375
        46 -10.1000    173.8690    222.5617   1.1831229133e+02   4.3690426449e+00     0.329106    0.1976817  54.92   0.00172552    1.813    0.448
        47  -8.8990    106.7018    124.0661   1.1546522178e+02   3.6654580262e+01    0.1934736    0.1783829 -58.68 0.0003248585    1.071    0.066
        48 -10.1635     33.5288    132.8523   1.3707922389e+02   4.4886485007e+01     0.253662    0.1339955  52.08  0.001071625    2.011    0.503
        49  -9.8618    167.6354    112.7940   9.7482457508e+01   2.6006618480e+01    0.3143918    0.2638474 -79.22 0.0007707509    1.391    0.281
        50  -9.2224    203.4620    111.5047   8.9832216231e+01   1.7812206090e+01      0.15028    0.1451658 -15.84 5.515214e-05    1.030    0.029
        51  -8.6661    184.6826     77.6467   8.4296547681e+01   2.8417462990e+01    0.1604772    0.1217042  17.20 0.0007046588    1.743    0.426
        52  -9.3516    157.4974     76.4905   8.9535812728e+01   3.5479532414e+01    0.1545594    0.1522869  86.36 2.885693e-07    1.005    0.005
        53  -8.7502     43.9456     68.0141   1.2133988159e+02   5.8777332396e+01    0.1840746    0.1494509  76.07 0.0006154072    1.643    0.391
        54  -9.3865     35.3538     63.6982   1.2342449250e+02   6.0574730914e+01    0.3130815    0.1608859  50.24  0.001434925    3.023    0.669
        55 -11.2216      2.2556     59.8392   1.3548219953e+02   6.3739353103e+01    0.4449389    0.1019349 -67.07   0.00174578    3.353    0.702
        56 -10.5092     15.9467     55.8614   1.2909669836e+02   6.3802502388e+01    0.2180377    0.1815779  41.25 0.0005778487    1.534    0.348
        57 -10.4584      2.8894     47.0951   1.3241930854e+02   6.6370673157e+01    0.1666241    0.1407758 -71.21 0.0008355565    1.254    0.202
        58 -10.0384     46.7219    249.0654   1.4445106163e+02   1.9275191071e+01    0.2022996    0.1005832  60.02 0.0007578475    1.510    0.338
        59 -10.7757    152.2523    248.4339   1.2582119940e+02   4.1309931126e+00    0.2390021   0.09369151  39.03  0.001141837    2.086    0.521
        60 -11.0402      2.6910     21.6528   1.2501698437e+02   7.1312983578e+01    0.2538311      0.14727 -66.30  0.001531343    1.998    0.500
        61  -9.9110    162.4839    249.5156   1.2411113648e+02   2.3451411135e+00    0.1199831   0.09255482  41.91 0.0008102222    1.015    0.015
