#   1 NUMBER                 Running object number                                     
#   2 MAG_AUTO               Kron-like elliptical aperture magnitude                    [mag]
#   3 X_IMAGE                Object position along x                                    [pixel]
#   4 Y_IMAGE                Object position along y                                    [pixel]
#   5 X_WORLD                Barycenter position along world x axis                     [deg]
#   6 Y_WORLD                Barycenter position along world y axis                     [deg]
#   7 A_WORLD                Profile RMS along major axis (world units)                 [deg]
#   8 B_WORLD                Profile RMS along minor axis (world units)                 [deg]
#   9 THETA_WORLD            Position angle (CCW/world-x)                               [deg]
#  10 FWHM_WORLD             FWHM assuming a gaussian core                              [deg]
#  11 ELONGATION             A_IMAGE/B_IMAGE                                           
#  12 ELLIPTICITY            1 - B_IMAGE/A_IMAGE                                       
         1 -10.4857     38.9116     29.9259   1.1305486329e+02   6.5266212925e+01    0.7722462    0.3336809 -47.10  0.003764512    2.126    0.530
         2 -11.8450     43.1186     20.5769   1.0738208646e+02   6.6278256585e+01    0.8797097    0.8043572   1.76  0.004471022    1.289    0.224
         3 -12.0459    115.4144     16.9335   8.2734390920e+01   5.3636210725e+01     1.743564     1.057284  74.77  0.007856112    2.307    0.567
         4 -10.7885    128.3257     17.7905   8.0215098952e+01   5.0534370057e+01    0.7086661    0.4958811  43.04   0.00275146    1.326    0.246
         5 -12.2209     82.2965      7.0699   8.7161658083e+01   6.1676509001e+01     2.296369     1.163376  -0.17   0.01005572    2.579    0.612
         6 -14.1095    162.7005     10.4921   7.1528909731e+01   4.2705462242e+01     4.024204     1.998953  62.96   0.01775364    1.819    0.450
         7 -11.0584    120.8616      3.8318   7.6336034054e+01   5.3650325945e+01    0.7928923    0.4913025  63.20  0.003020973    1.585    0.369
         8 -11.6935    108.3460      4.2190   7.9159130340e+01   5.6489404616e+01     1.676774    0.5107653  57.93  0.006325846    2.902    0.655
         9 -10.7425     71.3214      5.4290   8.9772233783e+01   6.3902287904e+01    0.5793455    0.3663481  33.98  0.002422366    1.464    0.317
        10 -10.7401    248.9199     15.6093   6.3364632468e+01   2.0759516504e+01    0.5566349    0.3288357 -28.02  0.002924436    1.654    0.395
        11 -10.8698    248.0863      6.1862   6.1211688381e+01   2.1938541924e+01     0.716168    0.4634308 -47.45  0.004070669    1.375    0.273
        12  -9.9037     94.3651     17.4869   8.8335896765e+01   5.8123451004e+01     0.503118    0.4145768  67.32  0.002925586    1.556    0.357
        13 -10.7937    131.9713      3.1424   7.3958784751e+01   5.1054106323e+01    0.8137559    0.3696909  59.14  0.002990949    1.927    0.481
        14  -9.6166     64.4000     16.3777   9.7306825631e+01   6.3784910399e+01    0.2803928    0.2612551  -7.32   0.00123977    1.270    0.213
        15 -10.0202    226.8287     13.7426   6.4866001890e+01   2.6142005574e+01     0.386468     0.238332 -63.14  0.001938461    1.687    0.407
        16  -8.1560     20.4004     14.9265   1.1482765146e+02   6.9666801217e+01     0.218864    0.1404345 -24.28   0.00143004    1.296    0.228
        17  -9.2813     55.5797      8.2273   9.6635331939e+01   6.6228246801e+01    0.2836822    0.2015312  65.35  0.001531168    2.708    0.631
        18  -8.9587     39.1886      7.7677   1.0297332986e+02   6.8629529844e+01    0.3277765    0.2031989   5.51  0.001929947    1.715    0.417
        19 -10.0630    229.9218      6.1978   6.2677919683e+01   2.6169977139e+01    0.2866797    0.2649685 -32.53  0.001820222    1.166    0.143
        20 -10.0969    223.3387      4.8353   6.2905890085e+01   2.7889026176e+01    0.3348676    0.2429764 -82.29  0.001881185    1.344    0.256
        21  -8.2989     49.2626      6.2124   9.8056524532e+01   6.7432683403e+01    0.2052465     0.138893  20.22  0.001177105    1.405    0.288
        22 -10.4245    215.0579      3.7668   6.3376933985e+01   3.0017658347e+01     0.480287    0.3111702  40.43  0.002463323    1.828    0.453
        23 -10.0436     61.2540      2.4039   9.1665819291e+01   6.5979038718e+01    0.5511224    0.2712688  38.11  0.002886132    1.925    0.481
        24  -8.5747     25.9923      2.7125   1.0630220479e+02   7.0911126163e+01    0.2369072    0.1338037 -37.98  0.001233251    1.643    0.392
        25  -8.4606     51.6179      2.0857   9.5030503065e+01   6.7566685153e+01    0.1815761    0.1581274  18.02 0.0009546802    1.262    0.208
        26  -8.0313     39.8353      1.4345   9.9432956402e+01   6.9354327581e+01    0.2488165    0.1028874  36.90  0.001262429    2.483    0.597
        27  -8.4094     16.4959      1.4826   1.1028414339e+02   7.2076745778e+01    0.1754673    0.1011336  26.88 0.0007912582    1.918    0.479
        28  -7.8668    203.8306     76.1832   8.4879495193e+01   2.3639963020e+01    0.2029743    0.1744328  14.90 0.0005249858    1.274    0.215
        29  -9.1726      2.2297     88.5213   1.4135999882e+02   5.6322730912e+01    0.4106221    0.1794265 -82.37  0.001864965    2.340    0.573
        30  -8.7069     83.5266     69.7257   1.1129342633e+02   5.1665818309e+01    0.2900586    0.1712121  24.63  0.001305782    2.202    0.546
        31  -9.6905     74.4360     68.6771   1.1382207335e+02   5.3315918351e+01    0.3642947    0.2492117 -64.11   0.00182775    1.818    0.450
        32  -8.6064     33.4684     68.6025   1.2747624097e+02   5.8328506394e+01    0.3519245    0.1906383   3.00   0.00167856    3.057    0.673
        33  -9.8383     24.5005     65.2097   1.2974898795e+02   5.9821318257e+01    0.5592737    0.1773551 -56.43  0.002443932    2.317    0.568
        34 -10.0341     16.3566     63.9834   1.3231795693e+02   6.0694480198e+01    0.2957645    0.1882779 -83.51  0.001456484    1.940    0.484
        35  -9.1471     48.9837     62.4049   1.2041682522e+02   5.7999505983e+01    0.2698258     0.225991   7.01  0.001729074    1.351    0.260
        36  -7.9905      9.7570     55.6125   1.3275621153e+02   6.2871264540e+01    0.1361673    0.1053007  35.47  0.000952997    1.684    0.406
        37  -8.3272    198.0854     54.3527   7.9638205316e+01   2.8333066079e+01     0.204446    0.1885772  69.10 0.0005109766    1.101    0.092
        38  -8.8722     65.9306     52.6201   1.1139400718e+02   5.7701828578e+01    0.3610178     0.207537 -62.98  0.001523874    2.930    0.659
        39  -7.9792     38.5079     53.9963   1.2164333448e+02   6.0838700016e+01    0.1950599    0.1004774 -49.04  0.001019334    1.569    0.363
        40 -10.0035     88.1569     49.6445   1.0304916211e+02   5.4615116638e+01     0.496224    0.3659023 -44.89  0.002666807    1.400    0.286
        41  -7.6097    203.2393     49.0144   7.7318577126e+01   2.7772709985e+01    0.1911314    0.1213171 -28.63 0.0006431276    1.564    0.360
        42  -9.7448     82.1733     47.1279   1.0401430903e+02   5.6104758439e+01    0.4753384    0.3725221 -33.83  0.002356963    1.176    0.150
        43 -10.0172     80.9664     41.0365   1.0209850554e+02   5.7337634769e+01    0.5082288    0.3764997  10.69  0.002686885    1.462    0.316
        44  -8.5718    111.6299     45.9966   9.4890314002e+01   5.0593841687e+01    0.2632205    0.1935423  19.13   0.00131418    1.501    0.334
        45 -10.2149      3.2968     39.8806   1.3127973942e+02   6.6410687661e+01    0.3510286    0.3215867 -86.56  0.002400331    1.417    0.295
        46 -10.0758     50.8689     35.6926   1.1061760743e+02   6.2818136988e+01     0.609754    0.3479976 -54.13  0.003048979    2.212    0.548
        47 -10.3423    183.2052    246.1281   1.2403449973e+02   1.1025276452e+00    0.2719039    0.1871909  44.23  0.001259646    1.196    0.164
        48  -9.9692     50.1656     27.5831   1.0760050183e+02   6.4259790835e+01    0.4115202    0.2979421 -44.61  0.002054955    1.480    0.324
        49 -10.5893    173.4011    242.9294   1.2527153417e+02   3.0532137404e+00    0.3376193    0.2058974  21.08  0.001928388    2.090    0.521
        50  -9.6231     66.3548     30.1783   1.0267916386e+02   6.1490370097e+01    0.4705614    0.2278829 -33.61  0.002128911    1.862    0.463
        51  -7.9116     27.2519     35.9539   1.2012110099e+02   6.5396617953e+01    0.1677443    0.1270263 -39.88 0.0005209715    1.065    0.061
        52  -8.9322     12.2836     33.8542   1.2570721389e+02   6.7003761717e+01    0.3866204    0.1891503 -64.94  0.001647832    2.441    0.590
        53 -10.1551     86.4668     31.5566   9.6578450175e+01   5.7814768094e+01    0.3245561    0.2604425   6.24  0.001317207    1.194    0.162
        54  -8.4875     90.0478     28.2116   9.4109956677e+01   5.7609540730e+01    0.3163087    0.2188256 -18.95  0.001028356    1.380    0.275
        55 -10.1448    160.2819    240.6524   1.2722212907e+02   5.4430657224e+00    0.2179644    0.2004529  61.38  0.001668682    1.225    0.184
        56 -10.0298    195.2855    242.4346   1.2150324117e+02  -3.6247064735e-01    0.2596468    0.1355447  20.91  0.001288383    2.657    0.624
        57  -9.8461    207.8735    225.8709   1.1691618991e+02  -3.9664734130e-01    0.1912779    0.1386843  23.08  0.001073051    1.215    0.177
        58  -7.9764     37.5831    184.7940   1.4367629272e+02   3.2732677406e+01    0.1557692   0.08791947 -89.09 0.0008688173    1.591    0.372
        59  -9.1844    125.3772     28.6501   8.4971377474e+01   4.9968060677e+01    0.3387614    0.2638037 -33.57   0.00138112    1.333    0.250
        60  -8.6796     97.6151     27.7737   9.1722682158e+01   5.6167561800e+01    0.4770611    0.2429789 -10.52  0.001885701    2.757    0.637
        61 -12.0097     11.4988    138.1874   1.4484276271e+02   4.4902443323e+01    0.9499576    0.2849622 -61.62  0.004519552    2.580    0.612
        62 -12.7727    240.6608    133.0546   9.3090029647e+01   6.4942952371e+00     1.614839     1.199986  44.23  0.004555145    1.405    0.288
        63  -9.5924    104.7946     26.2651   8.9137101997e+01   5.4870765852e+01    0.4283538    0.3922272 -53.56   0.00255434    1.345    0.257
        64  -9.2278     39.9555    141.6626   1.3865687139e+02   4.1548169559e+01    0.2275298    0.1605883  24.17  0.001396175    1.891    0.471
        65  -9.7060    108.3727     39.1450   9.3215644069e+01   5.2330065520e+01    0.3232887    0.2566659   3.55  0.001707191    1.291    0.225
        66 -10.4487     17.4635    127.2596   1.4228458707e+02   4.6798980721e+01    0.2963206    0.1608898 -78.21  0.001439549    1.515    0.340
        67  -8.7727     22.4936    125.4980   1.4084056142e+02   4.6769095480e+01    0.1969998    0.1180304  28.88  0.001184997    2.077    0.519
        68 -10.8576      9.8590    117.0638   1.4298479648e+02   4.9608644065e+01    0.3452246    0.2523923  46.90  0.002422825    1.573    0.364
        69  -8.9757     69.4154     37.2092   1.0446814639e+02   5.9885344462e+01    0.3765032    0.2738691 -28.07  0.002174244    1.213    0.175
        70 -10.2742      4.1511    138.1196   1.4648838143e+02   4.5470452346e+01     0.328082    0.2022039 -63.34  0.002199925    1.444    0.307
        71 -10.3654     17.2938    105.0948   1.3947388779e+02   5.1697047065e+01    0.5264872    0.3299465  75.20  0.003124555    1.824    0.452
        72  -9.7698     30.3069    101.7134   1.3530654223e+02   5.1378468501e+01    0.3617036    0.1758896 -49.31  0.001879098    1.876    0.467
        73  -9.7752     47.1133     98.7803   1.2991121205e+02   5.0372889478e+01    0.2943877    0.1442413 -54.10  0.001458769    1.693    0.409
        74 -10.2905    225.2392     28.5110   6.8862845109e+01   2.4888016879e+01    0.4199461    0.3826532  41.20  0.001321539    1.218    0.179
        75 -11.8080     43.8079     82.5612   1.2742203359e+02   5.4309067914e+01      1.05349    0.7795466 -29.15  0.005518832    1.491    0.330
        76  -9.4862     34.8072     79.8106   1.2967486148e+02   5.5801982394e+01    0.3106408    0.1927894 -65.74  0.001332606    1.446    0.308
        77  -8.2641     94.7784     86.6123   1.1294908509e+02   4.6305451260e+01     0.196102    0.1349964  52.01 0.0009550092    1.674    0.403
        78 -10.2437      3.5069     75.8255   1.3897696205e+02   5.8985286831e+01    0.5699014    0.3739201 -62.50  0.002999889    1.132    0.117
        79  -8.9216     10.0150     80.5201   1.3772412603e+02   5.7586514840e+01    0.3009853    0.2268429 -72.59  0.001456802    1.133    0.118
        80 -10.1691     11.3566     70.2681   1.3537652217e+02   5.9701381481e+01    0.4821181    0.2407666 -55.69  0.002346109    1.483    0.326
        81  -9.3922     13.4838     77.4671   1.3607048667e+02   5.8018883135e+01    0.2542042     0.224627  21.70  0.001291518    1.449    0.310
        82 -10.5925     16.0111     73.5005   1.3447444528e+02   5.8698619899e+01     0.454109    0.4191693 -80.65  0.003436302    1.226    0.184
        83  -9.1782    227.8531     78.6217   8.1731996110e+01   1.7522013917e+01    0.4127762    0.2844236   5.14  0.001544585    1.940    0.485
        84  -8.1197     77.8208     78.3722   1.1564082735e+02   5.0811667878e+01    0.1961007    0.1674275 -53.96   0.00113592    1.139    0.122
