#   1 NUMBER                 Running object number                                     
#   2 MAG_AUTO               Kron-like elliptical aperture magnitude                    [mag]
#   3 X_IMAGE                Object position along x                                    [pixel]
#   4 Y_IMAGE                Object position along y                                    [pixel]
#   5 X_WORLD                Barycenter position along world x axis                     [deg]
#   6 Y_WORLD                Barycenter position along world y axis                     [deg]
#   7 A_WORLD                Profile RMS along major axis (world units)                 [deg]
#   8 B_WORLD                Profile RMS along minor axis (world units)                 [deg]
#   9 THETA_WORLD            Position angle (CCW/world-x)                               [deg]
#  10 FWHM_WORLD             FWHM assuming a gaussian core                              [deg]
#  11 ELONGATION             A_IMAGE/B_IMAGE                                           
#  12 ELLIPTICITY            1 - B_IMAGE/A_IMAGE                                       
         1  -9.4317     61.5362     27.4211   1.0324548696e+02   6.2660736928e+01    0.5046017    0.2471563 -16.93  0.001893486    3.006    0.667
         2 -11.4731     79.7094     23.5583   9.5350000588e+01   6.0184663860e+01    0.8385025    0.3089795  37.26  0.003278396    3.006    0.667
         3  -8.8824     46.1113     20.9316   1.0632463173e+02   6.5837381574e+01    0.2932103    0.1430863 -33.93  0.001052641    1.757    0.431
         4  -8.9671    144.1706     24.3105   7.9421639593e+01   4.5951839622e+01    0.3714008    0.2738092   1.76  0.001875565    1.506    0.336
         5  -8.6821     92.6142     20.0638   8.9932249775e+01   5.8168186506e+01    0.3803641    0.2084911 -22.06  0.001442526    1.792    0.442
         6  -9.9254     64.2809     13.8610   9.6178256000e+01   6.4130668468e+01    0.7317752    0.3608566  -6.50  0.002966354    3.208    0.688
         7  -9.4149    128.1062     16.1260   7.9628481595e+01   5.0763046152e+01    0.4140722    0.2333995  12.49   0.00119278    2.344    0.573
         8  -8.6629     71.9830      8.6923   9.1118826663e+01   6.3425413537e+01    0.2853803    0.1935585 -21.34 0.0009946955    1.364    0.267
         9  -9.5434     76.4865      5.8588   8.8346423321e+01   6.2908736781e+01    0.3860202    0.2902487 -16.23   0.00236961    1.246    0.198
        10  -9.3427     79.4186     12.8041   9.0666085218e+01   6.1593588410e+01    0.3631976    0.2517993  49.39  0.001397671    1.556    0.357
        11  -9.3069     74.4901     13.4998   9.2549830639e+01   6.2415397190e+01    0.4272205    0.2516811  11.28  0.001631267    2.004    0.501
        12  -8.9047     96.8608     12.7631   8.5624267573e+01   5.8140049265e+01    0.3815607    0.2171677  13.96  0.001272506    2.136    0.532
        13  -9.2439    105.5433     13.2225   8.3588841028e+01   5.6234772773e+01    0.3567996    0.1902672   4.93  0.001500072    2.521    0.603
        14  -9.7902    134.4005     13.1372   7.7245574150e+01   4.9549532831e+01    0.4472096    0.2555866  29.30  0.002015392    1.951    0.488
        15  -7.6072    150.0228     12.0424   7.4049987985e+01   4.5780384976e+01    0.2573135    0.1496227 -81.02  0.001038013    2.652    0.623
        16  -8.6047    112.8967     11.4200   8.1094307762e+01   5.4783728251e+01    0.2747904    0.1680938   9.09  0.001050553    1.880    0.468
        17  -9.0331    125.0235     10.2999   7.8026434467e+01   5.2080320524e+01    0.2408793    0.1898599   4.94 0.0004986005    1.287    0.223
        18  -8.6000     33.7904      9.4211   1.0613878105e+02   6.9075496997e+01    0.2880693    0.1771119   4.05  0.001531114    1.770    0.435
        19  -9.5424     32.2136      5.9553   1.0511083306e+02   6.9746682531e+01    0.2829354    0.1732132 -18.32 0.0003069695    1.411    0.291
        20  -8.6202    155.9832      7.7417   7.1620426189e+01   4.4673813540e+01    0.3150223    0.1382884 -20.70  0.001206377    2.425    0.588
        21  -8.9358    119.1459      7.1261   7.7995402212e+01   5.3759298244e+01    0.2578274    0.1928246  27.81  0.000306113    1.268    0.211
        22  -9.1487     40.6869      6.4052   1.0165084887e+02   6.8612579128e+01    0.3699844     0.200571  -8.47  0.001917642    2.165    0.538
        23  -9.6665     46.7789      6.2942   9.9085882072e+01   6.7783427635e+01    0.3003605       0.2236  12.46 0.0004496206    1.215    0.177
        24 -10.2130      7.5920      5.4732   1.1680103820e+02   7.2262313071e+01    0.4992052    0.2341508   1.02  0.002561608    3.136    0.681
        25  -9.1032    130.5999      6.1103   7.5330785505e+01   5.1130640525e+01    0.3062707    0.1626267  34.58 0.0007924098    1.952    0.488
        26  -8.8076    100.5833      6.1928   8.1832572368e+01   5.8014628602e+01    0.2893807    0.2410035   7.86 0.0007982636    1.104    0.094
        27  -7.1438    161.6794      6.2987   7.0294588223e+01   4.3352141680e+01     0.140964    0.1013798 -64.65 0.0004229949    1.621    0.383
        28  -7.5219    179.5082      5.5081   6.7671236534e+01   3.8850025067e+01    0.1369232    0.1274262  77.35 0.0001354235    1.014    0.014
        29  -9.5324    110.6715      3.3494   7.8278929373e+01   5.6042399862e+01    0.3947305    0.2108278 -26.56  0.001867323    1.913    0.477
        30  -8.2576    105.5203      1.6771   7.8727948215e+01   5.7340511971e+01    0.3318899    0.1562502  54.70  0.001542216    1.895    0.472
        31  -8.0985     90.8379      5.0747   8.3848689675e+01   6.0171596789e+01    0.2621182    0.1290846  33.23   0.00075927    2.031    0.508
        32  -8.5419     84.8224      3.2652   8.4674330828e+01   6.1559786158e+01    0.2550066    0.1413728  12.15  0.001221294    2.065    0.516
        33  -8.7077    143.2392      2.2407   7.1707498569e+01   4.8357116898e+01    0.2213999    0.2108254   0.79 0.0002886035    1.114    0.103
        34  -8.2350     56.8305      3.1534   9.3629089081e+01   6.6625002929e+01    0.1772795     0.153286  -6.56  0.001221551    1.193    0.161
        35  -8.2795      2.8170      1.8294   1.1757825318e+02   7.3189801150e+01    0.1695061     0.109125 -26.18 0.0006781652    1.173    0.147
        36  -7.4881    165.0225      1.2436   6.8181943100e+01   4.2933426576e+01    0.1845732    0.1073016  67.91 0.0006627195    1.572    0.364
        37  -8.7522     44.3595     92.3191   1.2940216738e+02   5.2105803362e+01    0.4199107     0.252491 -10.07  0.001960891    2.994    0.666
        38  -7.3840     83.2155     93.6076   1.1816213093e+02   4.6730071500e+01     0.186636    0.1346247  22.50 0.0008486799    1.708    0.415
        39  -7.6877    109.7263     90.9674   1.1000573503e+02   4.2661118122e+01    0.2915456    0.1846281  15.70  0.001159982    2.606    0.616
        40  -8.4142     96.9170     90.0874   1.1330723494e+02   4.5201274820e+01     0.351767    0.2244067   6.89  0.001390321    2.920    0.658
        41  -7.1879    150.6898     95.6507   1.0104164062e+02   3.3052573865e+01    0.1596907    0.1211118   5.24 0.0007044908    1.714    0.416
        42  -8.7426     33.5222     83.9386   1.3097845374e+02   5.5021238434e+01      0.30479    0.2349014 -76.41  0.001396058    1.289    0.224
        43  -9.7579     38.6890     80.2433   1.2852339183e+02   5.5335022913e+01     0.358817    0.2451159  -2.05  0.001482892    2.035    0.508
        44  -9.0341     15.7024     94.6996   1.3835712811e+02   5.4107070423e+01    0.1812571    0.1482426  76.66 0.0005985438    1.331    0.249
        45  -9.9051      8.3488     77.4231   1.3770775535e+02   5.8358560937e+01    0.5247711    0.2229055 -37.76  0.001920345    2.688    0.628
        46  -8.5022     87.9670     78.8670   1.1271447466e+02   4.9077658996e+01    0.3057665    0.2314232  12.79  0.001100303    1.635    0.388
        47  -7.8806    184.2892     78.0165   8.8893071137e+01   2.8158248028e+01    0.2175129    0.1973349 -33.16 0.0005784773    1.085    0.078
        48  -9.0682     48.4566     77.3747   1.2467772931e+02   5.4925449122e+01    0.3141651    0.1846452 -27.67  0.001547197    2.178    0.541
        49  -7.8845    120.7340     75.9654   1.0260303783e+02   4.3428714261e+01    0.3133374    0.1815904  23.62  0.001177358    2.671    0.626
        50 -10.3974     24.1447     73.6880   1.3181555494e+02   5.8048873566e+01     1.078542    0.3658738 -34.56  0.003428564    6.009    0.834
        51  -8.0990     23.5114     69.4754   1.3109070675e+02   5.8999001816e+01    0.2204541    0.1497732 -62.70 0.0005693716    1.236    0.191
        52  -8.1385     75.0715     74.1753   1.1527570255e+02   5.2100277432e+01    0.1994493    0.1708822 -16.37 0.0003691934    1.218    0.179
        53  -7.6996    129.0157     69.4848   9.8413382044e+01   4.2836069609e+01    0.2172462     0.122492  27.88 0.0008098824    2.496    0.599
        54  -8.1929    105.4680     67.9148   1.0420781885e+02   4.8055528103e+01    0.3114781    0.1965739 -10.04  0.001266996    2.442    0.591
        55  -8.8441     83.6004     64.5422   1.0961739751e+02   5.2670674135e+01     0.463474    0.2871207  -8.00  0.001928282    2.696    0.629
        56  -8.8772     16.3122     64.3309   1.3241234566e+02   6.0624614895e+01    0.2733677     0.125446 -42.35 0.0009876349    1.948    0.487
        57  -9.9302     61.8007     61.3601   1.1569447910e+02   5.6596097956e+01    0.7427908    0.2683552  29.71  0.002087339    3.721    0.731
        58  -9.5843     37.0403     59.4932   1.2379465709e+02   5.9879188435e+01    0.4020711    0.2111226 -29.86  0.001982786    2.231    0.552
        59  -8.5262     25.9769     59.8390   1.2787617295e+02   6.0818882047e+01    0.1919129    0.1123222 -25.65 0.0004176644    2.003    0.501
        60  -7.3350    194.6728     59.3164   8.1627010854e+01   2.8478947742e+01     0.156884    0.1129808 -65.11 0.0007045037    1.675    0.403
        61  -7.9561    110.9842     58.4224   9.9483496472e+01   4.8667880508e+01    0.2320751    0.1889629  -4.74  0.000490314    1.302    0.232
        62  -8.1595     98.2379     56.9591   1.0260679216e+02   5.1460845402e+01    0.4869759    0.2487791 -14.51  0.001459409    4.691    0.787
        63  -7.5998     49.5490     58.5212   1.1904781734e+02   5.8716363719e+01    0.1297605    0.1064092 -37.48 6.296457e-05    1.024    0.023
        64  -9.9266     75.0528     50.4516   1.0755139624e+02   5.6704847659e+01    0.4239868    0.2715492 -14.12 0.0003506052    1.944    0.486
        65  -9.3648     45.4133     49.0157   1.1749686194e+02   6.1058743376e+01    0.3956271    0.2413664 -26.85  0.001528037    1.697    0.411
        66  -6.9499    163.3315     51.3530   8.4826037297e+01   3.7591281388e+01     0.163003    0.1125762  22.37 0.0007046222    1.780    0.438
        67  -8.1932    118.2514     51.1050   9.4973114917e+01   4.8353169180e+01    0.2508053    0.1944995  43.05  0.000605037    1.295    0.228
        68  -8.1349    106.8378     48.4829   9.7113419707e+01   5.1199512675e+01    0.3044863    0.2022267   8.50  0.001184551    2.003    0.501
        69  -9.5097     57.0024     42.0236   1.1074538598e+02   6.0893395852e+01    0.4503203     0.246402 -15.89  0.001886537    2.760    0.638
        70  -9.6594     11.6670     46.5319   1.2972663664e+02   6.4587638282e+01    0.5535924     0.261916 -30.10  0.001580757    2.335    0.572
        71  -8.3067      6.8216     47.6633   1.3192081817e+02   6.4664844395e+01    0.1759179    0.1352914  18.27 0.0005924671    1.643    0.391
        72  -7.5791     96.4832     46.4660   9.9349534664e+01   5.3596336178e+01    0.1409844    0.1265574  -7.54 0.0008094349    1.012    0.012
        73  -9.0027    249.6455     44.6564   7.0317186092e+01   1.7180963945e+01    0.2588286     0.211199  30.66 0.0007870995    1.481    0.325
        74  -9.1762      3.0408     41.6643   1.3186430518e+02   6.6074532233e+01    0.6159827          nan -55.06  0.002117969    4.448    0.775
        75  -9.4946      6.5366     34.0493   1.2823073770e+02   6.7346151530e+01    0.3508734    0.2131131 -33.32  0.001491221    1.431    0.301
        76  -8.1109    113.5379     42.1865   9.2975927912e+01   5.0770123663e+01    0.3529676    0.1904234  20.78  0.001273294    3.046    0.672
        77  -7.8776    123.9580     39.9952   8.9522023727e+01   4.8772137320e+01    0.2395047    0.1634385  17.77 0.0006600686    1.734    0.423
        78 -10.0418     90.8366     38.3815   9.7964016634e+01   5.5967126792e+01    0.5636738    0.3053425  47.72  0.002635003    1.969    0.492
        79  -9.0076     61.9025     37.4772   1.0722735684e+02   6.0987091106e+01    0.2979264    0.2477563 -57.02  0.001360708    1.569    0.363
        80  -7.0628    139.3368     38.3178   8.5377789574e+01   4.5382602005e+01    0.1573812    0.1063692  24.57 0.0007048806    1.702    0.412
        81  -8.8143     67.2853     37.9524   1.0550282919e+02   6.0096182297e+01    0.2154346    0.1830568  15.32 0.0005991696    1.194    0.162
        82  -9.4616     70.9529     35.5335   1.0326971473e+02   5.9911275536e+01    0.3467244    0.1823323  21.80  0.001497345    2.671    0.626
        83  -7.8046    105.9039     36.7912   9.2988119109e+01   5.3195422507e+01    0.3067067    0.1404756  33.13  0.001149523    2.771    0.639
        84  -8.8447     56.2565     35.5490   1.0853359760e+02   6.2118297738e+01    0.2820703    0.1782372  14.77  0.001071046    1.892    0.471
        85  -8.3439    243.0160    249.6801   1.1477710078e+02  -8.3410212684e+00    0.1620517   0.07972383  54.35 0.0007049628    4.308    0.768
        86  -9.2829     38.5379     35.4537   1.1534698095e+02   6.4343266487e+01     0.303471     0.197313   2.68 0.0009116498    1.836    0.455
        87  -7.7804     18.9509     35.9503   1.2357306810e+02   6.6110471330e+01    0.1625502    0.1073896 -31.35 0.0003669231    1.310    0.237
        88  -8.8936     23.0357     35.9955   1.2188261544e+02   6.5764383243e+01    0.1888408    0.1546592 -17.19 0.0006322495    1.200    0.166
        89  -9.2268     21.9932     32.0251   1.2093117919e+02   6.6585267211e+01    0.2333935    0.2017341  -0.84  0.000324172    1.287    0.223
        90  -8.7916      1.3770     28.8701   1.2887772852e+02   6.8626587179e+01    0.3576029   0.08664346 -58.13   0.00137071    3.176    0.685
        91  -9.7344    205.2980    248.9728   1.2074833198e+02  -2.6667406644e+00    0.2817063    0.1348914  45.79  0.001595609    1.808    0.447
        92  -9.3161     42.2921     27.5185   1.1070074343e+02   6.5273205155e+01    0.3135093    0.2200844 -14.85  0.001036282    1.344    0.256
        93  -9.2897    184.7481    249.3607   1.2420095791e+02   4.7333229099e-01    0.2722806    0.1195179  51.33  0.001375159    2.363    0.577
        94  -7.6603    152.5829     27.1914   7.8842228537e+01   4.3512153333e+01     0.202883    0.1379527  -3.84 0.0009459251    1.712    0.416
        95  -9.0921    174.5596    247.2766   1.2563612966e+02   2.3226011980e+00    0.2624499    0.1112288 -51.01  0.001322829    3.493    0.714
        96  -8.5623     25.5976     25.1839   1.1678622704e+02   6.7471342884e+01    0.2580631    0.1224209 -37.09  0.001403738    1.707    0.414
        97  -8.3202     28.2357     21.7678   1.1422971348e+02   6.7788245858e+01     0.294249    0.1562926   8.78  0.001413359    2.542    0.607
        98  -7.5686    118.3217     24.3220   8.4962270519e+01   5.2127419978e+01    0.1504915   0.09830525  23.51 0.0007045595    1.675    0.403
        99  -7.8968    128.8825     22.8671   8.2014364873e+01   4.9837097578e+01    0.2281256    0.1759208  22.60 0.0007815882    1.309    0.236
       100  -8.0754    167.6002    248.7836   1.2699398414e+02   3.2256776315e+00    0.1333535    0.1086547 -68.55 0.0006264469    1.724    0.420
       101  -7.3359    156.3429     20.2932   7.5821528387e+01   4.3337175722e+01    0.1535672   0.09875953  34.75 0.0007028985    1.658    0.397
       102  -8.3171    140.2785     19.9694   7.8617550029e+01   4.7399376494e+01    0.2310584    0.1906501  51.31 0.0003752608    1.139    0.122
       103  -8.4173      9.3705     19.8862   1.2207068590e+02   6.9744055299e+01    0.1991312    0.1376131 -10.83 0.0007127023    1.455    0.313
       104  -7.4893    161.4435     19.4532   7.4692944711e+01   4.2126040022e+01    0.1427427    0.1314625  43.16 0.0001530311    1.044    0.042
       105  -8.2685     32.0119     20.0000   1.1182110156e+02   6.7678804163e+01    0.2888181    0.1162017  34.85  0.001432781    2.865    0.651
       106  -8.2154    118.2073     19.3783   8.3055681688e+01   5.2728264310e+01    0.1970979    0.1324464  67.66  0.000963981    1.724    0.420
       107  -9.0497    150.7272    248.1779   1.2975685387e+02   5.9356668055e+00    0.1693852    0.1339118  71.64  0.001212134    1.457    0.314
       108  -8.1453      4.9418     18.8670   1.2378061617e+02   7.0226576375e+01    0.1755078    0.1091488 -32.10 0.0004854705    1.280    0.219
       109  -7.5138    151.6506     17.6896   7.5733438177e+01   4.4802464474e+01    0.1553519    0.0969575  33.99    0.0007045    1.714    0.417
       110  -9.4753     65.9588    246.4271   1.4357347809e+02   1.8302671329e+01    0.1785057    0.1369426  68.68 0.0003082368    1.084    0.077
       111  -7.3092    146.2976    246.3547   1.3029312448e+02   6.8692435637e+00    0.1063325    0.0814314  17.52 0.0005386121    1.696    0.411
       112  -8.9116    175.4962    242.5112   1.2486059407e+02   2.7727380873e+00    0.2037605   0.08815358  49.67 0.0007225265    2.133    0.531
       113  -9.3937    188.3820    234.2113   1.2151674587e+02   1.7488012579e+00    0.2259362    0.1674999  49.93  0.001497164    1.333    0.250
       114  -7.7055      1.3804    235.0348   1.5282588003e+02   2.7200304595e+01    0.1276925   0.06849459 -88.56 0.0009713444    1.498    0.332
       115  -7.3661    162.2189     26.9995   7.7069226625e+01   4.1086611453e+01    0.1927634    0.1182444 -24.25 0.0008750936    1.691    0.409
       116  -8.0675    121.3212     15.3288   8.0767258213e+01   5.2447127652e+01    0.1503778   0.09407731  27.32 0.0007048514    1.690    0.408
       117  -7.1112     62.6978    201.7455   1.4045773584e+02   2.6468500573e+01   0.09192014   0.09052264 -49.14 0.0001841536    1.505    0.336
       118  -7.5281    178.6827     14.6344   7.0585207140e+01   3.8189279041e+01    0.1525377   0.09836479  33.22 0.0007039308    1.776    0.437
       119  -7.3024    187.2783    178.3194   1.1245906210e+02   1.0013548732e+01     0.134779    0.1005901   8.64 0.0002465268    1.578    0.366
       120  -9.1058     67.2148    144.4868   1.3260504631e+02   3.7700274777e+01    0.4019358    0.2801887  69.58  0.002279314    1.513    0.339
       121  -7.4993    139.5559    138.4725   1.1433181355e+02   2.6852516263e+01    0.1427605      0.13951  76.90 0.0001723731    1.012    0.012
       122  -7.6150     42.0039    129.0000   1.3645135956e+02   4.4138396936e+01    0.1778915   0.07050793  31.54 0.0006800482    2.955    0.662
       123  -7.7135    192.8028    127.4194   1.0035449370e+02   1.7573729580e+01    0.2125093    0.1353776  37.77 0.0009470605    1.614    0.380
       124  -7.5319    141.8032     10.3788   7.4871273647e+01   4.7995345786e+01    0.2091009    0.1092071  51.62 0.0009375461    1.703    0.413
       125  -8.2504    128.7584    125.0560   1.1384307146e+02   3.1779461565e+01    0.2113969    0.1906431 -82.43 0.0004834365    1.179    0.152
       126 -10.0257    241.9115    120.6742   9.0008541931e+01   8.0859621785e+00    0.3087692    0.2769288   9.36 0.0006438469    1.080    0.074
       127  -7.3836    180.6760    119.7111   1.0089324678e+02   2.1671536083e+01    0.1541453    0.1166676  13.74 0.0007010729    1.608    0.378
       128  -7.3275    100.3366    118.3619   1.1941402339e+02   3.8489488022e+01    0.1465105    0.1104246 -18.76 0.0002665346    1.821    0.451
       129  -7.4755    142.6242    111.6939   1.0725264646e+02   3.1675858449e+01    0.1576741    0.1195719   8.22 0.0005219287    1.772    0.436
       130  -9.0469      2.2046    109.6817   1.4408786657e+02   5.1728545752e+01    0.2876915    0.1246601 -49.39  0.001553226    2.282    0.562
       131  -8.4228    133.8462    107.0809   1.0816586501e+02   3.4477879021e+01    0.3776428    0.1938251 -42.01  0.001518885    1.920    0.479
       132  -7.7178     30.7815    108.9945   1.3636668505e+02   4.9710958462e+01      0.16482   0.08208916 -66.30 0.0003288818    1.624    0.384
       133  -7.3248    188.5875    107.2438   9.6101713331e+01   2.2099635138e+01    0.1518232    0.1200644 -89.69 0.0006922537    1.711    0.415
       134  -7.7562    123.8511    107.1825   1.1067639079e+02   3.6509544357e+01    0.2032448     0.175771   3.06 0.0004791172    1.354    0.262
       135  -9.1590     14.1909    105.8909   1.4043226542e+02   5.1751256631e+01    0.2570765    0.1271102 -41.40  0.001216843    2.388    0.581
       136  -7.3975    109.0845    106.4516   1.1429606749e+02   3.9516396764e+01    0.1965957    0.1294189  14.71 0.0008065294    2.459    0.593
       137  -7.6032     94.1722    103.1927   1.1748969235e+02   4.2861563987e+01    0.3017427    0.1139539  33.81  0.001029758    3.476    0.712
       138  -7.4869     69.9585    103.8100   1.2439650981e+02   4.6433556704e+01    0.1654257    0.1062085  35.13 0.0004070017    1.768    0.435
       139  -9.8449    245.0174    101.7489   8.4996888347e+01   1.0256003550e+01    0.3308918    0.2716095  58.66  0.001845093    1.384    0.278
       140  -7.7785    129.4823     97.4966   1.0666965769e+02   3.7346353018e+01     0.274251    0.1391963  35.27  0.001028977    2.391    0.582
       141  -9.6694     18.6696     91.6781   1.3699278763e+02   5.4553959639e+01    0.2785649     0.190989 -61.02   0.00180384    1.145    0.127
       142 -10.3426     12.3771     93.5916   1.3915053282e+02   5.4583486184e+01    0.4201956    0.2349187 -32.59  0.002223056    2.299    0.565
