#   1 NUMBER                 Running object number                                     
#   2 MAG_AUTO               Kron-like elliptical aperture magnitude                    [mag]
#   3 X_IMAGE                Object position along x                                    [pixel]
#   4 Y_IMAGE                Object position along y                                    [pixel]
#   5 X_WORLD                Barycenter position along world x axis                     [deg]
#   6 Y_WORLD                Barycenter position along world y axis                     [deg]
#   7 A_WORLD                Profile RMS along major axis (world units)                 [deg]
#   8 B_WORLD                Profile RMS along minor axis (world units)                 [deg]
#   9 THETA_WORLD            Position angle (CCW/world-x)                               [deg]
#  10 FWHM_WORLD             FWHM assuming a gaussian core                              [deg]
#  11 ELONGATION             A_IMAGE/B_IMAGE                                           
#  12 ELLIPTICITY            1 - B_IMAGE/A_IMAGE                                       
         1 -13.3925    232.0254     21.9978   1.5090751929e+01   2.6834963551e+01    0.8272201    0.6043571 -45.55  0.004179905    1.048    0.046
         2 -10.6780     56.7177      8.4479   3.5315304020e+01   7.0292409217e+01    0.2700134     0.132578  66.17  0.001144988    2.174    0.540
         3 -10.1156     70.2788    241.3480   8.7608966818e+01   1.5328607850e+01    0.1974158     0.174708 -51.52 0.0007291608    1.432    0.302
         4 -13.6997    245.4212    244.8329   5.5592266129e+01  -3.4015424333e+00     1.118208    0.6458649  -6.94  0.008832633    1.324    0.245
         5 -13.1834    224.4414    248.5014   5.9152306293e+01  -1.9878108595e+00    0.7113653    0.3084348  30.12  0.004669777    2.186    0.543
         6 -13.2878    195.2022    242.9149   6.3101647894e+01   1.3898406685e+00     1.009026    0.5448476 -39.54  0.006733706    2.041    0.510
         7 -10.2267     79.1830    242.1601   8.5733808223e+01   1.4221301748e+01     0.204648    0.1642996 -74.47 0.0003804735    1.559    0.359
         8 -10.0226     75.3284    249.8440   8.7129690862e+01   1.3338169207e+01    0.1788314    0.1629289 -18.35 0.0008288583    1.371    0.270
         9 -10.7480     76.0141    245.4744   8.6667408966e+01   1.3999144341e+01    0.2570525    0.2086958 -59.62 0.0009356313    1.554    0.356
        10 -14.6900     56.4347    232.8159   9.0102550458e+01   1.8353463437e+01     1.736774      1.12053 -18.63  0.009471638    2.475    0.596
        11 -18.6471     14.4735    223.0893   9.9253823812e+01   2.4329007712e+01     4.467572     3.702853  88.92   0.02689956    1.338    0.253
        12 -12.9570    110.1773    228.8305   7.7776271417e+01   1.2953557166e+01    0.6760916    0.3366747  28.91  0.003618076    1.651    0.394
        13 -11.6154    148.0426    226.8904   6.9669996031e+01   8.7333487725e+00    0.3318055     0.177722 -54.29  0.001470021    2.444    0.591
        14 -11.5507    142.5265    228.3901   7.0960911429e+01   9.1573717813e+00    0.2649213    0.2074553 -80.44  0.001688755    2.153    0.536
        15 -15.5899      2.5074     86.4479   9.5938050014e+01   5.9814307166e+01     12.84666    0.8624799 -80.32   0.02130442   12.703    0.921
        16  -9.9399    100.9874    250.3988   8.1805607155e+01   1.0476555488e+01    0.1629829    0.1264527  16.46  0.001156468    1.166    0.142
        17 -10.9692     68.3615    247.0083   8.8417191989e+01   1.4552772792e+01    0.2823982    0.2056546 -20.59 0.0008092804    1.904    0.475
        18 -10.2129    127.2814    213.4503   7.2263891244e+01   1.3491933944e+01    0.2207497    0.1999967  54.24 0.0006871026    1.310    0.236
        19 -12.3461    126.6288    228.3824   7.4223486865e+01   1.1056924410e+01    0.3371708    0.2533367   6.92  0.002210319    1.284    0.221
        20 -11.2842     66.0062    242.3310   8.8609748159e+01   1.5612465480e+01    0.3546308    0.1896046  34.92  0.000429004    1.408    0.290
        21 -11.5903    101.8303    241.9018   8.0863812716e+01   1.1741259152e+01    0.6444217    0.2267646 -46.76  0.002974743    3.568    0.720
        22 -10.1919    164.8961    247.6884   6.9015573463e+01   3.9036456504e+00    0.1803635    0.1263898 -18.95 0.0009143979    1.416    0.294
        23 -10.7510     77.5657    186.0064   8.0779885943e+01   2.5527737973e+01     0.379822    0.2215573 -51.12 0.0009879874    1.922    0.480
        24 -11.5298     98.0261    180.9307   7.4802294789e+01   2.3844727138e+01    0.4995175    0.2796387  33.51  0.001663368    1.620    0.383
        25 -10.0959    122.0000    180.9599   6.8881739207e+01   2.0341404305e+01    0.2145479   0.07706114 -53.99 0.0002070159    2.987    0.665
        26 -10.5108    172.5836    177.7679   5.7421935247e+01   1.3489070358e+01    0.2377561    0.2025184 -38.08 0.0007610133    1.242    0.195
        27 -11.6050    181.2984    173.6709   5.5045785107e+01   1.2929534494e+01    0.4086576    0.3008658 -24.11  0.002490693    1.255    0.203
        28 -11.4818    122.6226    174.1991   6.7656654222e+01   2.1630631131e+01    0.4037224    0.2465911  28.97  0.001109285    1.601    0.376
        29  -9.5403    124.7714    244.0101   7.6328559996e+01   8.8173559153e+00    0.1451377    0.1306253   3.31 0.0006527624    1.181    0.153
        30  -9.9256    198.8592    171.7569   5.1573078110e+01   1.0788173932e+01    0.1498751    0.1349781 -36.58 0.0004269725    1.319    0.242
        31 -12.2599     83.2761    167.5670   7.6861373564e+01   2.8999132181e+01    0.6238544    0.4990329 -60.44  0.002500019    1.318    0.241
        32  -8.8298    125.3036    239.2977   7.5719737231e+01   9.4787808340e+00     0.113392    0.0784727  -2.22 0.0002486068    1.584    0.369
        33 -10.4290    110.5413    167.0356   6.9481713861e+01   2.5023114630e+01    0.2711982    0.2191542  84.91  0.001140988    1.517    0.341
        34 -12.8537     68.2041    130.5493   7.5597085742e+01   4.0566907576e+01     1.257121    0.7487329 -84.37  0.005119931    2.052    0.513
        35 -11.0416     82.9079    151.3606   7.4510353099e+01   3.2983182937e+01    0.3919635    0.2601511  55.59 0.0006847229    1.579    0.367
        36 -14.0233     69.2527    144.3699   7.7563033965e+01   3.6786605019e+01     1.846955    0.9490255  70.03   0.00289729    3.054    0.673
        37 -11.4163     75.2270    158.5977   7.7881522713e+01   3.2323022633e+01    0.2952165      0.25704   9.30  0.000635801    1.307    0.235
        38 -10.2850     54.3277    162.0307   8.4559065357e+01   3.4245421693e+01      0.32008    0.1937011  36.15  0.001379848    1.506    0.336
        39 -11.0441     61.0063    154.9836   8.1660931712e+01   3.5189050096e+01    0.5581397    0.2080067  42.09   0.00206335    2.405    0.584
        40 -11.1523     65.4999    153.4996   8.0079639852e+01   3.4965017700e+01    0.3088887    0.2584925  21.24  0.001153553    1.292    0.226
        41 -10.4781     33.3688    156.0632   9.0424851073e+01   3.8160344337e+01    0.2703818    0.1865507  41.52 0.0005906895    1.316    0.240
        42  -9.6145     91.5793    154.8191   7.2569774144e+01   3.0801237748e+01    0.2691106    0.1688548  65.71  0.001146992    2.055    0.513
        43 -11.0804    133.7001    145.6051   5.9764693899e+01   2.5837011466e+01     1.123329     0.262565 -54.47  0.002582043    6.950    0.856
        44 -10.9869     54.9489    147.1427   8.2533637016e+01   3.8015092065e+01    0.5496672    0.4259792 -26.96  0.002741927    1.654    0.396
        45  -9.7160     93.3746    236.9371   8.2218392656e+01   1.3530702058e+01    0.1864983    0.1315317  28.79 0.0004245367    1.140    0.123
        46 -11.2611     89.8200    146.3710   7.1632143691e+01   3.3134959546e+01    0.6106945     0.402898 -12.07  0.001808245    2.560    0.609
        47 -11.4717     35.9392    144.0000   8.8418800030e+01   4.1093210733e+01      1.13201     0.118399  25.76  0.002713974    6.247    0.840
        48 -10.5557     26.3735    137.6048   9.1049146799e+01   4.3791532266e+01     0.478873    0.1748686  39.89  0.001165588    2.375    0.579
        49 -10.4807     29.3182    140.6578   9.0324422035e+01   4.2676151901e+01    0.3122303    0.1930952  63.73 0.0008677175    1.562    0.360
        50 -11.0005    105.0433    132.0931   6.4456469065e+01   3.4020567145e+01    0.6128434    0.3811468 -34.99  0.001762505    2.000    0.500
        51 -11.6131     91.0462    132.8993   6.8738832946e+01   3.6278467636e+01    0.2837017     0.275128 -60.43 0.0003657899    1.071    0.066
        52 -12.1425     71.1850    162.5648   7.9618161445e+01   3.1909460267e+01    0.5077347    0.3744942 -19.61  0.002229598    1.850    0.459
        53  -9.7267    112.3200    126.3442   6.1164516656e+01   3.4046701709e+01    0.2666879    0.1868596  26.73 0.0008796905    1.657    0.397
        54 -10.0395    135.0000    124.9568   5.4982474532e+01   3.0026667814e+01    0.2460449    0.0819037 -47.19 0.0007727367    2.906    0.656
        55 -10.1730     99.3216    121.9343   6.3910826816e+01   3.7528470041e+01    0.2686416     0.223511  22.96 0.0004572308    1.360    0.265
        56  -9.4514     73.2098    122.1855   7.2325433332e+01   4.2002444456e+01    0.2188252    0.1721728  71.63 0.0004288742    1.348    0.258
        57  -9.1278    108.0696    116.4833   6.0074252805e+01   3.7187620588e+01    0.2172277    0.1518198  42.86 0.0003155978    1.450    0.310
        58 -11.8892     18.0974    110.6101   9.1435935681e+01   5.2027930372e+01    0.4827912    0.2405771 -69.43  0.001611785    1.802    0.445
        59  -9.8349    205.3305    110.1587   3.8142096674e+01   1.9616284593e+01    0.1959428    0.1761739  10.73 0.0006722188    1.273    0.214
        60 -10.8860     53.4721    107.9033   7.6653961311e+01   4.8854841160e+01    0.4317566    0.1446206 -64.43  0.001388991    2.843    0.648
        61 -10.2871    134.2814    106.5831   5.0664477038e+01   3.4110493944e+01    0.2690205    0.1960535 -55.38   0.00127699    1.368    0.269
        62 -11.5569     42.4320    104.3694   8.0413218671e+01   5.1300158801e+01    0.6652134    0.2046055  44.61   0.00205855    3.364    0.703
        63 -11.6740     30.6092     99.4539   8.4584911632e+01   5.4024559050e+01    0.4286833    0.2875466  49.43  0.002026951    1.504    0.335
        64 -10.5193     89.9236    234.5207   8.2753758523e+01   1.4342195794e+01    0.2320295    0.1709668  31.07 0.0006897363    1.088    0.081
        65 -10.7250     34.5291     87.4924   8.0578169798e+01   5.6932774707e+01    0.3089287    0.1460712  26.74  0.001216789    2.198    0.545
        66 -10.0091    147.0139     68.1475   3.7000508123e+01   3.8815433749e+01    0.3159043    0.1427791 -42.84  0.001231936    2.016    0.504
        67 -12.2882    185.1365     61.6218   2.9093457913e+01   3.1227830681e+01     0.414709    0.3544587 -40.66 0.0007999387    1.107    0.097
        68 -10.4597    134.7622     59.4559   3.6693213952e+01   4.3276639295e+01    0.4354892    0.2351148 -80.87  0.001381686    3.765    0.734
        69 -13.6984    201.2798     49.9279   2.4179906680e+01   2.9483785798e+01      1.05669    0.8876781  34.12  0.004359621    1.624    0.384
        70 -12.5361    207.4283     44.6839   2.2265915337e+01   2.8919304715e+01    0.4777415    0.4109148  84.30  0.001211706    1.305    0.234
        71  -9.8269     93.8516    248.1219   8.3093216130e+01   1.1620111545e+01    0.2456184    0.1579546 -84.86  0.001506146    2.333    0.571
        72 -10.1204     60.4824     21.0479   4.1630734236e+01   6.7724575107e+01    0.2106373    0.1840228  52.99 0.0003936701    1.103    0.094
        73 -11.1380     28.8613     13.8865   5.4832178341e+01   7.5236228854e+01    0.2946324    0.1784036  44.96  0.001126309    1.688    0.407
        74 -10.7045     18.0594     11.4917   6.2110481558e+01   7.7341284761e+01    0.1921405    0.1222825  31.98 0.0006201633    1.560    0.359
