#   1 NUMBER                 Running object number                                     
#   2 MAG_AUTO               Kron-like elliptical aperture magnitude                    [mag]
#   3 X_IMAGE                Object position along x                                    [pixel]
#   4 Y_IMAGE                Object position along y                                    [pixel]
#   5 X_WORLD                Barycenter position along world x axis                     [deg]
#   6 Y_WORLD                Barycenter position along world y axis                     [deg]
#   7 A_WORLD                Profile RMS along major axis (world units)                 [deg]
#   8 B_WORLD                Profile RMS along minor axis (world units)                 [deg]
#   9 THETA_WORLD            Position angle (CCW/world-x)                               [deg]
#  10 FWHM_WORLD             FWHM assuming a gaussian core                              [deg]
#  11 ELONGATION             A_IMAGE/B_IMAGE                                           
#  12 ELLIPTICITY            1 - B_IMAGE/A_IMAGE                                       
         1 -12.9763    184.7824     34.5520   6.1368347140e+01   3.4792740090e+01     1.484169     1.021138  21.77  0.005009983    1.799    0.444
         2 -11.8365    189.0876     28.2849   5.8699892408e+01   3.4431764263e+01    0.6679292    0.5657863  66.55  0.001579065    1.188    0.158
         3 -11.7109    207.4510      3.3539   4.8721299714e+01   3.2232916303e+01    0.8408567    0.4522519  74.19  0.003775467    1.842    0.457
         4 -10.0521    174.0067    222.7285   1.0630360650e+02   7.7973223763e+00    0.1693027    0.1255391  41.62  0.001191699    1.047    0.045
         5 -10.3766    140.0333    249.6975   1.1480908149e+02   9.6078720917e+00    0.2793947    0.1729401  52.85  0.002025027    1.267    0.211
         6 -10.2809    140.0439    245.0597   1.1435804241e+02   1.0178051526e+01    0.1694716     0.137638  71.85  0.001372353    1.338    0.253
         7 -19.4988     27.9340    145.5746   1.2571508484e+02   4.2170149614e+01     17.19781      2.60245 -74.11   0.05235531    6.274    0.841
         8  -8.4002    155.6063    198.1862   1.0618242682e+02   1.4156925252e+01    0.1505762    0.1145426 -31.27 0.0006499271    1.721    0.419
         9  -8.2476    208.5184    197.5147   9.6868393000e+01   5.2194301950e+00    0.1192738   0.09886485  33.15 0.0001186352    1.066    0.062
        10  -9.8118    112.8904    195.8474   1.1372900020e+02   2.1457850309e+01    0.3214024    0.2194603  14.74   0.00166456    2.938    0.660
        11  -8.9362     99.5267    191.9761   1.1579271903e+02   2.4139725219e+01    0.1811975    0.1308564  54.28 0.0004860471    1.152    0.132
        12  -9.1553     99.6311    180.8448   1.1447184017e+02   2.6119973765e+01    0.1917949    0.1489563  46.63 0.0005563247    1.250    0.200
        13  -9.5419     71.5473    174.2427   1.1931845636e+02   3.1349752614e+01    0.2977573    0.1423761  54.35  0.001113075    1.870    0.465
        14  -9.3800    123.8117    172.3935   1.0851620320e+02   2.3802130803e+01    0.1767358    0.1110754  36.58 0.0006753622    1.674    0.403
        15 -10.6867    101.7845    170.8613   1.1276794424e+02   2.7651861284e+01    0.5569289    0.2257553  59.31  0.002202873    3.257    0.693
        16  -9.8719    195.2836    168.9293   9.4218086969e+01   1.1372153332e+01    0.2984645    0.2373073  34.60  0.000574083    1.114    0.102
        17  -8.3292    141.3320    169.6696   1.0459409366e+02   2.1249711706e+01    0.1332563   0.09459273  75.35 0.0007051997    1.721    0.419
        18 -10.3807    164.9059    219.8229   1.0745271422e+02   9.6149211281e+00    0.2686052     0.201232  87.80  0.001756784    1.987    0.497
        19 -10.1347     94.2745    161.5252   1.1307197452e+02   3.0612781642e+01    0.2526829    0.2059303 -68.35 0.0004388349    1.261    0.207
        20 -10.9341     70.8657    161.7122   1.1807037765e+02   3.3912695419e+01    0.3674324    0.1930358  42.83  0.002018743    1.818    0.450
        21 -11.0127     65.1859    156.3481   1.1866348419e+02   3.5746408520e+01    0.4580993    0.2141639  56.01   0.00103357    2.081    0.519
        22 -10.9551     99.4957    154.2539   1.1090625468e+02   3.1252543849e+01    0.5217718    0.3564749 -35.95  0.002742865    2.205    0.546
        23  -8.4352    190.2236    155.1896   9.2515530513e+01   1.4397087084e+01    0.2075898    0.1023233 -48.47 0.0008873545    2.538    0.606
        24 -10.0064    184.0272    215.9048   1.0372488677e+02   7.0335311781e+00    0.1921068    0.1521619 -82.60  0.001267364    2.015    0.504
        25  -9.9705    134.1255    145.8455   1.0196048299e+02   2.6936683183e+01    0.5584028     0.164148 -54.90  0.001757538    4.396    0.773
        26 -10.3999    109.5964    139.8056   1.0629642335e+02   3.2529175737e+01    0.4217893    0.2846372 -32.67  0.002071467    2.188    0.543
        27 -10.6425     98.4088    139.6469   1.0883416135e+02   3.4418975390e+01    0.2499737    0.2380612 -69.13  0.001613738    1.194    0.162
        28  -8.3198    121.3809    212.7931   1.1412026046e+02   1.7432886521e+01    0.1349538    0.1061758 -49.52 0.0009463874    1.667    0.400
        29  -8.9141     82.2464    133.4133   1.1160721998e+02   3.8234091331e+01    0.1780804    0.1112015  53.85 0.0006082859    1.580    0.367
        30  -9.7758    105.8912    131.1338   1.0557858502e+02   3.4962844640e+01    0.3432829    0.2793926 -83.19  0.001215882    1.221    0.181
        31  -9.6766    104.1256    126.3455   1.0509059504e+02   3.6275298506e+01    0.2589357    0.2500114 -15.73  0.001137917    1.278    0.217
        32  -9.7634    116.2937    130.0402   1.0292872870e+02   3.3365831685e+01    0.2860659    0.2539316 -41.71 0.0008954328    1.275    0.215
        33 -10.1401    106.9412    210.0673   1.1637942841e+02   2.0013894040e+01     0.218111    0.1674008  46.64 0.0005258251    1.213    0.176
        34  -9.0223    160.5639    127.2707   9.2491310118e+01   2.5194942127e+01    0.3115143    0.2041813 -78.52  0.001263921    2.682    0.627
        35 -10.3132    134.9994    124.1182   9.7386443085e+01   3.1030771298e+01    0.7804493    0.1493496 -49.23  0.001986709    5.718    0.825
        36  -8.9518    111.0492    119.2979   1.0199287890e+02   3.6557702402e+01    0.1962935    0.1679618  59.21  0.000442074    1.154    0.134
        37  -9.0987     88.4198    203.4433   1.1903747394e+02   2.3749948949e+01    0.2910877    0.1465801  62.58  0.001633874    1.922    0.480
        38 -10.0717    111.8283    217.4573   1.1627723095e+02   1.8140476863e+01    0.2060468    0.1833094 -24.19  0.001101679    1.768    0.434
        39  -8.4773    168.2605    113.1171   8.7553308695e+01   2.6123120824e+01    0.2397827    0.1680594 -66.78  0.001072544    1.924    0.480
        40  -8.7031    205.9265    110.4701   7.9644466543e+01   1.8125579099e+01    0.2159509    0.1408429  51.17 0.0005031578    1.548    0.354
        41 -10.0880    193.2564    192.9036   9.8715866245e+01   8.4223123032e+00     0.635269    0.3284597 -49.37  0.003214467    2.689    0.628
        42  -8.4639    120.4802    124.4585   1.0081756533e+02   3.3751909577e+01    0.1383261    0.1305345  84.22 0.0003311055    1.016    0.016
        43 -10.4527    103.6319    199.0053   1.1580394145e+02   2.2322016610e+01    0.3172057    0.1569024  33.69  0.001586746    2.466    0.595
        44 -10.7517    171.6060     70.9016   7.5247366910e+01   3.2789669497e+01    0.4642672    0.3310498 -80.85   0.00199522    1.982    0.495
        45 -11.5679    170.4182     48.8677   6.8497517006e+01   3.6578366177e+01    0.5210975     0.472558  -3.64  0.001158262    1.142    0.124
        46 -10.1070    134.8858    246.6496   1.1532673452e+02   1.0722475750e+01    0.1518943    0.1391312  42.05  0.001154657    1.325    0.246
        47  -7.7754    198.7278    222.6697   1.0224912764e+02   3.8847492203e+00    0.1093957   0.07387016  18.43 0.0002714845    1.589    0.371
        48  -8.8812    145.3047    241.6752   1.1318064997e+02   9.8317482311e+00    0.1055133    0.0677872  63.27 0.0007033182    1.643    0.391
