#   1 NUMBER                 Running object number                                     
#   2 MAG_AUTO               Kron-like elliptical aperture magnitude                    [mag]
#   3 X_IMAGE                Object position along x                                    [pixel]
#   4 Y_IMAGE                Object position along y                                    [pixel]
#   5 X_WORLD                Barycenter position along world x axis                     [deg]
#   6 Y_WORLD                Barycenter position along world y axis                     [deg]
#   7 A_WORLD                Profile RMS along major axis (world units)                 [deg]
#   8 B_WORLD                Profile RMS along minor axis (world units)                 [deg]
#   9 THETA_WORLD            Position angle (CCW/world-x)                               [deg]
#  10 FWHM_WORLD             FWHM assuming a gaussian core                              [deg]
#  11 ELONGATION             A_IMAGE/B_IMAGE                                           
#  12 ELLIPTICITY            1 - B_IMAGE/A_IMAGE                                       
         1 -14.0801    211.6930      9.9940   4.0281863075e+01   3.1158573945e+01     2.863554     1.567897  38.17   0.01278025    2.694    0.629
         2 -13.4085    189.1030     40.0257   5.1244349799e+01   3.3130093798e+01    0.9942668    0.9421113 -21.30  0.003666234    1.149    0.130
         3 -13.2123    174.1760     54.0371   5.7887057419e+01   3.4876261798e+01     1.919687     1.221074  27.70  0.005809261    2.187    0.543
         4 -11.1640     50.6921      7.5055   7.3658031878e+01   6.7944801497e+01    0.3450317    0.1495692 -31.99  0.001712248    2.161    0.537
         5 -10.6938     59.5983      3.1755   6.7881175649e+01   6.7010144678e+01    0.2588005    0.1596113   9.08  0.001447111    1.646    0.393
         6  -9.7591     64.7756    223.6084   1.1876129103e+02   2.0106793301e+01    0.2048865   0.08461769 -84.14 0.0008931741    3.190    0.686
         7 -12.3628    246.5755    246.0367   8.7801940237e+01  -1.0787523212e+01    0.7748502    0.5701451  24.05  0.005634413    1.190    0.160
         8 -12.3888    249.0352    232.3873   8.5170698759e+01  -9.5945996837e+00    0.7944634    0.2646692 -37.00  0.003682078    3.319    0.699
         9 -11.2216     67.1902    206.0151   1.1667775529e+02   2.3294447146e+01    0.2033452    0.1990445  18.68            0    1.442    0.307
        10  -9.3309     72.2818    202.9595   1.1532824829e+02   2.3241215246e+01    0.2863768    0.1697022  70.55  0.001537067    1.709    0.415
        11 -11.0698    196.5819    204.4547   8.9852017155e+01   2.3768120875e+00    0.5249406     0.212091  32.27   0.00209011    2.659    0.624
        12 -10.3024     58.4888    202.3502   1.1808761722e+02   2.5184824980e+01    0.2949883    0.2016416 -42.20  0.001159784    2.247    0.555
        13 -19.5032     24.3515    147.0960   1.2018345145e+02   4.1341139837e+01     19.27245     4.779207 -75.07   0.06705437    3.792    0.736
        14 -10.7424    192.7778    194.6727   8.8833938138e+01   4.6426152598e+00    0.9411778    0.5073683 -64.61  0.002832001    6.260    0.840
        15 -11.4682     60.8692    195.7565   1.1695666844e+02   2.6275528374e+01    0.3527244    0.2336465 -44.00  0.001452828    2.180    0.541
        16  -9.1964     82.3214    195.1124   1.1234028587e+02   2.3482423663e+01    0.1946884    0.1722665  46.78  0.001246375    1.232    0.188
        17  -9.5080     75.1518    249.7432   1.1901383346e+02   1.4000498784e+01    0.2771943   0.09740695 -60.01  0.001389156    3.242    0.692
        18  -8.4107     78.2188    192.7414   1.1294216455e+02   2.4578046280e+01    0.1206843   0.08400368  74.72  0.000663658    1.389    0.280
        19  -9.4067    156.6547    189.9155   9.5426609213e+01   1.2092356263e+01    0.1866797    0.1760414 -48.80 0.0006093957    1.154    0.133
        20 -11.6170    149.4342    187.8430   9.6618334680e+01   1.3818221276e+01    0.4244167    0.3152661  58.73  0.001456805    1.435    0.303
        21 -10.8683    141.2307    188.2284   9.8468576620e+01   1.5234276018e+01    0.3315792    0.1691862 -61.80  0.001369791    2.544    0.607
        22  -9.7885    238.4946    185.4816   7.8472206313e+01  -1.8347129068e+00    0.1303248    0.1116457  -0.82 7.256273e-05    1.045    0.043
        23  -9.9646     56.2191    223.9906   1.2039397482e+02   2.1124600487e+01    0.1119271   0.08093822  89.85            0    1.246    0.197
        24 -11.0873    150.8618    179.6961   9.4857009309e+01   1.5172471089e+01    0.4408337    0.2974623 -74.67  0.001997226    2.162    0.537
        25 -11.1529    145.0540    180.6288   9.6309220361e+01   1.6067843645e+01    0.3414847    0.2908227  20.49 0.0009152102    1.289    0.224
        26 -11.8846    140.9902    174.3595   9.6086244138e+01   1.8119286671e+01    0.7607563    0.4906126  72.63  0.002600746    2.348    0.574
        27 -10.5908    237.0037    176.0022   7.6839633209e+01  -1.5665173119e-01    0.1939421    0.1714742 -70.24  0.001142758    1.736    0.424
        28 -10.5758    189.5071    177.6278   8.6232491546e+01   8.2123735260e+00    0.4894208    0.3529998 -57.17  0.002452201    1.766    0.434
        29  -9.0380     50.3394    216.5791   1.2091059346e+02   2.3296495508e+01    0.3019623    0.2285493  -2.35  0.001760921    2.759    0.638
        30  -8.6640     98.2648    214.5589   1.1130088876e+02   1.7147841726e+01    0.1722798    0.1141504  32.19 0.0009497943    1.673    0.402
        31  -8.5403    194.5231    172.5012   8.4179854598e+01   8.1782044740e+00     0.141727    0.1315085  10.35 0.0008101892    1.016    0.016
        32 -10.1508    240.3808    169.2471   7.4861122637e+01   3.0558629596e-01    0.1836682    0.1156158 -39.30 0.0004090802    1.603    0.376
        33 -10.0345    230.5131    167.5182   7.6248802812e+01   2.3138887787e+00    0.2547743    0.1173254 -45.49  0.001042981    2.529    0.605
        34  -9.5837    184.9712    212.7059   9.3529539608e+01   3.0600492637e+00     0.190529     0.156152  32.90    0.0011659    1.071    0.066
        35 -10.8538     91.3821    157.8726   1.0498819655e+02   3.0493739930e+01    0.2724331    0.2669645   8.81  0.000415086    1.226    0.184
        36 -11.7362     96.9988    151.4312   1.0246612960e+02   3.1108126048e+01    0.6146718    0.4924143 -27.46  0.003189089    1.621    0.383
        37 -11.0150    133.9673    146.0578   9.2138969189e+01   2.5642513351e+01     1.306778    0.3388218 -55.26  0.003119942    5.727    0.825
        38  -9.9446    188.0033    151.9990   8.1149310555e+01   1.3305733744e+01    0.2324647    0.1900869 -86.41  0.001054016    1.708    0.414
        39  -9.5299    113.3186    151.2764   9.8324569271e+01   2.8338435849e+01     0.305608    0.2053068  80.46  0.001319541    2.071    0.517
        40  -9.4699    174.8724    149.1645   8.3322498435e+01   1.6590897270e+01    0.2284906    0.2099859  87.58 0.0006368314    1.260    0.207
        41  -9.8607    143.7025    145.8384   8.9731580791e+01   2.3745769349e+01    0.3679425    0.1867406 -64.86  0.001204434    3.272    0.694
        42 -10.1175    107.0869    145.5511   9.8786835729e+01   3.0782623951e+01    0.3394364    0.2317301  81.67  0.001328048    1.971    0.493
        43 -11.3093    108.4691    138.1084   9.6923020609e+01   3.2294755392e+01    0.6063012    0.4732425 -49.13  0.003075415    1.269    0.212
        44 -11.8254     96.6219    137.2723   9.9883299923e+01   3.4544893885e+01    0.3065222    0.2750449 -74.74  0.000359747    1.050    0.048
        45 -10.8722    105.8887    131.0305   9.6102172387e+01   3.4434629163e+01    0.4263829    0.3273932 -57.70  0.001212576    1.248    0.199
        46  -9.8417    135.9031    128.3886   8.7658969447e+01   2.9242866872e+01     0.446447    0.1578523 -50.91   0.00140678    2.954    0.661
        47 -10.1439    115.3634    128.7491   9.3064055966e+01   3.3231445980e+01    0.3175226    0.2574202 -32.22 0.0006177138    1.373    0.272
        48 -10.7022     55.3584    211.5784   1.1953677194e+02   2.3680928837e+01    0.3003024    0.1519613  55.68  0.001654201    1.709    0.415
        49  -9.4499    161.1398    127.8831   8.1422669084e+01   2.3957824073e+01    0.2479586    0.2185185 -79.51  0.001057693    1.298    0.230
        50 -10.5788    103.0398    124.6125   9.5457341034e+01   3.6468527829e+01     0.301273    0.2563732  -1.38 0.0006803251    1.475    0.322
        51 -10.0088    119.9678    123.4916   9.0614961264e+01   3.3572611568e+01    0.2981385    0.2096068 -33.59  0.000987988    1.611    0.379
        52  -9.2484    134.8505    119.6307   8.5780548127e+01   3.1434658083e+01    0.2658116    0.1760583 -51.40 0.0007512265    1.506    0.336
        53  -9.5206    110.4577    118.1694   9.1910610077e+01   3.6636873724e+01    0.2435329    0.2110104  43.90 0.0002879511    1.206    0.171
        54 -10.0393    231.2150    113.7408   6.3990914607e+01   1.1256628425e+01    0.2702022    0.2630903  28.29 0.0007433884    1.126    0.112
        55  -8.3707    147.3563    114.2560   8.1260561357e+01   2.9925217933e+01    0.1575595    0.1242557  11.28 0.0006965071    1.612    0.380
        56  -9.5810    167.4431    112.2616   7.6000061828e+01   2.5811334913e+01    0.3406531    0.2461392 -73.84  0.001142325    1.937    0.484
        57  -9.9843    134.7790    105.8996   8.2212702012e+01   3.4499533032e+01    0.6151091    0.1431729 -45.92  0.001583215    4.236    0.764
        58 -11.1822    118.7964    110.7656   8.7768331661e+01   3.6736774647e+01    0.6208379    0.3927347  66.24  0.002457838    2.293    0.564
        59  -9.7099    205.4751    110.2743   6.7653295458e+01   1.7474294288e+01    0.3122497    0.2392031  41.07 0.0008759915    1.388    0.280
        60  -9.2752    129.6290     96.1626   8.0858646151e+01   3.7727011098e+01    0.3655266    0.1864466  59.50  0.001256889    2.775    0.640
        61 -10.4921     39.0818    212.5442   1.2272883543e+02   2.5422820302e+01    0.1513106    0.1182806  71.25 0.0002829302    1.059    0.056
        62  -8.8602    182.3277     82.6963   6.4721262810e+01   2.8009217953e+01    0.1596253    0.1202165 -72.66 0.0004918778    1.647    0.393
        63  -8.6828     70.9413     72.5122   9.1737181280e+01   5.3724522493e+01    0.1883685    0.1389799  34.85 0.0004859161    1.494    0.331
        64 -10.4743     71.9214    245.3035   1.1923233679e+02   1.5192183752e+01    0.2194785    0.1443613 -67.70  0.001476309    1.709    0.415
        65  99.0000     43.9482    211.6300   1.2173868350e+02   2.5046731272e+01    0.2485634    0.1260147 -79.78   0.00122297    1.826    0.452
        66 -12.5239    194.0728     33.9161   4.8781761429e+01   3.2690598302e+01    0.5353932    0.4814671  42.62  0.001302301    1.230    0.187
        67  -8.8335    167.8046    230.8940   9.9674873773e+01   3.0780009768e+00    0.1620457    0.1480148  31.91 0.0005603019    1.103    0.094
        68 -10.8706     59.0718    230.2759   1.2036168564e+02   1.9572167800e+01    0.1786907    0.1336533  84.70 0.0003418165    1.187    0.157
