#   1 NUMBER                 Running object number                                     
#   2 MAG_AUTO               Kron-like elliptical aperture magnitude                    [mag]
#   3 X_IMAGE                Object position along x                                    [pixel]
#   4 Y_IMAGE                Object position along y                                    [pixel]
#   5 X_WORLD                Barycenter position along world x axis                     [deg]
#   6 Y_WORLD                Barycenter position along world y axis                     [deg]
#   7 A_WORLD                Profile RMS along major axis (world units)                 [deg]
#   8 B_WORLD                Profile RMS along minor axis (world units)                 [deg]
#   9 THETA_WORLD            Position angle (CCW/world-x)                               [deg]
#  10 FWHM_WORLD             FWHM assuming a gaussian core                              [deg]
#  11 ELONGATION             A_IMAGE/B_IMAGE                                           
#  12 ELLIPTICITY            1 - B_IMAGE/A_IMAGE                                       
         1 -12.1283    188.5688     24.2707   6.8496306761e+01   3.4749244330e+01     1.091358    0.4987707 -16.48  0.003452462    2.317    0.568
         2 -13.6838    198.3591     14.4330   6.3918937412e+01   3.3162991532e+01     3.250886     1.651414  25.23   0.01231721    2.570    0.611
         3 -11.2311     32.8977     14.0096   1.1086948292e+02   6.9082309276e+01    0.5483434    0.1450271 -49.63  0.002096633    3.104    0.678
         4 -11.1868     32.6742      2.4684   1.0537353836e+02   7.1188190616e+01    0.4577257    0.2054235  29.76  0.002314917    2.536    0.606
         5 -11.0560     76.8614    186.5924   1.3177476789e+02   2.8182136787e+01    0.2346059    0.2137567 -41.52 0.0008546423    1.498    0.332
         6 -11.3294    139.8682    248.5639   1.2650074776e+02   1.0830129787e+01    0.3254905    0.2396319  71.48  0.002547835    1.739    0.425
         7 -10.1588    110.0104    248.4826   1.3127174608e+02   1.4743944913e+01    0.1780443    0.1448449 -79.54  0.001557197    1.566    0.361
         8 -12.4263    105.0174    244.9264   1.3179090120e+02   1.5823268136e+01    0.5900811    0.3509412  48.72 0.0007047183    1.219    0.179
         9 -12.0959    100.5139    244.9379   1.3251208113e+02   1.6382792195e+01    0.4238034    0.4169959  13.45  0.003268971    1.492    0.330
        10 -11.0021     86.7933    241.1355   1.3442959975e+02   1.8553309290e+01    0.2653871    0.1257902  61.35 0.0009818586    2.090    0.522
        11 -11.5686     83.3948    243.4607   1.3512769130e+02   1.8641962644e+01    0.4260156    0.2295084  74.28  0.002931669    2.180    0.541
        12 -10.7859     82.7575    249.3586   1.3561116178e+02   1.7935343155e+01    0.2908858    0.1541598  35.72  0.002074121    1.741    0.425
        13  -9.8665     62.8100    250.3704   1.3871679296e+02   2.0032782615e+01    0.2365298   0.05797306  46.31 0.0009415912    2.532    0.605
        14 -12.3060     73.0103    226.6491   1.3567784262e+02   2.2213376128e+01    0.5791891     0.227955  60.43  0.003210655    2.666    0.625
        15 -13.2836     33.5982    246.1651   1.4286202608e+02   2.3571213093e+01     1.523488    0.5189803  38.73   0.01006931    2.287    0.563
        16 -14.8426     57.2715    213.2937   1.3744420106e+02   2.6010827480e+01     6.301822     0.663604  43.41   0.02623324    4.207    0.762
        17  -8.0375    181.4900    192.4256   1.1231895821e+02   1.1562464153e+01    0.1244205   0.09775701  30.92 0.0001242439    1.012    0.011
        18 -10.6997     85.1516    174.6496   1.2889798960e+02   2.9258613064e+01    0.2243876    0.2207315  68.49 0.0004024946    1.246    0.197
        19 -12.6364     72.9123    172.0824   1.3114174220e+02   3.1273976892e+01    0.3828852     0.243951 -46.19  0.001790998    2.083    0.520
        20  -9.7168    126.3407    173.6425   1.2026351319e+02   2.3480174171e+01    0.2760608    0.1419507  34.81  0.001384212    1.880    0.468
        21 -10.5816    107.4432    173.4950   1.2415358088e+02   2.6380600632e+01    0.5026813   0.09405237  40.09  0.001674916    4.369    0.771
        22 -12.5360     58.0308    130.6004   1.2973978338e+02   4.1280105898e+01     1.662285    0.5735173 -79.73  0.004965517    6.196    0.839
        23 -11.7719     91.3359    166.7863   1.2668752807e+02   2.9878460628e+01    0.8554024    0.4305237  48.88  0.002020237    1.815    0.449
        24 -12.9450     67.6882    144.4576   1.2917967302e+02   3.7282953969e+01     1.397736    0.6803336  80.17  0.003325171    3.577    0.720
        25 -10.8699     45.5957    144.7927   1.3428740828e+02   3.9642347036e+01    0.3178537    0.1665608 -89.22  0.001745246    1.986    0.497
        26  -9.3115    102.8816    149.8614   1.2182033514e+02   3.1445279319e+01    0.2577144     0.233687 -45.13 0.0009388786    1.245    0.197
        27  -8.6342    105.3076    146.0175   1.2066507787e+02   3.1826345851e+01    0.3202931    0.1299078 -42.31  0.001248204    3.394    0.705
        28 -11.3674     91.8916    149.2076   1.2423205121e+02   3.3171109861e+01    0.2351651    0.2285003  -8.52 0.0004538865    1.237    0.192
        29 -10.7175     47.0035    149.5248   1.3443371962e+02   3.8544450563e+01     0.312119    0.1368232 -62.41  0.001682131    2.129    0.530
        30  -9.2871    112.8081    135.4826   1.1711229072e+02   3.2716623388e+01     0.296372    0.2152723 -22.72  0.001015846    1.903    0.475
        31  -9.9849    100.3171    132.7655   1.1964710088e+02   3.5239375222e+01    0.2458295    0.2069163 -30.63 0.0004313342    1.407    0.289
        32 -14.3878      7.9341    241.2549   1.4639736176e+02   2.6559705713e+01     1.550178    0.7348177 -76.13   0.01134242    2.207    0.547
        33 -13.4744     11.7873    206.8547   1.4471163140e+02   3.1407252694e+01    0.9800532    0.5602639  38.01  0.003799129    1.688    0.407
        34  -9.9869     37.0132    226.2517   1.4149087972e+02   2.6102133200e+01    0.1833734    0.1395552  75.05  0.001136442    1.172    0.147
        35 -10.1191     40.5323    128.9833   1.3383886063e+02   4.3417301586e+01    0.1787814   0.09908308 -73.81  0.001028115    1.583    0.368
        36 -15.7302      7.3541    127.3255   1.4158215286e+02   4.6391143658e+01     12.87351     1.956309 -79.54   0.03174415    6.464    0.845
        37  -8.6420    108.9730    122.9740   1.1569082742e+02   3.5871259009e+01    0.1896468    0.1860173  40.83 0.0003464272    1.043    0.041
        38 -10.1326     68.8598    246.1386   1.3756182341e+02   1.9938839421e+01    0.1999083     0.118149  37.19  0.001173584    1.570    0.363
        39  -9.4230     70.6857    242.6688   1.3707489353e+02   2.0206637423e+01    0.1268564     0.115373 -84.74 0.0009056301    1.470    0.320
        40 -10.1328    168.2268    113.0818   9.9301340108e+01   2.6402870269e+01    0.3278056    0.2871171 -73.10 0.0009365841    1.514    0.340
        41 -11.5175     73.3713    240.0602   1.3649328493e+02   2.0262148301e+01    0.5151704     0.178463  59.40  0.002726529    3.136    0.681
        42  -9.4571    229.9147    207.3928   1.0622767233e+02   2.0218634360e+00    0.1694463    0.1504311  -4.94 0.0006174551    1.450    0.311
        43 -12.5746     48.1279    227.2121   1.3977096585e+02   2.4845406120e+01    0.4854503    0.3864222  37.16  0.001547017    1.488    0.328
        44  -9.3706    127.1915     53.8074   9.1889345000e+01   4.6107635128e+01    0.2854273    0.2379978  82.44  0.001029151    1.657    0.396
        45 -11.3250     34.9649    229.7782   1.4197231892e+02   2.5776322347e+01    0.3226196    0.2810555  21.26  0.001020898    1.799    0.444
        46  -9.8455    192.6800    194.2956   1.1057004774e+02   9.4627194257e+00    0.5471352     0.298047 -59.56  0.001957301    6.559    0.848
        47 -10.9817     72.3116    193.4663   1.3326370826e+02   2.7548968794e+01    0.3173462    0.2194954 -44.09  0.002120775    2.125    0.529
        48 -10.5866    115.5862    246.0721   1.3018680387e+02   1.4334664676e+01    0.2058026    0.1303879  69.89  0.001492539    1.869    0.465
