#   1 NUMBER                 Running object number                                     
#   2 MAG_AUTO               Kron-like elliptical aperture magnitude                    [mag]
#   3 X_IMAGE                Object position along x                                    [pixel]
#   4 Y_IMAGE                Object position along y                                    [pixel]
#   5 X_WORLD                Barycenter position along world x axis                     [deg]
#   6 Y_WORLD                Barycenter position along world y axis                     [deg]
#   7 A_WORLD                Profile RMS along major axis (world units)                 [deg]
#   8 B_WORLD                Profile RMS along minor axis (world units)                 [deg]
#   9 THETA_WORLD            Position angle (CCW/world-x)                               [deg]
#  10 FWHM_WORLD             FWHM assuming a gaussian core                              [deg]
#  11 ELONGATION             A_IMAGE/B_IMAGE                                           
#  12 ELLIPTICITY            1 - B_IMAGE/A_IMAGE                                       
         1 -12.4117     43.5604     20.2069   1.0231469946e+02   6.5509682964e+01    0.6389154    0.3328176  20.29  0.002376102    2.048    0.512
         2 -12.6490    217.1933     15.7662   6.2817115916e+01   2.9368555139e+01    0.7415816     0.415867  75.71  0.002870317    1.611    0.379
         3 -13.6447    186.1589      6.7325   6.4119783521e+01   3.7755830179e+01    0.9162822     0.561952 -81.47  0.004734037    1.764    0.433
         4 -11.2672     57.3408      8.1874   9.2136489038e+01   6.5011427051e+01    0.3735032    0.2561904   9.30  0.002457177    1.279    0.218
         5 -11.4196     43.5546      8.7626   9.7454109769e+01   6.6904245373e+01    0.2885639    0.2052272  34.65  0.001386775    1.515    0.340
         6 -12.0247    167.1518      1.9603   6.5270207340e+01   4.2774754613e+01    0.6354206    0.1750679  69.09  0.002279605    3.223    0.690
         7 -10.9555     12.3903    227.2622   1.4913730959e+02   2.5963758121e+01    0.2077806    0.1297388  74.72  0.000498756    1.193    0.162
         8  -9.9406    104.3929    225.6746   1.3226132549e+02   1.3998676321e+01    0.2315531    0.1202428 -68.42  0.001122469    2.149    0.535
         9 -10.8929     96.5568    225.2944   1.3374451811e+02   1.5333109531e+01     0.311134    0.1527066  61.11  0.001437979    2.164    0.538
        10 -10.5098     77.0102    226.0236   1.3757684688e+02   1.8167841217e+01    0.1988308     0.149661  74.09  0.001078144    1.104    0.094
        11 -10.7022    149.3490    222.5382   1.2286856746e+02   6.8159437444e+00     0.401953    0.2244799 -57.78   0.00193536    2.113    0.527
        12  -9.5623    185.4970    223.5005   1.1582987574e+02   7.8543066376e-02    0.1336203    0.1175368  33.22 -8.845729e-05    1.002    0.002
        13 -11.1184    226.1867    221.2209   1.0765697225e+02  -6.6690070821e+00    0.1614921    0.1557371  51.82 0.0009268826    1.360    0.265
        14 -10.2046    211.2042    218.1508   1.0991873159e+02  -3.6355647010e+00    0.1687385    0.1600886  74.16 0.0005624076    1.363    0.266
        15 -11.1835    222.4812    214.4841   1.0711947815e+02  -5.0213307211e+00    0.2222958    0.1266602 -36.89  0.001123679    1.831    0.454
        16 -11.1270    231.8561    212.1230   1.0494120110e+02  -6.2545233953e+00    0.3331349     0.182352   4.17  0.001277162    3.534    0.717
        17 -10.4819    115.5737    209.2936   1.2781280933e+02   1.5429425575e+01    0.2514418    0.1303946 -63.94  0.001141582    2.122    0.529
        18 -11.2942      5.2772    199.4647   1.4852575601e+02   3.2262047694e+01    0.2734515    0.1492589  56.00   0.00101989    1.665    0.399
        19 -10.1561     48.5922    201.3855   1.4051955752e+02   2.7191710253e+01    0.2502416    0.0978044 -84.49 0.0009551162    3.462    0.711
        20 -10.4201    149.4969    199.0038   1.1900590343e+02   1.1343133968e+01    0.1984286    0.1243636 -79.22 0.0008105718    2.574    0.611
        21  -9.7878    133.2171    195.9317   1.2198119390e+02   1.5051755517e+01    0.1823811    0.1150655 -57.02 0.0005552621    1.671    0.402
        22 -12.3292    159.8489    191.6451   1.1547404964e+02   1.0824297589e+01    0.7354987    0.5150573 -81.47  0.002712044    2.075    0.518
        23 -10.1165    217.3132    187.6597   1.0293171583e+02   3.2806570126e-01    0.1340484    0.1133207 -83.81 0.0007046763    1.699    0.411
        24 -10.0790    210.5327    182.7222   1.0324693647e+02   2.5022978460e+00    0.2707176    0.1359831 -35.60  0.001137262    2.075    0.518
        25 -10.9240    226.3854    188.1669   1.0130985944e+02  -1.4463988430e+00    0.1938519    0.1242372 -47.26 0.0009481355    1.750    0.429
        26 -10.6531    183.3119    182.9575   1.0881726909e+02   7.8674804688e+00    0.3922559    0.1768987 -39.88  0.001516327    2.389    0.581
        27  -9.4714     28.6360    176.6854   1.4205387375e+02   3.4917403629e+01    0.1167679   0.08338086 -47.60 0.0007040328    1.764    0.433
        28 -11.2583     35.8174    174.0606   1.4025038696e+02   3.4748105151e+01     0.390278    0.1532423  50.72  0.001794974    2.651    0.623
        29 -11.3201     55.7180    168.0463   1.3509393024e+02   3.3794748979e+01    0.4033386    0.2286519 -80.89  0.002004968    1.758    0.431
        30 -10.9175    121.0103    168.7866   1.1992258253e+02   2.3313123292e+01      0.27922    0.1881794 -72.11  0.001098622    1.678    0.404
        31  -9.7736    138.3545    164.6698   1.1506330197e+02   2.0883372120e+01    0.1607351    0.1163685  80.89 0.0007045608    1.781    0.438
        32 -10.3247     78.9986    163.2509   1.2893259485e+02   3.1713206965e+01    0.2532336    0.1338101  82.70 0.0008880298    3.503    0.715
        33 -11.5056    105.9264    158.1449   1.2151953304e+02   2.8524859806e+01     0.570973    0.3360073  71.13  0.002247183    2.549    0.608
        34 -10.1993     52.0104    159.5190   1.3477922755e+02   3.6239607512e+01    0.1847147    0.0905204  58.93 0.0008095306    2.480    0.597
        35 -10.8801    167.5044    157.5156   1.0689496181e+02   1.6384416049e+01    0.3529988    0.2409045  89.10  0.001389374    2.428    0.588
        36 -10.6888    218.4109    156.6934   9.6178071085e+01   5.7304157913e+00    0.2899087    0.1338511 -44.01  0.001137778    2.140    0.533
        37 -11.1280    119.3646    156.9416   1.1801801086e+02   2.6348714309e+01    0.3967499     0.270026  66.06  0.001795331    1.727    0.421
        38  -9.9692      6.7635    155.9757   1.4463538840e+02   4.1527373670e+01    0.1592716   0.07563408 -73.50 0.0006522886    1.600    0.375
        39  -9.9897     23.4914    153.5120   1.4063919898e+02   4.0661325478e+01    0.1238836   0.09648252 -81.89 7.340238e-06    1.023    0.023
        40 -10.1783    232.0000    151.9976   9.2626389696e+01   3.8486007036e+00    0.2400367   0.07717789 -39.21 0.0007995833    2.923    0.658
        41 -10.0205     40.0690    152.2846   1.3660860602e+02   3.9292167310e+01    0.2068556    0.1211248  65.44  0.001060971    1.966    0.491
        42 -10.5861    189.6027    149.9350   1.0041615667e+02   1.3171584970e+01    0.3132642    0.1928968 -55.41   0.00130651    1.861    0.463
        43 -11.2246     28.6031    156.3981   1.3981143192e+02   3.9517827320e+01    0.3435102    0.1715074 -86.41  0.001347629    2.080    0.519
        44 -10.2340     12.1206    148.1595   1.4263142893e+02   4.2851319159e+01    0.1825422    0.1327042 -60.88 0.0006396798    1.275    0.216
        45 -11.0689    107.0694    145.3726   1.1870676712e+02   3.1320907029e+01    0.5157174    0.2880377  79.88  0.001523942    4.644    0.785
        46 -10.2278    148.4857    145.0118   1.0846087749e+02   2.3195478830e+01    0.2285338    0.1352375 -70.18 0.0008099297    2.634    0.620
        47 -10.3113     55.3394    145.6708   1.3189621170e+02   3.9086571916e+01    0.1394755     0.092875  76.94 0.0007051752    1.737    0.424
        48 -10.0647    181.6609    141.3351   1.0011252887e+02   1.6698692613e+01     0.161877    0.1238496 -84.90 0.0007051445    1.752    0.429
        49 -10.8050     83.0390    132.0354   1.2220240010e+02   3.8490396143e+01    0.2799898    0.1799587 -71.54  0.001307215    1.694    0.410
        50 -12.1143     98.3210    127.5154   1.1713678221e+02   3.7050803958e+01    0.7576403    0.4107141 -77.46  0.002451422    3.813    0.738
        51  -9.9164    117.3325    125.6487   1.1167542051e+02   3.3985539794e+01    0.1599169    0.1192756  88.36 0.0006450694    1.778    0.438
        52 -11.1237     43.5019    123.2927   1.3124147830e+02   4.5673218375e+01    0.4434639    0.2188449 -88.08  0.001595704    3.950    0.747
        53 -10.7199     58.4026    123.6045   1.2721141691e+02   4.3892747206e+01    0.2761588    0.1195589 -73.13 0.0009574098    3.456    0.711
        54 -11.8045    193.2299    118.7164   9.2227701725e+01   1.8670870342e+01    0.6063263    0.4362996 -69.74  0.002282003    1.755    0.430
        55 -10.7054     71.0001    119.7210   1.2292047877e+02   4.3138907954e+01    0.3785252    0.2337138 -86.55  0.001611245    2.517    0.603
        56 -11.7257    141.7046    112.4188   1.0214449355e+02   3.1854471899e+01    0.4103256    0.2950135  -8.70  0.001705706    2.097    0.523
        57 -10.5926      2.5443    116.1913   1.4112354252e+02   5.0665009490e+01    0.2376901   0.09299884 -73.85  0.001155305    2.135    0.532
        58 -10.6556    108.2688    112.4823   1.1085703697e+02   3.8695757665e+01    0.6084989    0.2542628 -60.65  0.001842816    3.768    0.735
        59 -10.8867     78.8688    112.5838   1.1910707559e+02   4.3641493279e+01    0.3464695     0.224145 -77.83  0.001552391    2.124    0.529
        60 -11.8380    159.5014    112.0355   9.7797817835e+01   2.7910999309e+01    0.5292475     0.364118  38.95  0.002332396    1.562    0.360
        61 -10.8032    174.4580    110.9889   9.4186311021e+01   2.4629388267e+01    0.3571236    0.2787936 -43.15 0.0009983158    1.265    0.210
        62 -10.2983     91.5426    111.5727   1.1526821258e+02   4.1863581944e+01    0.2746869    0.1345435 -61.66  0.001039654    2.453    0.592
        63 -11.6180     15.1313    110.4179   1.3690462747e+02   5.1105771104e+01    0.5989234    0.3480447 -87.29  0.003278502    1.951    0.487
        64 -10.1379     59.9345    109.8611   1.2396183429e+02   4.6865556105e+01    0.2052235    0.1648514 -38.28 0.0006897508    1.233    0.189
        65 -12.1251    142.0115    100.4109   9.8855268328e+01   3.4309467719e+01    0.4466985    0.3103687  48.51  0.002033155    1.454    0.312
        66 -12.2397     44.1430    100.8539   1.2670295975e+02   5.0698046203e+01    0.6854706    0.3953145  89.30  0.002815914    3.419    0.708
        67 -11.6070    127.9032    101.0888   1.0260972616e+02   3.7245994469e+01    0.5307038    0.2204556 -48.54  0.001865918    2.471    0.595
        68 -12.9561    110.0752     99.8495   1.0705068878e+02   4.1113905573e+01     1.110618     0.572997  62.33  0.003679232    3.639    0.725
        69 -10.6461     19.5697     97.2033   1.3337581556e+02   5.3687928257e+01    0.2371118     0.100841 -67.07  0.001091505    2.074    0.518
        70 -10.6708     81.6622    100.3519   1.1531946657e+02   4.5951358404e+01    0.2156577    0.1698149  86.59  0.001052938    1.712    0.416
        71 -10.5870     63.4818     96.9777   1.1993520591e+02   4.9285445544e+01    0.1897315    0.1155248 -76.99 0.0008103421    2.579    0.612
        72 -13.0764    170.4221     90.7350   8.9675915437e+01   2.9568444799e+01    0.4894965    0.4219733  86.54   0.00132383    1.264    0.209
        73 -10.0981    151.3330     89.6582   9.3630401742e+01   3.4316738585e+01    0.1614697    0.1218568 -79.29 0.0005314514    1.753    0.430
        74 -11.4755     86.8378     87.2124   1.1025004051e+02   4.7920416019e+01    0.3784746    0.2726754  55.47  0.001844766    1.732    0.423
        75 -11.8103     42.3196     87.6796   1.2430781704e+02   5.3747959618e+01    0.3430391    0.2135695  -6.19  0.001766777    2.269    0.559
        76 -10.8742     45.4675     81.9287   1.2188300618e+02   5.4628040705e+01    0.2710853    0.1436338 -57.07 0.0007776648    1.733    0.423
        77 -10.5653     47.8056     77.9604   1.2008607031e+02   5.5190379569e+01    0.2385227    0.1789881 -24.64 0.0004207883    1.319    0.242
        78 -11.1959    104.3652     83.1773   1.0393788990e+02   4.5631843998e+01     0.383191    0.2446978 -67.98  0.001569987    2.545    0.607
        79 -11.0203     81.8808     72.3441   1.0740512578e+02   5.1675463304e+01    0.3972551    0.1861895 -54.38  0.001573393    2.714    0.631
        80 -10.4046    115.9879     72.9855   9.7617190758e+01   4.5269793029e+01    0.2600288    0.1522687 -60.02  0.001017876    2.608    0.617
        81 -11.5778    223.1232     70.9834   7.5148477177e+01   2.0274150310e+01    0.4254928    0.2800991 -85.55 0.0006648448    1.862    0.463
        82  -9.9743    220.0732     65.7612   7.4329172407e+01   2.1831715780e+01    0.3360702    0.2467184  17.18  0.001468617    2.194    0.544
        83 -10.1152    140.6071     82.7981   9.4224664007e+01   3.8098810186e+01     0.224562    0.1389401 -49.27 0.0009590713    1.722    0.419
        84 -10.5446     51.7653     69.8939   1.1652836128e+02   5.6347157762e+01    0.2658613    0.1593875 -49.74  0.001267198    1.504    0.335
        85 -10.8072     62.3881     69.8141   1.1293331984e+02   5.5029946355e+01    0.1939935    0.1054937 -38.19 0.0006614533    1.670    0.401
        86 -10.2051    194.5002     68.5051   7.9060319370e+01   2.7587602136e+01    0.1479419    0.1389178 -84.85 0.0008106775    1.000    0.000
        87 -11.7091     39.8989     52.1752   1.1536456593e+02   6.0966438667e+01    0.4694078    0.2383068 -35.54  0.001699613    1.721    0.419
        88 -13.4841     31.0408     59.5303   1.2082937046e+02   6.0483101731e+01     1.049859    0.7195914  25.97  0.006723025    1.689    0.408
        89 -11.7404     21.2841     52.2265   1.2233675367e+02   6.2659654031e+01    0.4924048    0.3194736 -62.04  0.002890304    1.766    0.434
        90  -9.8662      9.7552     65.6239   1.3002627426e+02   6.0908243266e+01    0.1294059    0.1042343  27.33 0.0003655457    1.589    0.371
        91 -12.4780    237.1182     63.7646   7.1523901693e+01   1.8186012500e+01     0.496666    0.2786382 -88.16  0.002089131    2.495    0.599
        92 -11.4253     19.9942     59.2739   1.2477770994e+02   6.1442894295e+01    0.2554646    0.1695196 -40.41 0.0009629343    1.175    0.149
        93 -11.4087     11.2664     58.9225   1.2786689983e+02   6.2114388945e+01    0.5013564    0.1607148  36.16   0.00222946    4.352    0.770
        94 -10.4436     47.8788     57.3869   1.1412127672e+02   5.9152783739e+01    0.2355549    0.1660977 -20.00   0.00128422    1.359    0.264
        95 -11.4306    149.0386     52.2536   8.3155431454e+01   4.1283427991e+01     0.279852    0.2362815  68.83 0.0004380017    1.209    0.173
        96 -10.1318     62.4308     53.2257   1.0766078904e+02   5.8041541629e+01    0.1743734    0.1134305 -48.09 0.0006194146    1.642    0.391
        97 -10.3463     92.0000     50.9545   9.7314204132e+01   5.3670468899e+01    0.2181274   0.07302082 -37.20 0.0008013742    2.935    0.659
        98  -9.9950     53.5984     50.2106   1.0974376311e+02   5.9724630982e+01    0.1768083   0.09913716 -32.66 0.0002426373    1.611    0.379
        99  -8.9660    173.3163     49.3228   7.7552763124e+01   3.5793498463e+01    0.1469434    0.1088419  29.14 0.0007042513    1.664    0.399
       100 -10.3080     82.3817     47.1945   9.8974915080e+01   5.5948612108e+01     0.183349    0.1159304 -43.78 0.0006479689    1.724    0.420
       101  -9.9752    191.4989     46.4887   7.3742493292e+01   3.1692199415e+01    0.1421896    0.1306477  83.84 -4.924402e-05    1.015    0.015
       102 -10.4606    156.8424     44.9406   7.9362428602e+01   4.0454667723e+01    0.2518607    0.1901133  57.27 0.0006080522    1.233    0.189
       103 -11.2842     70.2272     42.1588   1.0114026493e+02   5.8690743945e+01     0.329403    0.2691137  69.10  0.001592459    2.039    0.510
       104 -10.6110     69.7029     37.9836   9.9791188969e+01   5.9393929091e+01    0.2301343    0.1675404 -13.11 0.0003554417    1.288    0.223
       105 -10.5868      5.4857     42.5143   1.2565430268e+02   6.5491263935e+01    0.2479587    0.1918767  80.28  0.001650079    2.377    0.579
       106  -9.7068    239.1194     43.6575   6.6733991316e+01   2.0707485584e+01    0.1755199    0.1122833  60.27 0.0003502817    1.618    0.382
       107 -10.8383    114.7320     42.7359   8.8141210772e+01   5.0408912964e+01    0.2211442    0.2104611  28.00   0.00023354    1.078    0.073
       108 -12.1505     41.9795     38.3208   1.0989447852e+02   6.3070875843e+01    0.5145922    0.3516268  24.28  0.001641764    1.525    0.344
       109 -10.8194    119.7058     33.9886   8.3936905431e+01   5.0499763907e+01    0.2863572    0.2637788  29.94  0.001085348    1.026    0.026
       110 -10.3451     48.8197     34.9630   1.0608315463e+02   6.2772971499e+01    0.2875153    0.1546119  19.92  0.001147577    2.075    0.518
       111  -9.9719     10.1776     44.3313   1.2432342624e+02   6.4877747810e+01     0.134665    0.1262016 -36.40 0.0006123073    1.342    0.255
       112 -11.3991    103.8663     30.2740   8.6649766417e+01   5.4286564089e+01    0.5006815    0.3153723  64.35  0.002281981    2.040    0.510
       113 -11.4221    222.4843    249.5123   1.1316233842e+02  -1.0009636480e+01    0.3017512    0.1004144  43.92  0.001276257    2.840    0.648
       114 -12.1163    202.7743     20.9675   6.5672011137e+01   3.2210132394e+01    0.4060216    0.2001243 -79.18  0.001606616    2.906    0.656
       115 -10.4063    239.8013     20.9151   6.1709409922e+01   2.3549607922e+01    0.2163521    0.1626823  88.04 0.0007284369    1.169    0.144
       116 -10.0467     82.2150    248.6125   1.3888072618e+02   1.3073666801e+01    0.1588497    0.1009933  40.28 0.0009485208    1.639    0.390
       117 -12.4173     24.1701    241.4788   1.4812010328e+02   2.1967864457e+01     0.445962    0.1794329  66.04  0.002410657    2.244    0.554
       118 -10.9219      3.1016    239.3155   1.5130016701e+02   2.4608106559e+01    0.1723482    0.1136525 -82.06  0.001201425    1.332    0.249
       119 -11.8858     30.0256    234.0667   1.4666567415e+02   2.2714856326e+01    0.5644323    0.2394035  72.72    0.0029037    2.393    0.582
