#   1 NUMBER                 Running object number                                     
#   2 MAG_AUTO               Kron-like elliptical aperture magnitude                    [mag]
#   3 X_IMAGE                Object position along x                                    [pixel]
#   4 Y_IMAGE                Object position along y                                    [pixel]
#   5 X_WORLD                Barycenter position along world x axis                     [deg]
#   6 Y_WORLD                Barycenter position along world y axis                     [deg]
#   7 A_WORLD                Profile RMS along major axis (world units)                 [deg]
#   8 B_WORLD                Profile RMS along minor axis (world units)                 [deg]
#   9 THETA_WORLD            Position angle (CCW/world-x)                               [deg]
#  10 FWHM_WORLD             FWHM assuming a gaussian core                              [deg]
#  11 ELONGATION             A_IMAGE/B_IMAGE                                           
#  12 ELLIPTICITY            1 - B_IMAGE/A_IMAGE                                       
         1 -12.6332      5.2512     38.7998   7.9420636120e+01   6.5547349590e+01    0.7546705    0.1939474 -61.12  0.003354494    2.815    0.645
         2 -10.0501     60.6001     30.9860   5.5633795125e+01   6.1796157300e+01    0.3903057    0.1030605 -39.68  0.001408176    3.295    0.696
         3 -11.7493     12.8712     28.7940   7.3567216894e+01   6.7018674887e+01    0.5472388    0.1618515 -57.71  0.002447361    2.799    0.643
         4 -12.0081      3.4513     25.6092   7.6520157311e+01   6.8180730043e+01    0.4797059    0.1642658 -52.89  0.002576985    1.934    0.483
         5  -9.8272     49.5074     16.9900   5.3997149446e+01   6.5539696866e+01    0.3260439    0.1566599 -16.70  0.001349028    3.238    0.691
         6 -10.6082     40.7235     14.2287   5.6317585751e+01   6.7042153272e+01    0.2575543    0.1529991 -19.66  0.000416357    1.626    0.385
         7 -11.0214      2.3623     14.9958   7.3570957072e+01   7.0185530413e+01    0.2530054   0.07696564 -55.42  0.001239871    2.452    0.592
         8 -11.0319      7.5804     13.8156   7.0750987817e+01   7.0082297824e+01    0.2741728   0.08847602 -55.44  0.001298004    2.684    0.627
         9 -10.0696     17.4813     12.5227   6.5710710150e+01   6.9593570298e+01    0.2429708    0.0855324 -47.83    0.0012176    2.192    0.544
        10 -11.1038    126.2051    220.5512   7.9211928937e+01   1.4504389878e+01    0.2373067    0.1684313  61.62 0.0006569498    1.226    0.184
        11  -9.1446     13.5313    250.5464   9.8818963710e+01   2.4202182147e+01   0.09171972   0.05798833  69.35 6.524324e-05    1.002    0.002
        12  -9.6158     83.3123    219.6590   8.6421176009e+01   2.0964146238e+01    0.1163962   0.06540964  69.62 0.0006866863    1.698    0.411
        13  -9.9304     74.5665    219.1889   8.7834916077e+01   2.2209121102e+01    0.2328343   0.09942783  55.96  0.001316727    1.962    0.490
        14  -9.4956    143.6508    216.5138   7.5687286045e+01   1.2297937242e+01    0.1748382    0.1131033 -54.11   0.00107313    1.883    0.469
        15  -9.1289     99.5266    216.0124   8.3322495396e+01   1.9280105299e+01     0.154921   0.08436226  85.04 0.0008095622    2.524    0.604
        16  -9.8261    131.8105    214.1336   7.7474882072e+01   1.4603192106e+01    0.1560786    0.1323787  32.53 0.0007879004    1.372    0.271
        17 -10.1204     77.4451    211.8764   8.6713282346e+01   2.3059172614e+01    0.2415801    0.2170284  41.07  0.001880642    1.522    0.343
        18  -9.8675    116.4267    210.2855   7.9741557844e+01   1.7669218200e+01    0.2122102    0.1172985  60.52 0.0008791397    1.742    0.426
        19  -9.8389     99.4407    206.1675   8.2304331889e+01   2.0943069997e+01    0.2329354    0.1200821  67.87  0.001201077    2.262    0.558
        20  -9.6538     56.9952    205.4938   8.9653061038e+01   2.6770720748e+01    0.1609734   0.06017358  58.51 0.0008102207    2.514    0.602
        21 -10.9532    165.4449    203.1281   6.9936871087e+01   1.0565705501e+01    0.2640268    0.1435645  56.96  0.001256759    1.956    0.489
        22 -12.4948    176.8989    197.5472   6.6984023498e+01   9.3354594460e+00    0.4397419    0.3453209  69.84  0.002659596    1.544    0.353
        23 -11.9087    172.9767    195.5136   6.7377974288e+01   1.0354517785e+01    0.3159512    0.2546821  80.78  0.001443199    1.605    0.377
        24 -11.0688    125.2212    197.2617   7.6524531799e+01   1.8436413783e+01    0.3203813    0.1954528  50.61  0.001842929    1.397    0.284
        25 -10.7986    112.9697    196.3875   7.8695675380e+01   2.0566428576e+01    0.4052451    0.1961792 -65.23  0.002048071    2.435    0.589
        26  -9.5887    105.5070    197.9666   8.0272180311e+01   2.1451866021e+01    0.1618301    0.1120922 -66.07 0.0006549012    1.546    0.353
        27 -10.2139     88.3466    197.8804   8.3410543302e+01   2.4003675585e+01     0.213659     0.100095 -74.55  0.001077186    2.527    0.604
        28 -11.1276    162.5800    193.8091   6.9036154763e+01   1.2510008335e+01    0.2435834    0.1868376  79.73  0.001058001    1.670    0.401
        29  -9.6791     66.0598    194.0301   8.7064399690e+01   2.7708058800e+01    0.1905692    0.1068836  72.50 0.0009673132    1.739    0.425
        30  -9.8713     78.1930    192.9975   8.4753374617e+01   2.6301036986e+01    0.1949388    0.1086406  79.68  0.001071503    2.022    0.505
        31  -9.6519     43.8524    193.2496   9.0941579487e+01   3.0505808110e+01     0.196773   0.07900003  68.48 0.0009568805    2.865    0.651
        32 -10.7541      7.9366    188.8597   9.6763494050e+01   3.4886137969e+01    0.3252896    0.1089366  82.73   0.00157282    3.322    0.699
        33 -10.6106    138.9518    188.9278   7.2759644391e+01   1.7529287249e+01    0.3214748    0.1780803 -60.90  0.001625287    2.210    0.547
        34 -10.4083    129.7649    188.4402   7.4450316441e+01   1.9198846574e+01    0.2616649    0.1560965  63.30  0.001235202    1.827    0.453
        35 -10.6471     87.3860    188.8920   8.2596703406e+01   2.5776724143e+01    0.2534234    0.1445929  81.99  0.001351254    2.107    0.525
        36 -12.0749     95.2020    184.6320   8.0603575809e+01   2.5428168443e+01    0.6484761    0.3851043  83.56  0.003454465    2.068    0.516
        37 -10.6252    203.1702    187.1968   6.0436520034e+01   5.9530944669e+00    0.1721758    0.1481762  57.21 0.0005569721    1.332    0.249
        38  -9.8665    156.7387    187.1570   6.9084068394e+01   1.4643765224e+01    0.2119043    0.1347592  80.37 0.0009488656    2.780    0.640
        39 -10.5746    110.0962    185.6263   7.7854506366e+01   2.2947151772e+01    0.3323726    0.2459829  66.87  0.001671446    1.244    0.196
        40 -10.0334     55.2640    186.7071   8.8345392668e+01   3.0402675477e+01    0.2847177    0.1108482  69.36   0.00115256    3.984    0.749
        41  -9.6326     34.6517    187.3099   9.2097390856e+01   3.2602242896e+01    0.1813002    0.0926709  70.89  0.001115284    1.765    0.434
        42  -9.8599    149.5180    198.8669   7.2229478209e+01   1.4035181734e+01    0.2767046    0.1613308  82.52  0.001085938    4.070    0.754
        43 -10.7084    120.4528    184.6815   7.5716367587e+01   2.1433948514e+01    0.3241659    0.1222232 -62.17  0.001288792    3.513    0.715
        44 -10.0636     11.9604    186.2653   9.5941444833e+01   3.5002315480e+01    0.1423696   0.09079935 -66.59  0.001032102    1.661    0.398
        45 -10.4422     74.4264    183.3061   8.4429860795e+01   2.8619266653e+01    0.2799175    0.1632379  89.39  0.001500425    1.826    0.452
        46  -9.2587     66.3401    184.6796   8.6100020952e+01   2.9416256976e+01    0.1234859    0.0704714  70.63 0.0006770733    1.716    0.417
        47 -10.2499    197.6101    182.7655   6.0647420982e+01   7.6380648747e+00    0.1673532    0.1253658 -47.84  0.000631852    1.648    0.393
        48  -9.8240    174.7992    183.6009   6.5055455649e+01   1.1854415945e+01    0.1951141    0.1114277  53.48 0.0009499587    1.730    0.422
        49  -9.6467     44.3886    182.1879   8.9935137985e+01   3.2514226490e+01    0.1577491   0.08425492 -87.80   0.00094634    1.722    0.419
        50 -10.8217     24.8876    181.6470   9.3404847236e+01   3.4651504424e+01    0.2118106    0.1815545  71.91  0.001162597    1.290    0.225
        51 -11.1533     78.3574    175.7639   8.2816192953e+01   2.9536610815e+01    0.4215714    0.2100268  73.91  0.001930847    2.803    0.643
        52  -9.7497     59.8796    176.5829   8.6501445484e+01   3.1780747685e+01    0.2281789    0.1149709  73.25  0.001179584    2.266    0.559
        53  -9.7373     13.4634    177.0351   9.5106299187e+01   3.6585285040e+01    0.2457148   0.09631699  73.23  0.001297433    2.631    0.620
        54 -11.9503    148.2645    178.7501   6.9362374793e+01   1.7618080955e+01    0.4929249    0.2578804 -47.51  0.002396705    2.151    0.535
        55  -9.9028    159.7806    175.1911   6.6495771090e+01   1.6082585137e+01    0.2205394    0.1422532  81.48 0.0009501623    2.796    0.642
        56  -9.9902    105.9961    174.9904   7.7212476643e+01   2.5587677579e+01    0.2106759    0.1363244  74.39 0.0008484252    1.747    0.428
        57 -10.3884      2.8734    172.6465   9.6692479050e+01   3.8312524719e+01     0.325013    0.0943112  84.93  0.001253686    4.965    0.799
        58 -10.2794    135.0351    171.6790   7.0842392695e+01   2.1286019873e+01     0.238821     0.178662  86.91  0.001317409    1.604    0.377
        59  -9.8709    177.5920    170.8251   6.2224654229e+01   1.3369251953e+01     0.182674    0.1299456 -54.35 0.0009152212    1.713    0.416
        60 -11.1836    121.9985    168.7996   7.3037156554e+01   2.4118951434e+01    0.5099725    0.3159342 -77.22  0.002505808    2.137    0.532
        61  -9.6116     44.6705    171.3589   8.8909627157e+01   3.4577818602e+01     0.122994   0.06692086  72.43 0.0007042638    1.791    0.442
        62 -10.1367    207.0286    169.9967   5.6491619703e+01   7.6816744414e+00     0.170306    0.1457478  29.94 0.0006088748    1.024    0.024
        63 -10.1007     55.1249    169.2299   8.6666271600e+01   3.3800303612e+01      0.23122      0.12155  81.56  0.001228801    2.117    0.528
        64  -9.8805    168.1833    168.9906   6.3726554004e+01   1.5520144010e+01    0.2141607    0.1579207 -81.52 0.0008357487    2.012    0.503
        65 -10.0190    138.3903    179.2103   7.1381909254e+01   1.9323743644e+01    0.1744436    0.1208978 -68.27 0.0006633772    1.716    0.417
        66 -10.2001     20.9539    166.6024   9.3004719070e+01   3.7911233148e+01    0.3117303   0.08084601  52.71  0.001401569    3.667    0.727
        67 -11.1149    139.7791    165.1672   6.8774883926e+01   2.1625018455e+01    0.3762241    0.2461076  79.27    0.0017451    2.257    0.557
        68 -10.7197     99.2765    165.8138   7.7278731587e+01   2.8429024703e+01    0.3361151    0.1888728  67.96  0.001615782    2.188    0.543
        69 -10.2384    217.7717    165.3945   5.3611034178e+01   6.2308019209e+00     0.197543    0.1124548  36.31 0.0003525708    1.628    0.386
        70 -10.5392     79.9018    163.4509   8.0973989938e+01   3.1762856498e+01    0.4529711    0.2217543  87.36  0.001779095    3.702    0.730
        71  -9.3386     47.4961    164.0003   8.7637333465e+01   3.5725289059e+01    0.1672644   0.07988966  84.16 0.0008102394    2.516    0.603
        72  -9.7604     38.0211    164.0494   8.9514335343e+01   3.6741147731e+01    0.1907275    0.1055683  73.69  0.001136464    1.737    0.424
        73  -9.6404     70.0117    162.9982   8.2960331133e+01   3.3192516507e+01    0.2029415    0.1229525  73.95 0.0009090183    1.742    0.426
        74 -11.3264    153.8542    160.8909   6.5107425791e+01   1.9740291203e+01    0.3230937    0.1838104  49.23  0.001527504    1.640    0.390
        75 -10.5959     93.0878    160.0877   7.7745008346e+01   3.0524438807e+01    0.3336723    0.2136089  85.34  0.001456226    1.847    0.459
        76 -10.3628      8.7049    159.7980   9.4800998567e+01   4.0306603055e+01    0.2999439    0.1059983  78.10  0.001333529    3.612    0.723
        77 -10.7017    143.9850    159.3934   6.6872516674e+01   2.1913155213e+01    0.2666281    0.1998383  84.30  0.001374346    1.688    0.407
        78  -9.4252     31.5113    160.0213   9.0422772617e+01   3.8208650109e+01    0.1664579   0.07377104  82.89 0.0008105009    2.608    0.617
        79  -9.7720     22.8935    158.6007   9.1989404821e+01   3.9313547944e+01    0.2381877    0.1126283  86.30  0.001335753    2.029    0.507
        80 -10.4268    168.6695    157.8330   6.1497762264e+01   1.7351020376e+01    0.2770454    0.1800454  69.43  0.001238953    2.185    0.542
        81  -9.7149    128.3519    158.6681   7.0028942447e+01   2.4946418757e+01     0.142417   0.09946965  77.71 0.0006481741    1.778    0.438
        82 -10.2678    105.6765    157.7617   7.4710124169e+01   2.9017174344e+01    0.3249227    0.1948981  72.31  0.001457379    2.173    0.540
        83 -10.0579    188.7743    157.6034   5.7457821808e+01   1.3290266631e+01    0.1997019    0.1264031  54.54 0.0007865169    1.649    0.393
        84 -10.6180    119.8197    155.3404   7.1273084472e+01   2.7113964395e+01    0.3154688    0.1800238 -72.31  0.001401277    2.383    0.580
        85 -10.5249     49.9738    154.8872   8.6157379257e+01   3.7298412585e+01    0.4063299    0.1917445  74.22   0.00188432    2.843    0.648
        86 -10.3174    145.7345    154.8823   6.5664940726e+01   2.2425519567e+01    0.2774807    0.1736749  68.74  0.001235283    2.175    0.540
        87 -10.4529     82.0928    154.4671   7.9283547729e+01   3.3287137238e+01    0.3545779    0.2009121  69.24   0.00157213    2.132    0.531
        88 -10.9682     68.8969    153.2810   8.1958740429e+01   3.5329282904e+01    0.4714885    0.2512923  68.82  0.002328259    2.281    0.562
        89 -11.2048    133.7530    152.7113   6.7806882659e+01   2.5114568109e+01    0.4352013     0.293354  89.09  0.001937477    2.177    0.541
        90 -10.1449     91.4705    151.4856   7.6803619164e+01   3.2527840305e+01    0.2292611    0.1160323 -72.49  0.001026948    2.353    0.575
        91 -10.7802    190.3108    150.6502   5.5706461650e+01   1.4120436183e+01    0.2959531    0.2394953  87.20  0.001522876    1.735    0.424
        92  -9.5228     98.7994    150.7878   7.5085631548e+01   3.1538989050e+01    0.1865896    0.1403807  75.48 0.0009342113    1.363    0.266
        93 -10.3632     28.6076    149.3615   9.0010212221e+01   4.0650984470e+01    0.3524782    0.1438174  83.40  0.001528299    3.401    0.706
        94  -9.6633     22.4799    150.9762   9.1410871897e+01   4.0885914908e+01    0.1613556   0.07167795  81.96 0.0008095767    2.482    0.597
        95 -10.6628     40.0084    147.6309   8.7447544347e+01   3.9879744985e+01    0.3943179    0.1942423  67.42  0.002060275    2.305    0.566
        96 -11.0379     56.4592    145.4260   8.3635329224e+01   3.8516897965e+01    0.5574825    0.2825958  78.00  0.002577456    2.733    0.634
        97 -10.9494    107.9425    145.3400   7.2137866992e+01   3.1174350539e+01    0.5901037    0.3249918  75.19  0.002236394    3.423    0.708
        98 -11.7510    149.3319    144.6287   6.2878500341e+01   2.3667331755e+01    0.5176749    0.3590846 -83.13   0.00213123    2.191    0.544
        99 -10.0186     78.0069    146.0318   7.8951355488e+01   3.5619564784e+01    0.2128575    0.1370156  76.97  0.001139138    1.755    0.430
       100 -10.5159     13.0267    145.1012   9.2817707747e+01   4.2886618685e+01    0.2989376    0.1186896 -80.81  0.001500835    2.105    0.525
       101 -10.4374     88.4219    143.8532   7.6278203685e+01   3.4578129165e+01     0.315508     0.200324  82.24  0.001480574    1.968    0.492
       102 -10.2985    166.2475    144.1295   5.9186817371e+01   2.0303705557e+01    0.2786951    0.1907905  73.49  0.001243792    2.092    0.522
       103  -9.6935    138.4869    144.5185   6.5209102991e+01   2.5819551716e+01     0.139569    0.1306182  69.28 6.119853e-05    1.027    0.026
       104 -11.1465    125.2600    142.5158   6.7740706889e+01   2.8710360416e+01     0.519774    0.3167067 -80.68  0.002151355    2.706    0.630
       105 -10.8201      2.3479    140.3048   9.4601857971e+01   4.4674277554e+01     0.422316    0.1179207 -86.06  0.001659671    4.203    0.762
       106 -10.1716     69.3038    139.6978   7.9972784775e+01   3.8134379710e+01    0.3197993    0.1700777 -88.02  0.001445412    2.569    0.611
       107  -9.3511     81.3935    139.1960   7.7129277410e+01   3.6590243690e+01    0.1856553    0.1113746 -74.33 0.0009458781    1.728    0.421
       108 -11.0275     22.9489    136.2472   8.9905521574e+01   4.3877498508e+01    0.6109647    0.2409754 -86.45   0.00282502    2.825    0.646
       109  -9.7386    172.6639    138.3531   5.6594422607e+01   2.0000307018e+01    0.1492977    0.1163416 -87.49 0.0007044435    1.794    0.442
       110  -9.9744    197.6270    136.7597   5.1209750713e+01   1.4871336185e+01    0.2068821    0.1341165 -44.53 0.0009563283    1.698    0.411
       111 -10.4962    162.8196    136.2216   5.8194389175e+01   2.2485570077e+01     0.243295    0.1623711 -88.53 0.0009502097    2.815    0.645
       112 -10.9806     38.9769    134.7945   8.6194707673e+01   4.2682298213e+01    0.3595639    0.1444327 -71.72  0.001707616    2.156    0.536
       113 -10.0895    113.4043    133.3456   6.8655386223e+01   3.2729604266e+01    0.3133738     0.189527  72.84  0.001320928    2.525    0.604
       114 -11.2083    132.7962    131.4898   6.3799550172e+01   2.9522148712e+01    0.5505477     0.344895 -77.76  0.002244051    2.626    0.619
       115 -10.7520     83.9547    131.5543   7.5255675264e+01   3.7856748814e+01    0.4423844    0.2816798  82.81  0.001623025    2.037    0.509
       116 -10.3484    143.5721    131.7864   6.1426131930e+01   2.7327009102e+01    0.3509583    0.2474017  77.08  0.001482091    1.952    0.488
       117 -10.8982    169.3550    129.8323   5.5357098786e+01   2.2273810354e+01      0.31872    0.2364221  77.62  0.001475956    1.844    0.458
       118 -10.7530    153.3117    129.1267   5.8666803388e+01   2.5840389625e+01    0.3777805    0.2454726 -64.49  0.001306585    2.055    0.513
       119 -11.1115     99.5303    127.5768   7.0804566616e+01   3.6303427539e+01    0.7108526    0.4182112 -84.40  0.002900402    2.780    0.640
       120 -10.1003     73.3627    129.1755   7.7375043315e+01   3.9857805816e+01    0.3408446    0.1944829  88.76  0.001546794    2.500    0.600
       121 -11.5234     12.6822    126.0348   9.1137110496e+01   4.6846959542e+01    0.7905759    0.1928936 -72.39  0.003373206    3.144    0.682
       122 -10.8327    118.9575    125.7232   6.5789941923e+01   3.3325003649e+01    0.5812373    0.3139244  68.95   0.00203836    3.576    0.720
       123 -11.0107     59.5197    123.6563   7.9819638892e+01   4.2820893341e+01    0.5803939    0.3066198  85.98  0.002509803    2.959    0.662
       124 -10.4529    180.8164    125.2501   5.1880499416e+01   2.0579974873e+01     0.242641    0.1963643  74.63  0.001197787    1.524    0.344
       125 -11.5757     43.4391    121.0304   8.3335475543e+01   4.5183584352e+01    0.8996283    0.3789474 -84.15  0.003471476    3.722    0.731
       126 -11.5279     27.9188    121.1296   8.7074879150e+01   4.6641633948e+01    0.7052903    0.3014559  80.93  0.002758353    4.181    0.761
       127 -10.2589    172.8783    121.8343   5.2715082514e+01   2.2973997516e+01    0.2063058    0.1825724  87.33  0.001071901    1.333    0.250
       128 -10.9294    159.3609    121.7058   5.5602293618e+01   2.5978301175e+01    0.3319459    0.2280627  75.91  0.001416129    2.139    0.532
       129 -11.4397    141.8889    118.3716   5.8749794229e+01   3.0345890988e+01     0.670553    0.3475319 -59.92  0.002493208    2.710    0.631
       130 -10.1743     71.5262    119.7926   7.6208991966e+01   4.2145020447e+01    0.3644688    0.2227137  81.45  0.001701736    2.267    0.559
       131 -10.8000    131.4051    118.4596   6.1223574704e+01   3.2453177879e+01    0.4706025    0.3087986 -81.02  0.001932898    2.507    0.601
       132 -11.4107      2.6801    115.2420   9.2344667933e+01   4.9804681011e+01    0.6543899    0.1986313 -82.46  0.002774221    3.389    0.705
       133 -10.9958    109.6327    114.2179   6.5539493582e+01   3.7436336954e+01    0.5763992    0.3461818 -74.78  0.002182605    2.533    0.605
       134  -9.9091    186.6526    116.3296   4.8501544697e+01   2.0844030297e+01    0.1541314    0.1216903 -79.83 0.0007049539    1.759    0.432
       135  -9.6198    193.3171    115.6721   4.7001363793e+01   1.9424800728e+01    0.1507646    0.1212418 -75.18 0.0004979474    1.678    0.404
       136 -10.9494     79.5590    112.4883   7.2796656852e+01   4.2633523975e+01     0.589679    0.3436062 -88.58  0.002473183    2.868    0.651
       137 -11.0050     92.9140    111.8592   6.9240139081e+01   4.0755698320e+01    0.6444449     0.335989 -66.55  0.002737851    2.304    0.566
       138 -10.1579    122.5409    112.5362   6.1967625478e+01   3.5406324593e+01    0.3210378    0.2184115  89.20  0.001317939    2.339    0.572
       139  -9.9947    175.0098    111.9927   4.9816885928e+01   2.4298549833e+01    0.2456257    0.1924398 -77.19  0.001117975    1.729    0.422
       140 -10.2964    159.7906    111.9821   5.3114926203e+01   2.7745834183e+01    0.2524329     0.176543 -68.98  0.001083517    2.010    0.503
       141 -10.8616     66.5062    110.0359   7.5699909515e+01   4.4936621905e+01    0.4504378     0.245137 -76.07    0.0020949    2.200    0.545
       142 -11.4494     14.2476    109.1689   8.8917078186e+01   5.0294279863e+01    0.5127622     0.220018 -73.77  0.002496022    1.836    0.455
       143 -10.0090    133.8816    109.7324   5.8541832119e+01   3.3738286400e+01    0.2867942    0.1943429 -72.40  0.001119349    2.088    0.521
       144  -9.7926     59.4031    109.1912   7.7395452302e+01   4.5999364757e+01    0.1846915    0.1073721 -72.94 0.0009465668    1.709    0.415
       145 -10.7481    140.7784    104.9234   5.5680302583e+01   3.3271404678e+01    0.4751232    0.3250608  86.65  0.001931743    2.463    0.594
       146 -11.7882     45.3652    101.6044   7.9760594853e+01   4.9223249030e+01    0.7694258    0.4046635  83.60  0.003260964    3.341    0.701
       147  -9.8605     43.4960     92.4668   7.8607661669e+01   5.1408886568e+01    0.1911209    0.1308938 -42.66 0.0007441482    1.496    0.332
       148 -12.2274     22.2735     99.7454   8.5624100988e+01   5.1711117812e+01     1.004958    0.4137196 -82.34  0.004440631    2.952    0.661
       149 -10.4097    166.9783    104.0142   4.9469837193e+01   2.7620593240e+01    0.2455175    0.1929186 -78.86  0.001020062    1.705    0.414
       150 -11.3350    150.6101    102.8420   5.2834181872e+01   3.1548449128e+01    0.5257419    0.2756398 -54.13  0.001993427    2.359    0.576
       151 -11.2286    129.1095    101.8728   5.7716771536e+01   3.6310655007e+01    0.4484528    0.3094693 -58.82  0.002100285    1.606    0.377
       152 -11.6322      6.7325    100.6747   8.9775969851e+01   5.2611224152e+01    0.5411918    0.1476812 -67.94  0.002528294    2.516    0.603
       153 -11.4207    110.4249     99.5355   6.1848769203e+01   4.0402187328e+01    0.7787143    0.4663506  72.55  0.002927849    3.191    0.687
       154  -9.9759    160.6157    101.2703   5.0143610204e+01   2.9596981925e+01    0.2474741    0.1883505 -74.76  0.001116492    1.782    0.439
       155 -10.2678     82.3653     99.8055   6.9365199682e+01   4.4991128972e+01     0.372081    0.2321387 -79.51  0.001696184    2.261    0.558
       156 -10.4240     95.2444     96.7814   6.5176649557e+01   4.3628126122e+01     0.350462    0.2389169 -66.40  0.001338103    1.621    0.383
       157 -11.4395     63.6912     94.7204   7.3385750789e+01   4.8647064307e+01    0.7183253    0.3571781 -71.69  0.003081512    2.568    0.611
       158 -10.0053    177.5077     93.9978   4.4510606795e+01   2.6963681622e+01    0.2275951    0.1254518 -55.92 0.0008105087    2.581    0.612
       159  -9.7750    165.4975     94.5171   4.7223806524e+01   2.9724763770e+01    0.1516351     0.150599  -9.06  4.99209e-05    1.036    0.035
       160 -10.5935    139.3696     92.0935   5.2580841936e+01   3.6113423014e+01    0.3729681     0.277207 -69.67  0.001640057    1.756    0.431
       161 -11.4155    125.4757     91.0318   5.5734731193e+01   3.9247166193e+01    0.5261917    0.3743113  80.61  0.002314271    2.146    0.534
       162 -10.1082     57.9765     92.0135   7.4419377356e+01   4.9930792181e+01    0.1867991    0.1605779 -68.43  0.001204624    1.065    0.061
       163 -10.8674      9.8771     74.6014   8.5203809126e+01   5.7946215434e+01    0.2602729    0.1449637 -50.06  0.001003875    1.525    0.344
       164 -12.0742      5.6201     70.3688   8.5787922703e+01   5.9084741482e+01    0.4160035    0.2748356  86.72  0.002751012    1.659    0.397
       165 -12.3765      5.2407     88.3594   8.8601008907e+01   5.5312435271e+01    0.8132041    0.2952284 -54.07  0.004320992    2.186    0.542
       166 -11.1812      8.6926     80.1807   8.6449799723e+01   5.6838302685e+01    0.2869525    0.1865393  86.84  0.001539551    1.619    0.382
       167  -9.7156    158.3175     91.6565   4.8023593941e+01   3.1932391111e+01    0.1580939    0.1225651 -74.85 0.0004626361    1.717    0.418
       168 -11.1267     34.8492     87.3605   8.0111104671e+01   5.3339273530e+01    0.7633753    0.2150948 -62.35  0.003133927    2.770    0.639
       169 -10.0846    151.4109     89.1940   4.8908140403e+01   3.3986129800e+01    0.2237273    0.1398111 -49.16 0.0007698535    1.717    0.417
       170 -10.9316     87.0254     86.6780   6.4904090104e+01   4.7102525679e+01    0.4947707    0.3403553 -87.14  0.002223104    2.272    0.560
       171 -11.3813     48.6123     82.9664   7.5195244676e+01   5.2943027064e+01    0.7425092    0.3702107 -69.88  0.003504626    2.195    0.544
       172 -11.2200    105.3076     83.0552   5.8833795394e+01   4.4761083412e+01    0.5793564    0.3792765 -72.19  0.002494246    2.344    0.573
       173  -9.8820    171.3220     83.6441   4.2885872292e+01   3.0290924132e+01    0.1620776    0.1224987 -70.03 0.0007045846    1.762    0.432
       174 -10.2715    158.8286     82.9939   4.5424945748e+01   3.3407799991e+01    0.2627314    0.1765839 -61.97  0.001086098    2.012    0.503
       175 -10.4721    141.2282     83.1392   4.9573420287e+01   3.7432925539e+01    0.2850618    0.2084011  84.37  0.001235887    2.044    0.511
       176 -12.2667     25.4317     76.2975   8.0800634785e+01   5.6507958009e+01     1.051474     0.277701 -54.21   0.00456318    2.632    0.620
       177 -10.5339    119.5965     80.3005   5.4202938864e+01   4.2577527487e+01    0.3654204    0.2177488 -63.34  0.001436504    2.512    0.602
       178 -10.2322     74.7992     79.9104   6.6679742863e+01   5.0359591471e+01    0.3813407     0.179714 -61.02  0.001586643    2.411    0.585
       179 -10.1642    150.6913     80.1404   4.6442272867e+01   3.5838300415e+01    0.2547661    0.1945321 -56.89  0.001191876    1.503    0.335
       180 -10.6033     61.9824     74.2922   6.9085285362e+01   5.3253728403e+01    0.6275225    0.1528291 -45.99  0.002092733    3.712    0.731
       181  -9.8223    157.6826     76.3410   4.3706236501e+01   3.4875746116e+01    0.1589653       0.1224 -70.79 0.0007048933    1.711    0.416
       182 -10.1191    140.9776     75.3299   4.7297695423e+01   3.8951780838e+01    0.2857344    0.2158938 -62.19  0.001328875    1.630    0.386
       183 -10.8641    128.3737     75.3135   5.0431471440e+01   4.1725906382e+01    0.4066203    0.2894352 -65.03  0.001834594    1.872    0.466
       184 -11.0413     82.5768     71.5526   6.2065039552e+01   5.0947088677e+01    0.7042154    0.2765255 -53.40   0.00270281    2.627    0.619
       185 -10.2429     42.6866     71.5985   7.4437361565e+01   5.5983447693e+01    0.3516816    0.1270325 -60.51  0.001511352    2.437    0.590
       186  -9.7622    116.0182     72.0514   5.2672915873e+01   4.4903883558e+01    0.2345693    0.1829951 -74.56  0.001093888    1.736    0.424
       187 -10.0510    106.0116     71.5044   5.5251077815e+01   4.6947767876e+01    0.2815644    0.1956889 -56.13 0.0009162691    1.595    0.373
       188 -10.4603     95.1600     70.3731   5.8000025206e+01   4.9125078052e+01    0.5251951    0.2273115 -54.52  0.001936701    2.827    0.646
       189 -11.3127     16.4092     69.1622   8.2219001907e+01   5.8675561062e+01    0.3724038    0.1842586 -71.80   0.00205143    1.812    0.448
       190 -11.1731     17.4277     63.3588   8.0733024753e+01   5.9823244425e+01    0.3846841    0.1171122 -54.85  0.001760061    2.236    0.553
       191 -10.3093    147.0136     68.0192   4.3587065934e+01   3.8876076388e+01    0.2449625    0.1900925 -69.12 0.0007753437    1.686    0.407
       192 -10.0102    121.9718     66.0208   4.9184338766e+01   4.4820868336e+01    0.3391942    0.1957055 -58.47  0.001315586    2.532    0.605
       193 -10.1878    138.8544     66.0350   4.4905974925e+01   4.1115532934e+01    0.2558066    0.1694807 -59.20 0.0009109775    2.010    0.502
       194 -10.7839     37.5138     62.5458   7.3913292916e+01   5.8379480797e+01    0.5259215     0.194084 -57.40  0.002410513    2.183    0.542
       195 -11.2346     10.0593     64.2531   8.3302453984e+01   6.0107003045e+01    0.3048454    0.1233602 -61.62  0.001652834    1.755    0.430
       196  -9.7310    110.4726     63.6224   5.1520891678e+01   4.7602258021e+01    0.2902368    0.1998129 -66.95    0.0012857    2.170    0.539
       197 -12.6427      7.5261     54.2599   8.2150198272e+01   6.2318063936e+01    0.8360151    0.2027239 -56.98  0.003850775    2.500    0.600
       198 -10.0018    100.7848     60.2948   5.3180833626e+01   5.0070442891e+01    0.3498504    0.1799846 -53.57  0.001403658    2.420    0.587
       199 -10.6782     73.3096     57.5247   6.0684524469e+01   5.5142585166e+01     0.650362    0.2098641 -48.21  0.002432933    2.803    0.643
       200 -11.1535     51.2422     67.5559   7.0712643095e+01   5.5934503864e+01    0.6904319    0.2305306 -60.39  0.002566966    3.281    0.695
       201 -10.5780     25.1626     57.3913   7.6807016882e+01   6.0498634309e+01     0.387099    0.1451815 -56.01  0.001918177    1.954    0.488
       202  -9.7017    140.3223     56.6322   4.1474967325e+01   4.2392737844e+01    0.1573863    0.1184313 -66.70 0.0007036848    1.796    0.443
       203  -9.8914    119.8569     56.2934   4.6527571411e+01   4.7014335248e+01    0.2254494    0.1943207  76.93  0.001183445    1.469    0.319
       204 -11.5484     44.9656     50.5005   6.8043664691e+01   6.0085324381e+01    0.6513376    0.1673722 -47.29  0.002513165    2.975    0.664
       205 -10.2745     45.1275     43.0207   6.5631748288e+01   6.1521293704e+01    0.4529167    0.1374865 -46.28  0.001881003    2.581    0.613
       206 -10.6583     63.0368     51.9689   6.2278129854e+01   5.7649073373e+01    0.6669931    0.1665975 -47.51   0.00231753    3.388    0.705
       207 -10.5829     53.9091     51.4631   6.5225888235e+01   5.8892203112e+01    0.6775686    0.1726004 -54.13  0.002160804    4.391    0.772
       208 -11.1018     20.0616     50.6275   7.6926607713e+01   6.2259178359e+01    0.4506178    0.1747678 -55.78  0.002323927    1.867    0.464
       209 -11.4694     30.9610     49.7228   7.2792567440e+01   6.1583020353e+01    0.5678728    0.1916094 -61.92  0.002269288    3.243    0.692
       210 -10.3305     92.3799     49.7042   5.2069468241e+01   5.3531036836e+01     0.443715     0.207346 -49.67  0.001784497    2.482    0.597
       211  -9.9210     81.9434     45.8360   5.3950862848e+01   5.5999350928e+01     0.363338     0.153582 -42.20  0.001532545    2.146    0.534
       212  -9.1445     26.3432    249.6758   9.7052677093e+01   2.3038234471e+01    0.1021625   0.04384961  65.56 0.0007050704    1.734    0.423
       213 -10.1905     57.9580     41.1395   6.0370446702e+01   6.0353949578e+01    0.4528771    0.1654342 -51.81  0.001775658    3.008    0.668
       214 -10.2724     69.1808     40.0623   5.6071675204e+01   5.9004388036e+01    0.4692815    0.1937791 -46.38  0.002011232    2.320    0.569
       215  -9.1619    113.8579     41.2346   4.2795640350e+01   5.0787323414e+01    0.1928355    0.1540249   4.33  0.000271877    1.298    0.229
       216 -10.2213     36.8979     39.4533   6.7512165830e+01   6.3046583907e+01    0.3852428    0.1350453 -50.49  0.001755185    2.263    0.558
       217 -11.3128     16.9473     42.4245   7.5932511345e+01   6.4117456224e+01     0.560999    0.1421584 -53.79  0.002494358    2.570    0.611
       218  -9.4207     95.3530     37.6693   4.6740517670e+01   5.5037821562e+01    0.1347718    0.1103498 -68.92 0.0007046464    1.778    0.438
       219 -11.4232     27.6216     29.7116   6.7845720173e+01   6.5721118028e+01    0.5721911    0.1166223 -43.94  0.002141454    3.595    0.722
       220  -9.9767     21.2834     34.0087   7.1803393724e+01   6.5435644667e+01    0.1715357    0.1180456 -48.98 0.0007410442    1.132    0.117
       221  -9.9495    237.9608    229.9310   6.1667612960e+01  -5.1303186781e+00    0.2055487     0.154017 -12.78  0.001173705    1.464    0.317
       222  -9.6926     72.3079     30.2082   5.1204128133e+01   6.0203037513e+01    0.3284964    0.0970277 -45.12  0.001098301    3.913    0.744
       223 -11.1727    162.4149    225.2476   7.3560504752e+01   7.9246030462e+00     0.356501    0.2412178  34.40  0.002266921    1.408    0.290
       224 -11.2152     12.5242     21.0195   7.1139280097e+01   6.8474407547e+01    0.2108324    0.1978784  77.47  0.001162722    1.595    0.373
       225  -9.2780     42.0000     28.9889   6.1863958571e+01   6.4439495484e+01    0.2060719   0.05724126 -46.65  0.000806322    2.969    0.663
       226 -11.3241     88.8275    227.1553   8.6174296658e+01   1.8998519726e+01    0.2202847     0.125129  48.13  0.001249506    1.441    0.306
       227  -9.4795     81.4986     27.0039   4.6831068680e+01   5.9194911044e+01    0.1894694    0.1046463 -51.36 0.0008105284    2.680    0.627
       228 -10.6257     98.7325    225.3803   8.4377182535e+01   1.7887243428e+01    0.2954814    0.1732782  40.24  0.001177682    1.692    0.409
       229  -9.2920     40.8271     21.1520   5.9235921737e+01   6.5912688932e+01    0.1688243    0.1115208 -23.62 0.0003874134    1.333    0.250
       230 -10.1001     49.9715     30.1452   5.9239810991e+01   6.3317128604e+01    0.4489648    0.1212059 -38.89  0.001654468    3.348    0.701
       231 -10.0883     19.4934     19.5362   6.7568832418e+01   6.8225541291e+01    0.2483344   0.08702621 -49.83  0.001221483    2.203    0.546
       232  -9.4918    193.3063    225.6310   6.8363862922e+01   2.6778446878e+00    0.1111356   0.08653463  69.92 0.0007034909    1.755    0.430
       233 -10.2811     60.1925    223.0935   9.0481140726e+01   2.3383570052e+01    0.2172466   0.09122385  61.25  0.001244921    2.111    0.526
       234  -9.0102    157.3287    221.3067   7.3921367932e+01   9.3208545192e+00    0.1144834   0.08406001  23.51 0.0007037848    1.656    0.396
