#   1 NUMBER                 Running object number                                     
#   2 MAG_AUTO               Kron-like elliptical aperture magnitude                    [mag]
#   3 X_IMAGE                Object position along x                                    [pixel]
#   4 Y_IMAGE                Object position along y                                    [pixel]
#   5 X_WORLD                Barycenter position along world x axis                     [deg]
#   6 Y_WORLD                Barycenter position along world y axis                     [deg]
#   7 A_WORLD                Profile RMS along major axis (world units)                 [deg]
#   8 B_WORLD                Profile RMS along minor axis (world units)                 [deg]
#   9 THETA_WORLD            Position angle (CCW/world-x)                               [deg]
#  10 FWHM_WORLD             FWHM assuming a gaussian core                              [deg]
#  11 ELONGATION             A_IMAGE/B_IMAGE                                           
#  12 ELLIPTICITY            1 - B_IMAGE/A_IMAGE                                       
         1 -14.2239     10.9434     69.1673   6.8952158296e+01   6.2021905672e+01     2.438075     1.260598  -0.37   0.01227639    2.195    0.544
         2 -11.7100     85.0951      3.3944   1.5776235470e+01   6.0456870205e+01    0.5466799    0.3303352   5.53   0.00221605    2.167    0.539
         3 -14.4311     45.1056     72.5346   5.5131721548e+01   5.7937940925e+01     1.896806     1.129371  44.90  0.009157922    2.093    0.522
         4 -12.4418     25.7642     40.6788   5.3115407221e+01   6.6110337537e+01     1.363909    0.4133087 -40.40  0.005654828    3.055    0.673
         5 -11.8071     77.6607      9.7804   2.0141593997e+01   6.1481697728e+01    0.6650512    0.2890117  64.29  0.002942882    2.662    0.624
         6 -11.0867     76.9112      5.0308   1.8503621616e+01   6.2032969216e+01    0.2377164    0.1669617  57.09 0.0003667791    1.255    0.203
         7 -13.1476     39.1461     56.1893   5.2433218128e+01   6.1833627492e+01     1.663886    0.8923547 -45.91   0.00842461    1.848    0.459
         8 -13.3036     62.0888     44.6658   3.8830633922e+01   6.0314739026e+01    0.7953335    0.5938301 -77.72  0.001654351    2.841    0.648
         9 -13.6024     62.7737     32.5627   3.3953463863e+01   6.1892980039e+01     1.393764     1.092011 -58.65  0.008128163    1.984    0.496
        10 -13.8516     74.4791     20.7782   2.5352133134e+01   6.1063869304e+01     2.145332      1.54796 -64.48   0.01174597    2.358    0.576
        11 -14.1413      9.7056     44.2938   6.2414003507e+01   6.6984409041e+01      1.71443      1.46427  87.53   0.01134099    1.955    0.489
        12 -13.4499     14.2194     35.0132   5.6831692502e+01   6.8213935143e+01    0.7769294    0.5428343 -52.63  0.002413482    1.757    0.431
        13 -12.0975     50.4416     34.7140   3.9624128683e+01   6.3687490620e+01    0.8564797    0.5932816  28.10   0.00511614    1.266    0.210
        14 -10.9289     35.0729     20.5292   4.0415202857e+01   6.7888780353e+01     2.155607    0.7352853  39.07  0.009765789    2.688    0.628
        15 -11.9735    248.3170     44.3450   3.3582173415e+00   1.9983118124e+01     1.090533    0.1732457 -45.71  0.004027276    4.026    0.752
        16 -13.9056    214.6448     50.2729   7.7400919791e+00   2.5844188338e+01     3.824983      1.66904 -78.47   0.01296202    4.668    0.786
        17 -13.4471    196.0942     48.2297   9.4732576986e+00   3.0143313045e+01      1.08888    0.7152574 -57.20  0.001525226    1.415    0.293
        18 -12.4528    189.9961     30.8579   6.3170760503e+00   3.3772799839e+01    0.7594764    0.3897019  47.64 0.0003137036    2.585    0.613
        19 -12.6130    226.7006     22.6095   1.1052805102e+00   2.6944562879e+01    0.4527977    0.2768849  78.79  0.002183138    1.464    0.317
        20 -11.1508    216.6064     24.5526   2.3274923907e+00   2.8777521774e+01    0.5057719     0.217307 -39.21  0.002608606    2.266    0.559
        21 -11.0782    212.5089     19.5374   1.6886441410e+00   3.0223563990e+01    0.3033735    0.2257288 -54.83  0.001684346    1.270    0.213
        22 -10.3166    102.7561     26.8112   1.9770811935e+01   5.4447102063e+01    0.4904469    0.2720472 -39.46  0.002024927    2.103    0.524
        23 -10.6069    112.5640     23.9049   1.6580050807e+01   5.2549589716e+01    0.4083756     0.287327  10.20   0.00224234    1.918    0.479
        24 -10.9917    234.7343     24.3224   7.9420096046e-01   2.5143853069e+01     0.939997    0.4054975  49.11  0.003983139    4.639    0.784
        25 -11.0465    125.4290     15.3586   1.1426050615e+01   5.0438361655e+01    0.4427032    0.1775243 -33.64  0.001490016    2.775    0.640
        26  -8.2186    124.9845      9.3425   9.7099301441e+00   5.1087527373e+01    0.2705108    0.2201882  37.86  0.001758782    1.352    0.260
        27 -12.5068    221.1937     38.8079   4.7343355002e+00   2.6037565994e+01     1.356528     0.609834 -85.64 0.0006042978    3.022    0.669
        28 -11.5314    202.0449     20.7484   2.8804554746e+00   3.2314749764e+01    0.3655909    0.2133458 -54.92   0.00105555    1.554    0.357
        29 -10.5436    204.2753     17.0189   1.9034159951e+00   3.2257236777e+01    0.4328479    0.1801258 -88.64  0.001896493    2.843    0.648
        30 -12.4298    221.5845      8.9325   3.5891819979e+02   2.9537027853e+01    0.5733551    0.1950905 -51.24   0.00286029    2.451    0.592
        31 -10.9349    230.4291      1.3313   3.5693124462e+02   2.8583766171e+01    0.4229718    0.1174214  81.58  0.001777476    3.692    0.729
        32 -13.7498    244.6734      8.4559   3.5729140215e+02   2.5079947165e+01     1.102696     0.411651 -83.53  0.005205241    3.086    0.676
        33 -11.7766    236.3285     10.1044   3.5811071977e+02   2.6486668142e+01    0.5232711    0.1644063  60.26  0.002160011    3.562    0.719
        34 -12.3517    228.3976     10.0042   3.5863180882e+02   2.8052453611e+01    0.4220544    0.2089268 -57.61 0.0007069343    1.668    0.401
        35  -9.8986    187.1064     13.7811   2.8356867930e+00   3.6364519177e+01    0.2514744     0.129504 -50.79    0.0013717    1.860    0.462
        36 -11.2726    149.0719     12.8845   7.0594903108e+00   4.5163711106e+01    0.4049096    0.2112854  83.34  0.001997743    1.935    0.483
        37 -10.9450    108.7515      9.3068   1.2646441432e+01   5.4798762103e+01    0.4479184    0.2144257 -20.55  0.002222724    2.671    0.626
        38 -11.4572    114.9646     12.9438   1.2603401475e+01   5.3070112445e+01    0.3660326    0.1684125  58.50 0.0003025448    1.718    0.418
        39 -11.6687    116.2131      8.9348   1.1114120354e+01   5.3136838486e+01    0.3301146    0.2789908  83.90  0.002013841    1.186    0.157
        40 -11.8420    112.4484      4.4337   1.0384029461e+01   5.4362958161e+01    0.4392113    0.2625635  79.81  0.001225631    1.715    0.417
        41 -12.8869    173.0826      6.0531   2.5146649583e+00   4.0291136292e+01    0.4213798    0.2907056 -22.39  0.002457198    1.984    0.496
        42  -9.4213    133.3586     12.1610   9.1713625280e+00   4.8894249248e+01    0.1638375    0.1087484 -45.24 0.0009443885    1.710    0.415
        43 -10.1865     88.2547     12.0669   1.8184594861e+01   5.9066994530e+01    0.1906871    0.1397605  37.99 0.0006601893    1.221    0.181
        44 -11.0114     26.1498     10.1368   3.9941359247e+01   7.0376237918e+01    0.2448781    0.1516253   2.01 0.0009395335    1.580    0.367
        45  -9.8330    102.1468      9.8094   1.4166851351e+01   5.6235085699e+01    0.1834857    0.1212259  43.47  0.001073914    1.367    0.268
        46 -11.3685    193.9392      7.8514   9.1864382697e-01   3.5475643257e+01    0.2360709    0.1886318  70.19  0.001021067    1.305    0.234
        47 -10.8864     46.2396      2.3037   2.7311132840e+01   6.8067960727e+01    0.2935704    0.1777466  25.41  0.001523323    1.460    0.315
        48 -10.7924     47.5336      8.5175   2.9650135579e+01   6.7275302157e+01    0.2662952    0.1883358  10.68 0.0009700647    1.331    0.249
        49 -10.4713     44.3446      7.3591   3.0397002426e+01   6.7923706208e+01    0.2820908    0.1643106  20.47 0.0007574918    1.675    0.403
        50 -10.0175    215.7108      8.0156   3.5917751368e+02   3.0836694317e+01    0.1526066    0.1130628 -69.51 0.0002727296    1.101    0.091
        51  -9.4426    156.4086      8.2382   4.9140373573e+00   4.3900233837e+01    0.1271904   0.07459991  53.18 0.0006912154    1.690    0.408
        52  -9.4079    131.5179      8.4960   8.4118442323e+00   4.9650229750e+01    0.1263226    0.1023889  69.63 5.807311e-05    1.010    0.010
        53 -10.9998      3.4143      5.9910   5.0561000753e+01   7.3485035841e+01    0.3051026    0.1642366   4.90  0.001880064    1.740    0.425
        54  -9.7615    210.6273      6.1082   3.5919315065e+02   3.2092885272e+01    0.1280829    0.1075725 -35.19  0.000504542    1.589    0.371
        55  -9.3883    101.0112      4.9238   1.2754064716e+01   5.6887653443e+01    0.4278693    0.1299899  46.94  0.001496585    2.793    0.642
        56 -11.3170    183.5705      3.7459   9.7390019175e-01   3.8162824826e+01    0.2087674    0.1704684  79.65 0.0009978268    1.162    0.139
        57 -11.4936    217.6635      2.2614   3.5794401838e+02   3.1039881856e+01    0.2554015    0.1681331  84.49  0.001108707    1.251    0.201
        58  -9.6949    213.4440      2.4578   3.5827930540e+02   3.1885330890e+01    0.2005511    0.1289601 -88.87 0.0007794831    1.229    0.186
        59  -9.4817      8.3611      1.2566   4.5193011440e+01   7.3565284571e+01    0.1129661   0.06435714   4.28  0.000696822    1.623    0.384
        60 -12.5999      4.0333     56.9232   6.8973461882e+01   6.4971038436e+01    0.7358581    0.4311519 -25.01  0.004286571    1.538    0.350
        61 -12.6366    134.3491    111.8176   3.7070308469e+01   3.3144319004e+01    0.5785381    0.4727276  85.96 0.0009536233    1.465    0.317
        62 -10.1142    211.2795    112.1196   2.1391255655e+01   1.6425933886e+01    0.2609111      0.16959  52.79 0.0005802668    1.693    0.409
        63  -9.5773    191.4017    112.5491   2.4867770534e+01   2.0427699223e+01    0.1430398    0.1322484 -53.44 4.095757e-05    1.050    0.048
        64 -10.1515    173.7872    112.2123   2.8160213122e+01   2.4295962748e+01    0.3708744    0.1698538  40.90  0.001353799    2.636    0.621
        65 -12.5934     51.0735     45.1305   4.3377847047e+01   6.2037744670e+01     1.094745    0.4124914  29.10  0.003298815    3.036    0.671
        66 -12.2656     49.3423     94.5128   5.9589263233e+01   5.2667450326e+01    0.3849042    0.2879952 -84.81  0.001909429    1.896    0.473
        67  -9.4528      3.0085     96.0082   7.7830811853e+01   5.6528225850e+01     0.152014    0.1253879 -51.09 0.0003175774    1.002    0.002
        68 -13.7070    173.6735     87.6487   2.2231556186e+01   2.8978324612e+01     2.287442     1.406732  14.94  0.006791973    5.603    0.822
        69  -9.9619    233.2076    109.1017   1.7511655425e+01   1.2772135082e+01    0.1812411    0.1597535 -41.69 0.0003634787    1.168    0.144
        70 -13.6797    220.5357     69.7738   1.1104253410e+01   2.1741250384e+01     1.019098    0.9126899 -84.94  0.006738835    1.147    0.128
        71 -12.3337    207.7866     78.9140   1.4704729774e+01   2.2938579361e+01    0.3477503    0.3374493   8.85 0.0003789203    1.371    0.270
        72 -12.1191    235.1802     38.1464   3.3303430728e+00   2.3314481140e+01     0.747677    0.3613157 -87.90  0.003743595    2.334    0.572
        73 -12.8892    184.8588     60.5255   1.3822638986e+01   3.0893017866e+01    0.9484499    0.5064744  48.41 0.0007459456    2.166    0.538
        74 -11.2203    196.6425    108.0238   2.2917014089e+01   2.0180575415e+01    0.5098746    0.3180679 -73.94  0.002182888    2.281    0.562
        75 -11.1269    191.2348    101.9171   2.2464980327e+01   2.2469914502e+01     0.489022    0.1721958 -51.08  0.001637443    3.130    0.681
        76 -11.9028    188.1659     43.3159   9.3610292893e+00   3.2590790959e+01    0.5612577    0.3480765  40.16 0.0003468025    2.413    0.586
        77 -11.9908    176.4195     70.6676   1.7585871964e+01   3.1242761532e+01    0.8528044    0.4702347 -69.75  0.003016147    2.605    0.616
        78 -12.1912    164.9702     65.3751   1.8231956234e+01   3.4751150080e+01     1.244961    0.5027463  55.12  0.004958304    2.316    0.568
        79 -13.5979    242.4359     60.7544   6.9296296235e+00   1.8789160285e+01     1.006694    0.7698011  83.69  0.002740456    1.292    0.226
        80 -12.8684    208.7845     66.4756   1.1871147775e+01   2.4702587313e+01    0.6390065    0.3841853 -42.58 0.0002079773    1.592    0.372
        81 -12.4450    208.9465     58.2080   1.0073264680e+01   2.5912348329e+01    0.7300991    0.3805082  89.40  0.001202727    2.515    0.602
        82 -11.8188    186.6252     37.2959   8.1741618212e+00   3.3727614673e+01    0.5098627    0.3916092 -64.65  0.001925723    1.201    0.167
        83 -11.5243    148.5008    103.9984   3.1600170260e+01   3.1612005932e+01    0.2620037    0.2172606  85.62 0.0009303329    1.356    0.262
        84 -12.3783    238.2463     51.3248   5.5447551103e+00   2.0934032332e+01    0.4189143    0.2401914 -61.18  0.001446216    1.500    0.333
        85 -12.6187    231.9140     46.7146   5.2605450491e+00   2.2810455436e+01    0.7051709    0.3474222  53.89   0.00352851    2.557    0.609
        86 -11.7275     54.5408     93.8718   5.7460377240e+01   5.2118524230e+01    0.3008392    0.2389428 -67.96  0.001590402    1.472    0.321
        87 -10.3862    250.2925     93.8886   1.2383321291e+01   1.2255718694e+01    0.1889667    0.1366062 -58.76 0.0005391942    1.158    0.136
        88 -11.9774    214.8831     92.6797   1.6674032559e+01   1.9155649954e+01    0.3757541    0.2957773  35.92 0.0003944267    1.733    0.423
        89 -11.8869    212.4905     89.4792   1.6329869750e+01   2.0191502041e+01    0.2749519    0.1944917 -70.25 0.0009580423    1.445    0.308
        90 -10.8999    225.5670     98.3397   1.6366465120e+01   1.6067490939e+01     0.399608   0.09531783 -45.97  0.001316195    3.599    0.722
        91 -10.2776    226.6893     92.1132   1.4934321777e+01   1.6905287539e+01    0.2169407    0.1671575  83.61 0.0007690677    1.375    0.273
        92 -13.7517     55.3255     72.2797   5.0942522059e+01   5.6575305238e+01     1.749069    0.8735377 -43.29  0.006158432    1.941    0.485
        93  -9.5654     86.1296     89.8068   4.5097950101e+01   4.7840906880e+01    0.2047923    0.1695655   3.28 0.0005675989    1.325    0.246
        94 -10.6361    247.5972     87.6159   1.1495454005e+01   1.3737515536e+01    0.2884786    0.2359117  25.54  0.001782546    2.004    0.501
        95 -11.0710    248.1689     83.1552   1.0583294829e+01   1.4339948361e+01    0.3097484    0.2217219 -77.54  0.001341263    1.390    0.281
        96 -10.1564    245.4680     80.4992   1.0372597878e+01   1.5244763381e+01    0.1881644    0.1557897 -65.17 8.525381e-05    1.052    0.050
        97 -12.3363    222.1701     87.5509   1.4589196015e+01   1.8555942689e+01    0.5089616    0.3452715  72.11  0.002822259    1.591    0.372
        98 -11.5908    218.9967     82.9630   1.4050210401e+01   1.9951399094e+01    0.2587195     0.211322 -36.82 0.0003732852    1.360    0.265
        99 -11.1389    221.2898     79.6711   1.3064616882e+01   2.0023518526e+01     0.236755    0.1666989 -48.74 0.0006190697    1.263    0.208
       100 -10.9906    105.5282     86.7055   3.8110174559e+01   4.4604947069e+01    0.4617178    0.2933308 -62.32  0.001939811    2.147    0.534
       101 -11.6435     51.9214     86.9634   5.6588507031e+01   5.4006441248e+01    0.3080078    0.2161354 -24.64 0.0003016432    1.493    0.330
       102 -11.6848     48.0046     85.2817   5.7647042450e+01   5.4891559806e+01    0.2686345    0.2456049   1.90 0.0006204551    1.081    0.075
       103 -10.8899    110.2509     87.2027   3.6880474520e+01   4.3503808749e+01    0.3324507    0.2767349 -39.20  0.001437881    1.247    0.198
       104 -12.5093    114.5985     81.6924   3.4054233159e+01   4.3619559214e+01    0.7754825    0.5105462 -31.13    0.0028755    1.733    0.423
       105 -11.0694    112.9728     75.4370   3.2652772953e+01   4.5127541621e+01    0.3158004    0.2391768 -19.22 0.0009127316    1.598    0.374
       106 -11.8295    161.2962     84.3936   2.3793645688e+01   3.2410671244e+01    0.6939818    0.4517128  43.55  0.002932934    1.683    0.406
       107 -11.6724    148.0000     83.9806   2.6465090918e+01   3.5578346251e+01    0.4150347    0.3658798 -57.16  0.001434566    1.149    0.130
       108 -11.8305    147.2169     79.3947   2.5406098746e+01   3.6582004102e+01    0.4577831    0.3384362 -30.08 0.0008500668    1.564    0.361
       109 -12.3446    235.6335     85.7107   1.2515456636e+01   1.6244131763e+01    0.6867465    0.3296531  78.49  0.002471672    3.362    0.703
       110 -10.0100     30.2901     86.4598   6.5030912400e+01   5.6653118710e+01    0.1708857    0.1226905  33.19 0.0009356204    1.549    0.354
       111 -13.8731    194.6395     67.8232   1.4091492259e+01   2.7570624085e+01     1.523474     0.958563  52.56  0.007566678    1.729    0.422
       112 -12.2930    168.9518     80.6848   2.1381363886e+01   3.1289673210e+01    0.5222454    0.3711911 -68.89  0.001167466    1.561    0.359
       113 -11.1231    168.9883     76.4517   2.0314027239e+01   3.2005353117e+01    0.4473102    0.2780348  79.39  0.001317239    1.970    0.492
       114 -10.8294    237.9913     81.0325   1.1314836230e+01   1.6547332487e+01    0.1855464    0.1506721 -63.06            0    1.004    0.004
       115 -12.7772     98.1619     76.1018   3.7150348721e+01   4.8172951227e+01     1.093524    0.5651649 -51.17  0.003075621    2.311    0.567
       116 -12.8691    104.3787     66.1737   3.2228147925e+01   4.8617650474e+01    0.7588863    0.4660162  42.24            0    1.538    0.350
       117 -11.3774    123.9033     69.0528   2.7897587084e+01   4.3778919224e+01     0.456438    0.3108772 -77.01  0.001076143    2.224    0.550
       118 -13.4750    117.5047     61.4239   2.7218210333e+01   4.6484303276e+01    0.8004402     0.736698  31.64  0.001625482    1.109    0.098
       119 -11.7161    230.5953     77.3781   1.1452413988e+01   1.8543221609e+01    0.3742857    0.1757203 -56.15  0.001755025    2.048    0.512
       120 -12.4669    233.5215     72.0608   1.0055037112e+01   1.8803156399e+01    0.4643881    0.2941967 -30.36  0.000819925    2.008    0.502
       121 -12.2787     72.9440     74.6593   4.5065699632e+01   5.3272378500e+01    0.6472518    0.4730289  49.15  0.002413825    1.529    0.346
       122 -10.2092     66.2061     70.3569   4.6161609225e+01   5.5242177952e+01    0.3065465    0.2007917  47.96  0.001500438    1.748    0.428
       123 -10.8294     86.5497     74.7018   4.0401786830e+01   5.0758322101e+01     0.551173    0.2358961 -46.70  0.002124135    2.536    0.606
       124 -11.4523     82.0621     73.4698   4.1513753824e+01   5.1845184263e+01    0.5253187    0.2802102  26.65  0.002125204    2.314    0.568
       125 -10.1743    155.5363     76.6418   2.2936779207e+01   3.5112786838e+01    0.2828651    0.1687366  59.50 0.0008768495    1.627    0.386
       126 -11.0741     82.3464     78.8086   4.3080280411e+01   5.0770321594e+01    0.3429518    0.2400465  17.91 0.0009182077    1.645    0.392
       127 -10.1407    103.9677     75.5470   3.5243024226e+01   4.7058084547e+01    0.2165612     0.200198 -34.18 0.0005810815    1.137    0.120
       128 -14.2921    195.5694     84.7613   1.7815899762e+01   2.4587307653e+01     1.651187     1.353122  18.30  0.008868968    1.828    0.453
       129 -10.5529    145.9952     58.4073   1.9936670142e+01   4.0306151462e+01    0.3562448    0.2471926  -0.26  0.001278451    2.483    0.597
       130 -11.5362    144.2037     68.1227   2.2979972726e+01   3.9204380861e+01    0.4982961    0.3584721  70.33  0.001968859    1.417    0.294
       131 -10.7268    140.5608     71.8653   2.4801838878e+01   3.9439597605e+01    0.4462859    0.2903287  80.64  0.001946018    2.048    0.512
       132 -11.4725    135.0960     71.9409   2.6055029946e+01   4.0703871132e+01    0.6270931    0.4027494  75.49  0.002740852    2.001    0.500
       133 -11.1794    154.7809     64.8150   1.9959948805e+01   3.7238755850e+01    0.6312739    0.2731203 -40.04  0.002363702    2.382    0.580
       134 -10.3118    152.2733     59.3320   1.8972776652e+01   3.8679643738e+01    0.2483359    0.2363388  28.14 0.0009554171    1.240    0.193
       135 -10.3324    106.0949     72.1786   3.3597300476e+01   4.7208677909e+01    0.2697338    0.1879489 -67.17  0.001216102    2.056    0.514
       136 -11.2428    148.6833     65.0294   2.1211643955e+01   3.8645428313e+01    0.6488687    0.3651979 -54.46  0.002855287    2.039    0.510
       137 -11.5775     91.7235     66.1756   3.6025638974e+01   5.1269576998e+01    0.3741871    0.2839881  14.68  0.001821975    1.504    0.335
       138 -11.4695     86.2059     63.6770   3.6979222847e+01   5.2802573764e+01    0.3543817    0.2834363 -35.67  0.001117389    1.320    0.242
       139 -10.7291     90.4015     51.4410   3.1560174877e+01   5.3920521218e+01    0.2201805    0.1992078  32.82 0.0003776769    1.018    0.018
       140 -12.2754     90.2719     58.4493   3.3953884508e+01   5.2855664219e+01     1.037689    0.5914932  64.98  0.004154412    2.809    0.644
       141 -14.0394     77.2611     58.8785   3.8377703320e+01   5.5333207385e+01    0.7706998    0.4075441  42.28  0.003550044    1.772    0.436
       142 -12.1125     75.9740     52.0263   3.6456783713e+01   5.6682654490e+01     0.294157    0.2574139  45.45 0.0003342687    1.209    0.173
       143 -12.7906     81.1310     48.2061   3.3379198064e+01   5.6271058393e+01    0.8828148    0.4152458  47.13  0.002942366    1.963    0.491
       144 -11.8652     75.6117     42.0926   3.3025791256e+01   5.8224849677e+01     0.320546    0.2763085  48.75  0.001034968    1.234    0.190
       145 -12.6210     81.2214     40.4954   3.0603056084e+01   5.7346546202e+01    0.5328256    0.3347082  39.97  0.001597496    1.411    0.291
       146 -10.6206    136.3788     62.1894   2.2997735427e+01   4.1994650899e+01    0.6303732    0.3714201 -37.78  0.002266827    1.833    0.454
       147 -11.6160    138.8023     59.3704   2.1676720999e+01   4.1860100904e+01    0.4317423    0.2886576 -86.46  0.001634249    2.038    0.509
       148 -11.2046    127.5298     58.6596   2.3960596677e+01   4.4610046631e+01    0.4381227    0.2415189  39.84  0.001288837    2.009    0.502
       149 -11.0729    163.0178     56.8253   1.6380569376e+01   3.6515608883e+01    0.3785003    0.3258635  72.31  0.001940765    1.068    0.063
       150 -11.7860    100.5067     54.6113   2.9634003129e+01   5.1309268361e+01    0.6013118    0.4436451  38.94  0.002418695    1.266    0.210
       151 -10.2256    149.4897     48.5393   1.6572789633e+01   4.0902935200e+01    0.2561733    0.1826678 -14.17  0.001293994    2.001    0.500
       152 -10.4398    142.7473     54.3463   1.9455037450e+01   4.1677236695e+01    0.2817634    0.1981913 -34.16 0.0006264367    1.596    0.373
       153 -11.1689    146.0693     52.1394   1.8195100802e+01   4.1208454682e+01    0.2854195    0.2187854  36.84 0.0003553821    1.520    0.342
       154 -11.0362    116.7946     55.0653   2.5445797333e+01   4.7625228081e+01    0.2521876    0.2318467  44.07 0.0003834757    1.049    0.046
       155 -10.0307    155.2343     54.7321   1.7198316873e+01   3.8661719086e+01    0.2853412    0.1390001  43.57  0.001160117    2.480    0.597
       156 -10.5943    181.3270     52.0681   1.2332487769e+01   3.2940984093e+01    0.2468389     0.222139 -19.86  0.001404555    1.459    0.315
       157 -10.6753    132.7518     52.4335   2.0972023835e+01   4.4313010326e+01    0.2056917    0.1174733  48.71 0.0009501147    1.646    0.392
       158 -10.2608    167.2949     51.7655   1.4383907191e+01   3.6243500068e+01    0.2521226    0.1542903  43.23  0.000778692    1.991    0.498
       159 -10.1288    161.2102     49.3700   1.4762015729e+01   3.8012591384e+01    0.3021872    0.2145447   8.01  0.001429954    2.512    0.602
       160 -11.0753    133.1969     45.9502   1.8989856126e+01   4.5112512344e+01     0.468951    0.3619733 -74.14  0.002065014    1.489    0.328
       161 -10.4158    135.9597     43.4634   1.7712955456e+01   4.4792934709e+01    0.3391564    0.2198032  83.87  0.001294854    1.835    0.455
       162 -11.1422    133.6359     40.2724   1.7247737520e+01   4.5754461936e+01    0.3808599    0.2285127  71.88  0.001214212    1.697    0.411
       163 -11.5192    143.2232     45.8395   1.6987067258e+01   4.2757759130e+01    0.6597044     0.325674  33.83  0.002363601    3.732    0.732
       164 -11.6025    173.5590     44.0511   1.1516179981e+01   3.5844207018e+01    0.8432886    0.3908859  63.41  0.003332219    1.940    0.485
       165 -12.2076    178.5799     38.1940   9.4111450258e+00   3.5449746761e+01      0.52745    0.3565592  45.24  0.001649848    1.833    0.454
       166 -10.8218    155.6257     42.3610   1.3854559002e+01   4.0279874639e+01    0.4390489    0.3928616   7.13  0.001796487    1.477    0.323
       167 -11.3918    149.8295     42.0915   1.4763277453e+01   4.1688017170e+01    0.3869714    0.3248094   9.85  0.001299853    1.622    0.384
       168 -10.6103    146.2534     39.6058   1.4709087297e+01   4.2855514478e+01    0.3699265    0.2040171  53.09 0.0007128743    1.671    0.401
       169 -11.9623    160.9080     40.4132   1.2499231763e+01   3.9285457876e+01    0.6221851    0.3411679  47.34  0.002467143    2.014    0.504
       170 -11.3925    158.1756     36.3738   1.1878822270e+01   4.0440835456e+01    0.3840474    0.1428507  63.20  0.001141607    2.328    0.570
       171 -12.3124    161.4772     34.9229   1.1004285968e+01   3.9842708507e+01    0.5184651    0.3732145  -3.24  0.002729089    2.256    0.557
       172 -11.3554    173.7043     56.4782   1.4543480026e+01   3.4064391315e+01    0.4130477    0.2590137  62.86 0.0009925283    1.486    0.327
       173 -10.0652    120.8663     44.4560   2.1206114845e+01   4.8192012569e+01    0.3127825    0.2008281 -73.48  0.001404633    2.405    0.584
       174  -8.9637    105.5119     44.0518   2.4812795342e+01   5.1729532141e+01    0.3278476    0.2555328 -65.49   0.00179053    1.655    0.396
       175 -10.6457     93.9562     42.5246   2.7459387853e+01   5.4446965231e+01    0.3737147    0.2393497  17.88  0.001782638    2.090    0.521
       176 -10.7467    245.0642     50.5118   4.7670390408e+00   1.9748803289e+01    0.3628913    0.1407786 -39.52 0.0003136857    2.408    0.585
       177 -11.8002     91.7393     33.9966   2.5125988112e+01   5.6013732081e+01    0.4443832    0.2993482  32.04  0.002087898    1.483    0.326
       178 -10.6551    131.8122     33.8481   1.5726191552e+01   4.6975040710e+01     0.260383    0.1859032 -58.93  0.000481537    1.613    0.380
       179  -9.8057    152.2734     33.9301   1.2163923751e+01   4.2133322678e+01    0.1707601    0.1517554 -86.69 0.0003924755    1.082    0.076
       180 -10.6212    172.9299     32.9153   8.8947109381e+00   3.7414640657e+01    0.2845975    0.1636281  78.53 0.0006867282    1.637    0.389
       181 -10.0582    121.9534     32.9349   1.7427158449e+01   4.9386037978e+01    0.1921546    0.1673986  58.77 0.0005431006    1.020    0.020
       182 -10.6469    112.2547     32.7777   1.9500254791e+01   5.1634020809e+01    0.2873968     0.174354  49.06 0.0007537819    1.439    0.305
       183 -10.3388    237.7675     30.8376   1.7548217319e+00   2.3748089748e+01    0.2705113    0.1574972  82.39  0.001234037    1.584    0.369
       184 -10.2694    241.6477     29.7655   1.2547539319e+00   2.3135535474e+01    0.2313906    0.1368164 -58.95 0.0008243678    1.346    0.257
       185 -10.7716    227.8541     30.3294   2.4776102497e+00   2.5769248457e+01    0.3769295    0.2323387  49.55  0.002149253    2.377    0.579
       186 -10.3346    152.1666     29.6567   1.1044599372e+01   4.2663435457e+01    0.1855905    0.1588662 -72.64 0.0003912941    1.170    0.145
       187 -10.1593    154.1301     25.6525   9.6934208097e+00   4.2655603022e+01    0.2830243    0.2280059 -37.04  0.001604138    1.440    0.306
       188 -10.2396    219.0877     28.7729   2.9412073489e+00   2.7749779105e+01    0.2396759    0.1979481   8.73  0.001488464    2.256    0.557
       189  -9.4708    223.6763     26.3301   2.0650618475e+00   2.7107923895e+01    0.1733807   0.09698588  84.29 0.0006745553    1.624    0.384
       190 -11.2009    144.4298    103.4175   3.2405536040e+01   3.2651455367e+01    0.4480575    0.3499279 -29.50  0.001537164    1.452    0.311
       191 -10.3720    212.9256     28.5600   3.4624327908e+00   2.9062407906e+01    0.2083266    0.1849213  58.11  0.001129271    1.499    0.333
       192 -12.0629    161.3439    105.7119   2.9168363388e+01   2.8363042066e+01    0.4313506    0.2600112 -66.80  0.001389827    2.318    0.569
       193 -11.6886    209.7209     22.1327   2.4560592560e+00   3.0510266275e+01    0.2977011    0.2157884 -80.75  0.001278186    1.111    0.100
       194 -10.2589     25.4938    107.5145   7.1511756252e+01   5.2184644406e+01    0.1367969    0.1192649 -47.24 0.0004233615    1.007    0.007
       195 -11.2731    159.0232     26.3317   9.1634917858e+00   4.1431151466e+01    0.3551163    0.2360204 -26.99  0.001978653    1.882    0.469
       196 -10.5318    210.3595    104.7212   1.9939597839e+01   1.7955833413e+01    0.4091414    0.3022484 -81.10  0.002166292    1.549    0.354
       197 -10.0983    102.4734     19.5386   1.7382058737e+01   5.5267097372e+01     0.183422    0.1609324  19.50 0.0009074931    1.249    0.199
       198 -10.9160     86.5931     28.9622   2.4792900782e+01   5.7694360938e+01    0.4087197    0.1578591  50.58  0.001071282    2.164    0.538
       199 -11.0303    134.9564     26.5769   1.3035574157e+01   4.7067292528e+01     0.267862    0.2540264 -68.94  0.001233002    1.179    0.152
       200  -9.6534    114.3470     28.2909   1.7597452071e+01   5.1669096818e+01    0.1797601    0.1054401  45.77 0.0009108059    1.566    0.361
       201 -10.7941     16.9168    105.4712   7.4289079464e+01   5.3380992209e+01    0.3038777    0.2174517 -19.31  0.001155294    1.502    0.334
       202 -10.3375    182.8217    102.8553   2.4193459919e+01   2.4125971898e+01    0.3741333    0.1980903 -32.33 0.0008895179    2.305    0.566
       203 -11.4467    246.6667     23.2957   3.5973286882e+02   2.2981974169e+01    0.3275582    0.1955557 -78.33  0.002138197    1.404    0.288
       204 -11.5734    242.3427     22.5948   3.5991609944e+02   2.3883335325e+01     0.505457    0.2307103  71.84   0.00290203    2.074    0.518
       205 -10.3132    147.4917     25.5362   1.0666901145e+01   4.4230411304e+01     0.322247    0.1668321  44.23  0.001512174    2.232    0.552
       206 -10.5841     21.2396     25.4100   4.9343874817e+01   6.8991543619e+01    0.4187194    0.2243224  28.76  0.002427808    1.746    0.427
       207  -9.7807     19.7308     19.5354   4.7592006211e+01   6.9991046014e+01    0.2196894    0.1447956 -37.47 0.0008816407    1.637    0.389
       208 -11.8636    176.3681     23.4553   6.2051956173e+00   3.7733076789e+01    0.3100322    0.2625232  42.46  0.002002202    1.529    0.346
       209  -9.6347    119.6879     22.3014   1.4608401431e+01   5.1081798095e+01    0.1796434    0.1424244  70.63 0.0007486278    1.142    0.124
       210 -11.4991    123.7043     23.2068   1.4105848649e+01   5.0058104033e+01    0.3231846    0.2535202 -11.60  0.001357887    1.621    0.383
       211 -11.6546    110.4705    103.6097   4.1419295192e+01   4.0062734637e+01    0.4066658    0.2495217  24.10  0.001593965    2.209    0.547
       212 -11.2441    141.0040     96.0513   3.1286712666e+01   3.4905717694e+01    0.4762188    0.3802995  68.88  0.002117695    1.331    0.249
       213 -13.3241    103.0859     96.3845   4.1612645550e+01   4.3133409233e+01     1.123233    0.5420641  32.39  0.001685915    2.505    0.601
       214  -9.3426    132.2866     23.3273   1.2566823148e+01   4.8043340763e+01    0.1288548   0.08959834  38.62 0.0002182662    1.610    0.379
       215 -10.8016     97.5667     21.6446   1.9269565584e+01   5.6138693927e+01    0.2248942    0.2029025 -14.33  0.001051119    1.284    0.221
       216 -12.4721     95.7421     90.6365   4.2236413514e+01   4.5813464718e+01    0.5722136    0.4769402  49.36  0.001719291    1.228    0.186
       217 -13.7604    121.8460     99.6934   3.7153793872e+01   3.8460691897e+01     1.016722    0.6781334 -51.84  0.004555936    1.586    0.369
       218 -10.8516    163.0580     20.9998   7.2689450350e+00   4.1077349751e+01    0.1884485    0.1541135  82.67 0.0003426805    1.008    0.008
       219  -9.6818    151.2123     20.0337   8.6420811075e+00   4.3946584403e+01    0.1609687    0.1425419  79.46            0    1.086    0.079
       220 -11.6606    136.3846     19.1728   1.0678761508e+01   4.7511823441e+01    0.2408269    0.1789653  60.99 0.0002409446    1.155    0.134
       221  -9.9599    130.8494     19.4811   1.1697942215e+01   4.8775298301e+01    0.1985305    0.1081375  64.44 0.0007939465    1.529    0.346
       222  -9.9549    194.4919     18.0595   3.0371180502e+00   3.4266029986e+01    0.2021888    0.1348234 -88.23 0.0003614374    1.271    0.213
       223  -9.1366    143.6850     18.2434   9.2717911121e+00   4.5894900848e+01    0.1251594   0.08604045 -84.08 0.0003391115    1.512    0.339
       224 -10.2487    116.9479     17.3810   1.3614135127e+01   5.2202385957e+01    0.3144361     0.188185 -77.57  0.001482797    2.526    0.604
       225 -13.0617     49.4448     54.6111   4.7484378368e+01   6.0712427096e+01     1.353944    0.6347358  39.76  0.006212484    2.194    0.544
       226  -9.8004    172.4874     16.0974   4.9254221817e+00   3.9422257082e+01    0.1630407    0.1160119 -44.46 0.0004724189    1.505    0.336
       227  -9.7953    120.6916     16.4208   1.2604119403e+01   5.1433042212e+01    0.2563727    0.1104093  78.91 0.0009403955    3.468    0.712
       228 -13.8571    130.7853     95.3996   3.3631313980e+01   3.7351844741e+01     1.380278     1.025499  -1.02  0.006081764    2.014    0.503
       229 -12.2988    127.0448     81.1459   3.0612217382e+01   4.0934024463e+01    0.6847369    0.4102745 -19.29  0.002266139    2.740    0.635
       230 -11.8086    132.3083     82.9833   2.9823899024e+01   3.9392969772e+01    0.4480985     0.258391 -41.35 0.0003966303    1.809    0.447
       231 -12.2833    136.7607     80.7759   2.8142510883e+01   3.8769645102e+01    0.6886677    0.5200604  79.64  0.001616617    1.556    0.357
       232 -11.6371    127.0541     89.4994   3.2962543339e+01   3.9354094755e+01    0.3953003    0.2680709  40.96 0.0006822611    1.491    0.329
       233 -12.8392    123.6994     86.4920   3.2989577603e+01   4.0687657373e+01     0.835531    0.5502315  29.30  0.002587072    1.879    0.468
       234  -9.6718     94.3111     15.6255   1.7960413748e+01   5.7438557568e+01    0.1791453   0.09485442  50.60 0.0004866094    1.525    0.344
       235  -9.5279    166.6216     13.8005   5.0592781979e+00   4.1004878691e+01    0.1536226    0.1061476 -51.39  0.000610998    1.490    0.329
       236  -9.9508    160.2253     13.6613   5.8011316632e+00   4.2495517196e+01    0.2029834    0.1264857  63.06 0.0005794301    1.393    0.282
       237 -11.3763    215.6080    100.0433   1.8139614735e+01   1.7731253453e+01    0.3923923    0.2425746 -53.96  0.001703847    1.490    0.329
       238 -10.7833    170.1166     97.9023   2.5430027359e+01   2.7897909934e+01    0.4350056    0.3516358 -33.78  0.002245596    1.352    0.260
       239 -12.4669    152.0299     97.8219   2.9207373408e+01   3.2036892141e+01    0.6515942    0.4456604 -66.74  0.002897628    1.784    0.439
       240 -10.4474    158.2489     95.3757   2.7227494947e+01   3.1083820842e+01    0.3566434    0.1842395  51.35 0.0005075773    1.914    0.477
       241 -12.9522     85.3554     98.5723   4.7838932431e+01   4.6103307558e+01     0.690981    0.4392028  27.07  0.003057695    1.722    0.419
       242 -10.1171    244.3958     98.4165   1.3948796685e+01   1.2557875648e+01    0.3368953    0.1462141 -35.41  0.001472182    2.502    0.600
       243 -11.4802    199.6409     96.6654   1.9862182494e+01   2.1626214398e+01     0.394219     0.286676 -45.00   0.00124052    1.296    0.228
       244 -11.9816     56.7416     99.1956   5.8030010918e+01   5.0601052364e+01    0.4065053      0.18479  32.09  0.001494276    2.239    0.553
       245 -10.6030     46.2164     99.0228   6.1900687178e+01   5.2023910542e+01    0.2242095    0.1960492  14.46 0.0002790595    1.181    0.153
       246 -11.5313     11.4038     98.2790   7.5035643421e+01   5.5485824819e+01    0.3049465    0.2085983 -45.65 0.0008495826    1.247    0.198
       247  -9.4712    237.0132     96.0426   1.4397017856e+01   1.4291322143e+01    0.1559193     0.122384 -53.65 0.0005032879    1.064    0.061
       248 -10.7211     36.5707    248.7326   8.5361707745e+01   1.6389094725e+01    0.2254582    0.1062915 -68.74  0.001146873    2.152    0.535
       249 -14.2380     66.0988     83.5331   5.0257480925e+01   5.2637583009e+01     1.376011     1.091104 -25.13   0.00740035    1.262    0.207
       250 -13.0612     36.0434     83.4973   6.1942087070e+01   5.6709800398e+01    0.6033002    0.5816464  28.35  0.001675477    1.218    0.179
       251 -10.7903    180.7910    243.9051   5.3115690906e+01  -3.4914496064e+00    0.2154662    0.1949856 -68.64  0.001359045    1.596    0.373
       252 -10.0436    110.4841    241.4661   6.8283259696e+01   7.6679782527e+00    0.1376516    0.1189086  43.50 0.0002798696    1.033    0.032
       253  -9.8015    218.5223    239.5112   4.4872643563e+01  -7.9116066360e+00    0.1237797    0.1005626  -3.99 0.0001802549    1.031    0.030
       254 -10.0256     15.8418    238.4098   8.8946226947e+01   2.0925672709e+01    0.1453259    0.1138206  22.97 0.0004657467    1.619    0.382
       255  -9.9551    236.7083    146.0099   2.4360721912e+01   5.6035488223e+00    0.1844807    0.1465683 -40.18 0.0003895559    1.066    0.062
       256 -10.0936    249.9996    131.9866   1.9700264731e+01   5.9191077639e+00    0.1833305    0.1499401 -45.36  0.001176142    1.006    0.006
       257 -11.1053    181.2838    118.8841   2.8234362211e+01   2.1338502696e+01    0.2499026    0.2025291  68.97 0.0004940467    1.339    0.253
       258 -10.1615     73.0091    119.0092   5.7214727509e+01   4.3452838042e+01    0.2140028    0.2110838 -57.06  0.001188124    1.047    0.045
       259 -11.1115    163.4852    114.9780   3.0983441984e+01   2.6008965515e+01    0.2374642    0.1466001 -45.73 0.0008588084    1.584    0.369
