#   1 NUMBER                 Running object number                                     
#   2 MAG_AUTO               Kron-like elliptical aperture magnitude                    [mag]
#   3 X_IMAGE                Object position along x                                    [pixel]
#   4 Y_IMAGE                Object position along y                                    [pixel]
#   5 X_WORLD                Barycenter position along world x axis                     [deg]
#   6 Y_WORLD                Barycenter position along world y axis                     [deg]
#   7 A_WORLD                Profile RMS along major axis (world units)                 [deg]
#   8 B_WORLD                Profile RMS along minor axis (world units)                 [deg]
#   9 THETA_WORLD            Position angle (CCW/world-x)                               [deg]
#  10 FWHM_WORLD             FWHM assuming a gaussian core                              [deg]
#  11 ELONGATION             A_IMAGE/B_IMAGE                                           
#  12 ELLIPTICITY            1 - B_IMAGE/A_IMAGE                                       
         1  -8.9848     46.1438     20.7733   7.2218498551e+01   6.6370232580e+01    0.4540481    0.1693665 -33.80  0.002051486    2.627    0.619
         2 -11.6461     80.6398     23.2025   6.0487144003e+01   6.0046591099e+01    0.5080788    0.2402154  38.52 0.0001037162    1.967    0.492
         3  -9.0325     27.1697     21.9553   8.1561684154e+01   6.8701561858e+01    0.5145914    0.2296981 -25.36   0.00245275    2.447    0.591
         4  -9.1146     64.0771     14.2416   6.2195886786e+01   6.4196986827e+01    0.4132985    0.1996104  24.66  0.001563635    2.497    0.599
         5  -8.5367    133.9772     13.4009   4.4203650161e+01   4.9200441276e+01    0.2103952    0.1844938  13.94 0.0003719009    1.290    0.225
         6  -9.9180     77.5489     13.0577   5.7215186692e+01   6.1766581411e+01    0.6489853     0.194827  49.90  0.002605872    2.759    0.638
         7  -9.3707     31.5399     11.3070   7.4426315532e+01   6.9649827896e+01    0.4082621    0.2222767   4.44 0.0002112518    2.213    0.548
         8  -8.8597     31.9879      6.1407   7.1621051179e+01   7.0223891171e+01    0.2082957    0.1419891  -1.64            0    1.269    0.212
         9  -8.5857     97.2373     12.1551   5.1402069383e+01   5.7749728921e+01    0.2691331    0.1836452  30.15  0.001071356    1.420    0.296
        10  -7.7641    156.0000     11.4582   4.0191985329e+01   4.4103833395e+01    0.2520374   0.07498498 -25.07 0.0009222873    3.835    0.739
        11  -8.5194     14.8989     10.7875   8.2816925471e+01   7.1645442310e+01    0.3093846    0.1528361  22.66 0.0008046002    1.949    0.487
        12  -9.5622     20.6082      8.5343   7.8608187904e+01   7.1346529719e+01    0.2264233     0.170157  10.11 0.0002852651    1.166    0.143
        13  -8.7343    125.3956     10.0435   4.4629889321e+01   5.1538154499e+01    0.2467708    0.1461551  49.54 0.0004031415    1.482    0.325
        14  -7.5971    142.7913      9.4781   4.1533349910e+01   4.7457719373e+01    0.1815121    0.1019854  55.33 0.0004499007    1.545    0.353
        15  -8.2412     71.7239      8.6423   5.7124096457e+01   6.3340133819e+01      0.23341    0.1862398  32.81 0.0007880301    1.054    0.051
        16  -8.9575     77.0109      7.0000   5.4782447582e+01   6.2453719132e+01    0.4008992    0.1507809  46.94  0.001825956    2.152    0.535
        17  -8.6497     76.2912      4.2877   5.3820488540e+01   6.2837205839e+01    0.2930059    0.1717882  34.87  0.001088517    1.498    0.332
        18  -8.7909     41.1757      5.7005   6.7179751025e+01   6.8946470008e+01    0.3719697    0.2058935   3.93  0.001487805    2.109    0.526
        19  -8.4373     46.4710      5.9624   6.5057040142e+01   6.8090210061e+01    0.2553614    0.1776943  27.03 0.0005721184    1.203    0.169
        20  -8.5833      4.1214      6.7021   8.7039813760e+01   7.3213648335e+01     0.316246    0.1417692 -15.74  0.001588144    2.653    0.623
        21  -7.5346    156.0097      7.2481   3.8984413230e+01   4.4491256343e+01    0.1711865   0.09607971  69.34 0.0003242735    1.539    0.350
        22  -8.4860    119.3260      6.5830   4.4578781881e+01   5.3255345388e+01    0.2539328    0.1652492  27.31 0.0007315707    1.724    0.420
        23  -9.6683     84.9165      5.3500   5.1852752161e+01   6.0984516648e+01    0.2432677    0.2153371  -2.89  0.001641857    1.216    0.178
        24 -10.1200     13.3811      4.4861   8.0519893350e+01   7.2664294459e+01    0.3089546    0.1946863  20.70  0.002079849    1.472    0.321
        25  -7.8995    131.6721      5.3069   4.1987243313e+01   5.0466783394e+01    0.1286233   0.09213718 -72.84 0.0003285387    1.655    0.396
        26  -8.5193     92.7263      4.7689   4.9614926297e+01   5.9378290120e+01    0.3790728    0.1434073  35.90  0.001532303    2.920    0.658
        27  -8.7716    125.4912      3.5964   4.2462460490e+01   5.2062246504e+01    0.2159096    0.1894187  54.02 0.0005258443    1.049    0.047
        28  -8.5791    110.4485      2.8475   4.4975922761e+01   5.5599997735e+01    0.2823581    0.2472061 -40.28  0.001854162    1.351    0.260
        29  -8.4101    105.2902      1.8194   4.5646875861e+01   5.6846308817e+01    0.3314402    0.1050423  48.24  0.001368955    2.516    0.603
        30  -9.0758     57.6056      3.3368   5.9470280421e+01   6.6462832066e+01    0.2425122    0.1670412  32.53 0.0004921742    1.197    0.165
        31  -7.1034    153.6920      3.2918   3.8157154220e+01   4.5392147507e+01    0.1278346   0.08756408 -71.85 0.0003504143    1.581    0.367
        32  -7.2183    143.2849      2.3032   3.9279386454e+01   4.7956855652e+01    0.1275924    0.0844242  42.42 0.0002617718    1.558    0.358
        33  -8.5191    159.6791      1.3820   3.6868880473e+01   4.4127026607e+01    0.2160892     0.103548  69.41 0.0001665528    1.759    0.431
        34  -7.8430      2.7494      1.3512   8.5193753291e+01   7.4085751255e+01    0.1448122   0.08226151   7.08 0.0003998013    1.610    0.379
        35  -7.8120     77.1426    105.8508   8.9389341956e+01   4.5516000819e+01    0.3871191    0.2134116 -19.10  0.001272633    3.700    0.730
        36  -9.8698    192.5985    249.2842   8.8578538426e+01  -4.3212264017e+00    0.4729498    0.1520395  28.08   0.00173843    3.652    0.726
        37  -8.9427     14.9824    105.1148   1.1017894949e+02   5.2667498176e+01    0.4236432    0.1601882 -33.75  0.001601045    3.627    0.724
        38  -8.1683     66.3274    104.6814   9.2662558722e+01   4.7409158782e+01    0.2851717    0.1754334   0.44  0.001162699    2.562    0.610
        39  -8.0771     93.3472    103.7952   8.3698531037e+01   4.3259695524e+01    0.2911051    0.1979414   5.05  0.001218527    2.144    0.534
        40  -7.5546    131.2123     96.6272   7.0816427812e+01   3.7179560522e+01     0.226781    0.1425514  36.48  0.000952163    1.707    0.414
        41  -9.9460     11.5810     94.3418   1.0953956618e+02   5.5440108937e+01    0.4754404     0.275881 -22.37  0.001776928    2.031    0.508
        42  -9.0207     21.7917     90.8154   1.0520256490e+02   5.5550050264e+01    0.4505756    0.1354339 -35.54  0.001336267    5.378    0.814
        43  -7.2723     83.4784     93.5592   8.4045517608e+01   4.7285657029e+01    0.1473673    0.1374327 -21.86 0.0002110983    1.017    0.017
        44  -8.7602     43.7916     91.9268   9.7419868768e+01   5.3238500754e+01    0.3704914    0.2130237 -19.46  0.001551216    2.371    0.578
        45  -7.5331     55.6663     92.6564   9.3336225824e+01   5.1653388137e+01    0.1516541   0.09800842 -26.21  0.000705036    1.760    0.432
        46  -8.2227    110.3474     90.4845   7.4814459154e+01   4.2888890086e+01     0.315876    0.2104255  12.26  0.001282791    2.219    0.549
        47  -8.4704     97.0389     90.0025   7.8685518094e+01   4.5616384055e+01    0.4554313    0.2738807  18.46  0.001788016    2.420    0.587
        48 -10.2687     37.4332     81.2744   9.7155647603e+01   5.6335013246e+01     0.747188    0.3718823 -21.61  0.002998131    3.015    0.668
        49  -8.6136     20.7960     84.6594   1.0429209337e+02   5.7044801104e+01    0.2457146    0.1505838 -41.03 0.0007895317    1.439    0.305
        50  -8.1286    126.2762     83.5639   6.8327136447e+01   4.0873945086e+01    0.4210631     0.211545  34.89  0.001549946    2.418    0.586
        51  -8.6408     66.1583     83.9041   8.7220448298e+01   5.2162858116e+01    0.2373051    0.2105309 -27.11 0.0003396051    1.030    0.029
        52  -8.6552     88.0654     78.9605   7.8223469250e+01   4.9580310178e+01     0.381868    0.2623319  17.30  0.001776392    1.741    0.425
        53  -9.3393     48.5725     77.6842   9.1930640190e+01   5.5881834629e+01    0.4989683    0.2710992 -16.68  0.002018516    2.849    0.649
        54  -9.6174      7.8272     77.6151   1.0780042399e+02   5.9498492335e+01    0.4540683    0.2419897 -40.66  0.002476748    1.625    0.385
        55  -7.6470    184.4574     78.0286   5.4026662619e+01   2.8329614792e+01    0.2153722    0.1384161 -39.46 0.0004141495    1.512    0.339
        56  -8.1888     68.9450     76.6766   8.4079609994e+01   5.3279633834e+01    0.1986906    0.1798648   7.02 0.0006021184    1.096    0.087
        57  -8.1681     23.4798     69.4541   9.9650205822e+01   6.0213727720e+01    0.2194732    0.1780551 -43.33 0.0005578034    1.041    0.039
        58  -8.9262     23.8487     73.7230   1.0058211851e+02   5.9255437895e+01    0.4387285    0.1697288 -46.80  0.001921581    2.069    0.517
        59  -8.2340     26.6678     70.6628   9.8661656364e+01   5.9683548808e+01    0.2404291    0.1487501 -41.03 0.0009299384    1.367    0.268
        60  -8.8490     29.5142     68.5249   9.6924042260e+01   5.9886780557e+01     0.263458    0.1620542 -23.12 0.0008128484    1.705    0.414
        61  -7.9675     74.8259     74.1844   8.1218242761e+01   5.2849948595e+01    0.1946411    0.1557522  -1.86 0.0003929123    1.321    0.243
        62  -7.5721     80.3732     70.7407   7.8190379561e+01   5.2591303117e+01     0.191406    0.1266286 -32.69  0.000256869    1.500    0.333
        63  -8.2358     47.5072     70.5170   9.0260896754e+01   5.7537643864e+01    0.2319129    0.1267629  12.52   0.00082645    2.346    0.574
        64  -7.9245    129.4908     69.0086   6.3061975242e+01   4.2819817446e+01    0.2064097    0.1324339  -7.48 0.0008096138    2.463    0.594
        65  -7.7846    106.0064     67.0142   6.8803121697e+01   4.8338939286e+01    0.2727717    0.1920103  43.41  0.001330684    1.390    0.281
        66  -8.9161     83.5343     64.5537   7.5064347226e+01   5.3202857735e+01    0.4270083    0.2739494   9.75  0.001878368    2.155    0.536
        67  -8.3633     16.4773     63.9906   1.0115900117e+02   6.1920243407e+01    0.2472116    0.1241191 -45.78 0.0008983715    1.580    0.367
        68  -8.7968     19.8216     61.0830   9.8951507762e+01   6.2280004623e+01    0.2274085    0.1816174   3.16 0.0005934762    1.321    0.243
        69  -7.5134    148.3336     63.3161   5.6951088319e+01   3.9352554075e+01     0.151858    0.1127121  22.82 0.0007047237    1.690    0.408
        70  -9.8459     62.5809     61.2291   8.1443930464e+01   5.7331992471e+01    0.5416576    0.2764821  22.80 0.0006105665    2.387    0.581
        71  -8.2668     25.8444     60.6515   9.6239508030e+01   6.1866941884e+01    0.3797891    0.1241701 -38.15  0.001229179    3.052    0.672
        72  -8.7525     11.7029     60.5145   1.0230938913e+02   6.2979791166e+01      0.25216    0.1518584 -44.26 0.0008557637    1.312    0.238
        73  -9.5515     36.3714     58.7600   9.1173831318e+01   6.1217217776e+01    0.5036715     0.265656  11.50  0.002389297    2.321    0.569
        74  -7.8992    111.5834     57.8996   6.4191047835e+01   4.8705748943e+01    0.2873804    0.1752562  28.40  0.001215896    1.970    0.492
        75  -9.3233     99.6224     54.8673   6.6595920958e+01   5.1748132742e+01       0.3717    0.2550418 -32.48 0.0009020816    1.488    0.328
        76 -10.0474     75.0738     50.3622   7.2989445033e+01   5.7220308940e+01    0.4716865    0.3049996  -1.12 0.0003416936    2.025    0.506
        77 -10.8343     82.9552     40.2495   6.6493964439e+01   5.7345495780e+01    0.3770779    0.2516822 -12.39  0.001923865    1.688    0.408
        78  -8.3922     87.7638     38.3724   6.4233349392e+01   5.6670531875e+01     0.275088    0.1848868  35.79 0.0007612364    1.388    0.279
        79  -8.9321     45.4837     48.4435   8.3796404712e+01   6.2100018822e+01    0.3762671    0.2302315 -19.69  0.001325803    1.744    0.427
        80  -8.0826    118.3192     51.0709   6.0107797881e+01   4.8280641699e+01    0.2486452     0.190915  48.66 0.0006547156    1.231    0.188
        81  -7.1944    172.2024     50.0023   4.8598906646e+01   3.5609828008e+01    0.1685083    0.1105852 -34.76            0    1.578    0.366
        82  -8.7085    106.3760     49.0048   6.2596456991e+01   5.1238698939e+01    0.3306767    0.1956139  23.87  0.001401679    2.246    0.555
        83  -7.4946     40.6361     50.2562   8.6510268148e+01   6.2370989623e+01    0.1144401    0.1006318  53.90  0.000435628    1.628    0.386
        84  -8.1507     10.2540     47.5514   9.9374732148e+01   6.5712696413e+01     0.297158    0.1468618 -40.21  0.000870593    1.608    0.378
        85  -8.9750     13.5108     45.5111   9.7215556901e+01   6.5883515467e+01    0.2748399    0.2235141  67.94  0.001199457    2.021    0.505
        86  -9.0728      3.0531     42.0309   1.0117598734e+02   6.7232851689e+01     0.752836     0.296682 -48.84  0.003928485    1.858    0.462
        87  -8.4010      3.0149     25.0039   9.5506118286e+01   7.0366879410e+01    0.2397674    0.1289777 -40.98 0.0009903295    1.440    0.306
        88  -8.8397      5.7941     34.0020   9.7250650462e+01   6.8581738822e+01    0.2801047    0.1567223 -10.68  0.001213962    1.813    0.448
        89  -7.8827      2.9712     32.0245   9.8035777367e+01   6.9120368978e+01    0.1612711    0.1259948 -29.48 0.0004555157    1.051    0.049
        90  -8.6989      1.3723     28.7880   9.7761424420e+01   6.9801661846e+01    0.2960381    0.1193043 -47.04 0.0009770176    1.868    0.465
        91  -8.4832     55.5426     43.4692   7.7776166109e+01   6.1560782529e+01    0.2939719    0.1655458 -23.31 0.0006388976    1.937    0.484
        92  -8.2312     58.4855     40.9948   7.5640809348e+01   6.1516001366e+01    0.2609481    0.1598158  10.85  0.001081851    1.962    0.490
        93  -9.1189     94.5437     42.5146   6.3700198004e+01   5.4702110163e+01    0.7795846    0.2402819  39.99  0.002552011    3.569    0.720
        94  -7.8535    122.9646     40.9814   5.5578037280e+01   4.8656969189e+01    0.2392273    0.1580395  26.44   0.00113191    1.805    0.446
        95  -7.6844    113.9847     41.4773   5.7942709658e+01   5.0642972458e+01    0.2149564   0.09901364  35.92 0.0007613339    2.618    0.618
        96  -8.6713    105.5097     37.1631   5.8628675559e+01   5.3109421387e+01    0.3591309    0.2240902   5.26   0.00152809    2.294    0.564
        97  -8.3784     17.7943     39.3939   9.3129361102e+01   6.6700482916e+01    0.2159259    0.1384624   4.92  0.001082983    1.580    0.367
        98  -9.2839     19.6384     36.1848   9.1077925345e+01   6.7120836128e+01    0.2644128    0.1610234  26.60 0.0008256841    1.786    0.440
        99  -9.1829     21.4353     32.0042   8.8607575467e+01   6.7684228498e+01    0.3166128    0.1852711  17.16            0    1.719    0.418
       100  -8.6039     67.7844     37.6729   7.0772156072e+01   6.0502209313e+01    0.4269766    0.2246562 -35.96  0.002081463    1.909    0.476
       101  -8.6554     71.0368     35.0179   6.8529759359e+01   6.0318739996e+01    0.2855846    0.1793754  44.98 0.0008535117    1.611    0.379
       102  -9.2312     55.2998     35.8645   7.4868065916e+01   6.2816272226e+01    0.4731131    0.2693333  -9.11   0.00189844    2.381    0.580
       103  -7.8448     35.4956     37.5406   8.4079706069e+01   6.5241458552e+01    0.2127226    0.1412858 -29.09 0.0006338733    1.312    0.238
       104  -8.5350     38.7263     35.4271   8.1779285428e+01   6.5201705907e+01     0.225439    0.1780843  -2.61 0.0006355161    1.092    0.084
       105  -8.0564     92.9343     36.5473   6.1959068596e+01   5.5871927554e+01     0.320238    0.1474126  39.34 0.0009295037    2.121    0.529
       106  -8.9113     96.2364     32.8618   5.9606269462e+01   5.5668023598e+01    0.2711289    0.2047253  14.55 0.0003068727    1.393    0.282
       107  -7.4506    133.9867     31.0803   4.9911256561e+01   4.7315367827e+01      0.15947    0.1535164  49.61 0.0009097135    1.060    0.056
       108  -7.4574     46.3292     35.3183   7.8387926960e+01   6.4215141128e+01    0.1338121   0.08620584  -4.88 0.0002756783    1.684    0.406
       109  -8.6782     42.0836     27.8142   7.7109090533e+01   6.5955158521e+01    0.2950404     0.195771  -1.74  0.001707338    1.510    0.338
       110  -8.4430     89.8006    248.6649   1.0910799918e+02   1.0959271592e+01     0.250505    0.1646828  65.62 0.0008517153    1.567    0.362
       111  -8.4958    109.6926     25.9932   5.3523811000e+01   5.3554298623e+01    0.2936474    0.1774845 -22.24   0.00114405    1.842    0.457
       112  -9.1702     69.9357     26.6022   6.5471124177e+01   6.1661612909e+01    0.2404771    0.1919187  12.91 0.0008221449    1.119    0.107
       113  -9.4193    202.5506    245.7624   8.6131939777e+01  -5.2305588892e+00    0.2303939    0.2043419 -29.19 0.0008253485    1.401    0.286
       114  -8.6119     61.9115     26.8684   6.8522302556e+01   6.3039626091e+01    0.1997137     0.147992   9.86 0.0004687941    1.261    0.207
       115  -8.5606    170.5137    247.4799   9.2634457353e+01  -8.2295762502e-01     0.125967    0.1035155  22.77 0.0007004981    1.001    0.001
       116  -7.2786    136.7486     23.2791   4.6872499986e+01   4.7539783651e+01    0.1249588   0.09865549 -71.03            0    1.461    0.316
       117  -8.1762    129.2081     22.1870   4.7949718282e+01   4.9452216630e+01    0.2507726    0.1511166  50.80 0.0009453649    1.472    0.321
       118  -9.1105     92.3215     20.6076   5.5992135969e+01   5.7949308885e+01    0.3226264    0.2117287  36.41 0.0007755788    1.385    0.278
       119  -7.6638    230.2650     25.8357   3.5531225958e+01   2.5437109485e+01    0.1447145    0.1360544  72.96 0.0003700679    1.302    0.232
       120  -8.2917    242.9231     20.7088   3.3420965706e+01   2.3423008545e+01    0.1636236    0.1293209 -76.55 0.0006787386    1.072    0.067
       121  -8.1421    140.4893     19.9026   4.5137327129e+01   4.6999854683e+01      0.19282    0.1624422  62.61 0.0003769093    1.053    0.050
       122  -8.9198      8.5635     19.5815   9.0304129974e+01   7.0875528793e+01    0.2931269    0.2304843  -4.50  0.002087618    1.166    0.142
       123  -8.5764     14.2565     17.9903   8.6502462621e+01   7.0637957731e+01      0.38685    0.1704274   8.69  0.001384215    2.965    0.663
       124  -8.2950    118.9336     17.8430   4.8553920883e+01   5.2309951981e+01    0.2082909    0.1590962  37.68 0.0005241932    1.254    0.203
       125  -8.3038    127.7854     16.7874   4.6434219847e+01   5.0342014566e+01    0.1996956    0.1577864  44.93 0.0004932046    1.177    0.151
       126  -9.1771    241.1515    240.2824   7.8184014894e+01  -9.6417217329e+00    0.1998697    0.1293421 -15.28 0.0005112987    1.361    0.265
       127  -7.5426    147.0370     14.0335   4.2262922064e+01   4.6012939743e+01    0.1604904    0.1357255  68.13 0.0004338638    1.036    0.035
       128  -9.3487    188.3592    233.4618   8.6934766444e+01  -1.3255670213e+00    0.2589364     0.218272 -21.99   0.00101417    1.237    0.192
       129  -9.0808    201.3800    228.0664   8.3485404387e+01  -2.4462267505e+00    0.2905245    0.2451149 -81.26  0.001150271    2.168    0.539
       130  -8.8998    189.7394    222.4225   8.4834712078e+01   2.3090782246e-01    0.2368316    0.1979822  23.44 0.0004256152    1.096    0.088
       131  -8.1768    221.8872    221.7488   7.8497107906e+01  -4.4931808445e+00      0.18479    0.1400747   1.91 0.0004751211    1.141    0.123
       132  -7.8565    105.6856     13.7011   4.9969489712e+01   5.5737056867e+01    0.1369218   0.08517811  33.50 0.0003449668    1.608    0.378
       133  -9.0302    190.9988    217.9872   8.3822094890e+01   7.6452076738e-01    0.1950517    0.1680151   9.85 0.0003402631    1.010    0.010
       134  -8.0088     87.9383     12.8952   5.4125429702e+01   5.9665409899e+01     0.204845    0.1491913  32.16 0.0004961625    1.225    0.183
       135  -8.3706    191.7398    213.1157   8.2820987625e+01   1.4630163924e+00    0.2157086    0.1671209  27.60 0.0003464345    1.183    0.155
       136  -8.3546     11.9902    207.0193   1.2148057281e+02   2.8810232122e+01     0.145922    0.1131206  79.33  0.001001964    1.014    0.014
       137  -7.9583    219.0119    205.3836   7.6089419605e+01  -1.5477701807e+00    0.1771609    0.1438071  16.79 0.0004036004    1.139    0.122
       138  -7.6018    132.8698    199.0640   9.3176389719e+01   1.4093916769e+01     0.180862    0.1591999   3.01  0.001007782    1.248    0.199
       139  -8.1707    106.7137     10.7518   4.8645757645e+01   5.5779376151e+01    0.2067056     0.104885  72.16 0.0004914167    2.385    0.581
       140  -8.3481     42.8386    193.9200   1.1369982215e+02   2.8551813053e+01    0.1777073    0.1573047 -68.16 0.0003041511    1.223    0.182
       141  -8.3072    180.9909    193.0044   8.1360944598e+01   6.8546946229e+00    0.2050018    0.1879614   7.95   -0.0106749    1.026    0.025
       142  -7.3098     19.3520    158.3146   1.1578778062e+02   3.9383985680e+01    0.1298388   0.08539448 -44.57 0.0007046296    1.732    0.423
       143  -7.4717    107.0211    152.0224   9.0981244301e+01   2.9347227471e+01    0.1820107    0.1769408 -67.76 0.0005146178    1.012    0.012
       144  -8.6699     68.3230    145.6633   1.0057200683e+02   3.7067671628e+01    0.2837722    0.1993262 -65.25  0.001128942    1.346    0.257
       145  -7.9089     65.5093    143.5106   1.0100086767e+02   3.7990757273e+01    0.2715412    0.2033172 -64.18 0.0009067227    1.242    0.195
       146  -7.5395    139.6778    138.7078   7.9473366488e+01   2.6198468273e+01    0.1570914    0.1236135  -2.68 0.0003903453    1.611    0.379
       147  -7.6621    108.0676    137.2978   8.7555479817e+01   3.2697157265e+01    0.2469766    0.1291351  16.55 0.0007032317    4.300    0.767
       148  -7.6459    191.7876    136.3701   6.7094114754e+01   1.5844200484e+01    0.2016589    0.1380159  33.93   0.00044791    1.609    0.378
       149  -7.4582     55.4843    135.4521   1.0252278550e+02   4.1303850847e+01    0.1418998    0.1267034 -54.44 0.0002681236    1.076    0.070
       150  -8.3463     67.9416    127.4796   9.7227849112e+01   4.1648119981e+01    0.2164717      0.14414  33.21  0.001037021    1.609    0.378
       151  -7.6760    133.3808    124.4034   7.7632862723e+01   3.0718208325e+01    0.3029971    0.1419159  29.49 0.0009492767    3.202    0.688
       152  -7.7791    119.9349    118.7188   7.9806797962e+01   3.4762225013e+01    0.2477724    0.1247348  22.26 0.0007012862    4.089    0.755
       153  -8.4299     14.7862    118.3773   1.1224828459e+02   4.9483714347e+01    0.1593115    0.1179935 -13.35 0.0005784015    1.671    0.402
       154  -8.4068     28.6182    112.0007   1.0681599114e+02   4.9943270892e+01    0.2490476    0.1218944  43.21 0.0008458526    2.423    0.587
       155  -8.2284      1.4109    110.7562   1.1540388350e+02   5.2148576444e+01    0.1821129   0.08752617 -61.26 0.0005329716    1.591    0.371
       156  -8.5797      4.6201    107.9317   1.1400571524e+02   5.2643573989e+01    0.2403855    0.1531609 -56.02  0.001229814    1.284    0.221
       157  -8.0763    133.7098    106.5857   7.2914810043e+01   3.4550813994e+01    0.2880059    0.1895308 -32.18 0.0009980068    1.656    0.396
       158  -7.8369    124.2260    107.1529   7.5593670011e+01   3.6455029902e+01    0.2655214    0.1728456  -2.82 0.0009445282    2.843    0.648
       159  -7.7795    109.2690    106.5526   7.9647132589e+01   3.9636038616e+01    0.2111253    0.1485368  27.15 0.0009393705    1.595    0.373
