#   1 NUMBER                 Running object number                                     
#   2 MAG_AUTO               Kron-like elliptical aperture magnitude                    [mag]
#   3 X_IMAGE                Object position along x                                    [pixel]
#   4 Y_IMAGE                Object position along y                                    [pixel]
#   5 X_WORLD                Barycenter position along world x axis                     [deg]
#   6 Y_WORLD                Barycenter position along world y axis                     [deg]
#   7 A_WORLD                Profile RMS along major axis (world units)                 [deg]
#   8 B_WORLD                Profile RMS along minor axis (world units)                 [deg]
#   9 THETA_WORLD            Position angle (CCW/world-x)                               [deg]
#  10 FWHM_WORLD             FWHM assuming a gaussian core                              [deg]
#  11 ELONGATION             A_IMAGE/B_IMAGE                                           
#  12 ELLIPTICITY            1 - B_IMAGE/A_IMAGE                                       
         1 -13.9600     68.3389    144.5005   1.0007331039e+02   3.7546130719e+01     3.560594     1.688734  66.17  0.002579998    5.484    0.818
         2 -13.8423    234.2785     17.4960   3.2803963514e+01   2.5540900631e+01     1.241256     0.898851  48.74  0.004962529    1.850    0.459
         3 -13.8268    206.1260     41.2202   4.0857497106e+01   2.8820784342e+01     1.414669     1.277093  10.64  0.005243868    1.465    0.318
         4 -13.4161    214.0756     36.4674   3.8833677802e+01   2.7636335694e+01    0.9948333    0.6912833 -73.41  0.003798848    1.391    0.281
         5 -12.7527    221.5688     29.1360   3.6405163315e+01   2.6890495933e+01    0.6213785    0.4153098  55.30  0.001439652    1.702    0.412
         6 -10.9326      2.5151      3.3995   8.5534454106e+01   7.4191153580e+01    0.2908381    0.1565762 -33.48  0.001869939    1.523    0.343
         7  -9.7610    250.2637      1.7801   2.8612871510e+01   2.4017612809e+01    0.1763381    0.1182061 -63.62  0.001204662    1.159    0.138
         8 -10.0169    209.3026    198.7013   7.6325414523e+01   1.0648936400e+00    0.2335725     0.161092 -47.41  0.001025661    1.706    0.414
         9 -12.8096     86.2781    223.0175   1.0688210627e+02   1.6513894625e+01     1.232714    0.6908349  64.15  0.001293881    2.092    0.522
        10 -16.0315     34.9339    190.1827   1.1500016551e+02   3.0414549219e+01     8.648005     3.499062  80.58   0.03007367    4.089    0.755
        11 -13.1581     27.2093    205.2310   1.1803204152e+02   2.7804341879e+01    0.5103098    0.4025818 -47.65  0.001021028    1.635    0.388
        12 -14.2985      7.6179    245.8828   1.2433325077e+02   2.1384071129e+01       1.4145    0.9785484  69.88   0.01045433    1.071    0.066
        13 -10.1262     80.9148    182.1981   1.0281999747e+02   2.6433654250e+01    0.3040842    0.2622848 -47.89 0.0009689057    1.267    0.211
        14  -9.0227     99.4181    181.2133   9.7997438368e+01   2.3786654673e+01     0.187741    0.1380874 -74.19 0.0004502075    1.478    0.323
        15 -12.0559     56.7152    178.2064   1.0838312767e+02   3.0719807924e+01    0.4511093    0.3110219 -31.31  0.001696049    2.047    0.511
        16 -11.9986     62.4495    172.5988   1.0616686106e+02   3.1344317662e+01    0.3428504    0.2769263 -38.90 0.0008954323    1.459    0.314
        17 -10.6651    110.9010    173.6898   9.3783826140e+01   2.3621991607e+01    0.3860253    0.1659554  43.02  0.001449571    2.276    0.561
        18  -9.3019    146.5336    172.4733   8.4720154648e+01   1.7383678427e+01    0.1481422    0.1444927  48.71 9.477166e-05    1.069    0.064
        19 -11.7581     72.8729    163.1495   1.0198568154e+02   3.2241916067e+01    0.3699974    0.2994845 -64.76 0.0003655929    1.172    0.147
        20 -13.1710     58.2079    132.5941   1.0090341298e+02   4.1897212911e+01     3.602154     1.087044 -70.96  0.007003369    9.736    0.897
        21 -12.9757     80.2301    156.8672   9.8914561669e+01   3.2719198337e+01    0.9958807    0.8162625 -79.50  0.001546964    1.233    0.189
        22 -13.5911     11.2457    232.7174   1.2301883856e+02   2.3601739553e+01    0.9698284    0.6245482  77.31  0.005433149    1.247    0.198
        23 -11.9427     33.0695    157.5484   1.1194552561e+02   3.8477266490e+01    0.5108044    0.3094718  42.99  0.002685991    1.715    0.417
        24  -8.6644    151.6413    151.2963   7.8975630053e+01   2.1040151464e+01    0.1567699    0.1242785  80.00 0.0007033242    1.703    0.413
        25  -9.4321    122.8352    151.1420   8.6205392617e+01   2.6769131577e+01    0.2274533    0.2036397  79.43 0.0004598042    1.239    0.193
        26  -9.6185    134.4168    148.7102   8.2667705637e+01   2.5081110945e+01     0.301093    0.1512529 -53.24   0.00112844    2.102    0.524
        27 -15.0112      9.9102    207.9602   1.2184741707e+02   2.8897178754e+01     2.067281     1.227591  89.24   0.01015302    1.419    0.295
        28  -9.2954    178.6922    144.8839   7.1322682744e+01   1.6864361952e+01    0.3289267    0.1869096 -63.75 0.0007317717    3.070    0.674
        29 -11.2972     23.5804    147.9392   1.1335914953e+02   4.1747397241e+01    0.2909821    0.2041071 -74.95 0.0008463238    1.211    0.174
        30 -10.7155     95.6630    142.8536   9.1872871461e+01   3.3706788811e+01    0.3431394    0.3257838 -33.17 0.0009009024    1.090    0.082
        31  -9.7280     99.1793    139.2268   9.0096537916e+01   3.3987147178e+01    0.3510602    0.2580086 -12.43  0.001554589    1.880    0.468
        32 -12.3943     83.5880    141.0863   9.4981366144e+01   3.6131465000e+01    0.3362499    0.2751171 -52.33 0.0005248587    1.170    0.145
        33 -10.5792     28.4884    142.9897   1.1136417457e+02   4.2534808615e+01    0.2302185    0.1853237 -26.50 0.0009763129    1.514    0.339
        34  -9.5576    198.1254    139.9198   6.6173017274e+01   1.3894436837e+01    0.3110925    0.1962083 -57.57  0.001130635    1.996    0.499
        35 -12.3763     69.6100    131.1387   9.7134484404e+01   4.0720474037e+01    0.9526109    0.6046378  86.69  0.003933851    2.384    0.581
        36  -9.9680     48.4470    169.8587   1.0943224464e+02   3.3764090677e+01    0.2194416    0.1724363  58.98 0.0005191243    1.253    0.202
        37  -8.5539     82.6735    129.3635   9.2785969239e+01   3.9186204456e+01    0.1578784    0.1163305  78.55 0.0007039684    1.796    0.443
        38 -11.0518     94.7470    127.6155   8.8773514912e+01   3.7595418346e+01    0.2806057    0.2501859 -33.87 0.0003402926    1.137    0.120
        39 -11.2558    183.3381    215.6261   8.4641968018e+01   2.3896820838e+00    0.2695582    0.2245424  67.45  0.001523409    1.767    0.434
        40  -9.8987    114.9827    125.2988   8.2367035857e+01   3.4387519605e+01    0.2893353    0.2182373 -20.10  0.001298506    1.623    0.384
        41  -9.7129    105.4890    119.8849   8.3737287318e+01   3.7490205627e+01    0.2109457    0.2044905   7.86 0.0003584497    1.054    0.052
        42 -15.5890     55.6007    246.1828   1.1545572094e+02   1.5996323922e+01      9.06996     2.650332  26.83   0.01116503    9.193    0.891
        43  -9.3677    168.0193    113.0039   6.5862168965e+01   2.5685082167e+01     0.256592    0.1932388 -78.77  0.001133845    1.810    0.448
        44 -10.0475    205.1626    110.6414   5.7961019285e+01   1.7956218573e+01    0.3239044    0.2501004  33.35  0.001102961    1.503    0.335
        45 -10.7979    107.0270    131.2138   8.6044341110e+01   3.4507910793e+01    0.4066269    0.3381409  33.64  0.001156173    1.247    0.198
        46  -9.9774    245.3290    109.3423   5.1390280733e+01   1.0172303063e+01    0.1323545    0.1006832  -3.64 0.0007051221    1.744    0.427
        47  -9.1118     69.2771    106.7093   9.1771751221e+01   4.6759420101e+01     0.138194    0.1141767  81.90 0.0006935865    1.521    0.343
        48 -13.4900     59.6145    159.1752   1.0497065452e+02   3.5034152355e+01    0.5615181    0.3348906 -42.26   0.00209392    1.943    0.485
        49 -10.9033     54.7705     95.6714   9.4016229061e+01   5.1357856165e+01    0.3727718    0.2533528 -48.06  0.001384085    1.310    0.237
        50 -10.4011     52.6537     90.5461   9.3464680968e+01   5.2811685292e+01    0.3165019    0.2483177 -59.63 0.0009319194    1.277    0.217
        51  -8.7292    130.4740     96.4811   7.0388028471e+01   3.7523337136e+01    0.1535158    0.1514084 -66.16 -6.396767e-05    1.053    0.050
        52 -10.3895     46.3877     91.8148   9.6078442128e+01   5.3271775874e+01    0.2490159    0.2138457  42.79 0.0007049795    1.358    0.264
        53 -10.0262     41.8053     92.1682   9.7846212522e+01   5.3699667956e+01    0.2631804    0.1906562  26.09  0.000546875    1.532    0.347
        54  -9.5998    161.7137     83.0015   5.9136705521e+01   3.2898050568e+01    0.2163844    0.1968303 -39.25  0.000527788    1.099    0.090
        55 -10.8389     13.3660     60.1780   1.0116682305e+02   6.3293281094e+01    0.2295699     0.187676 -56.06 0.0004384812    1.216    0.178
        56 -10.0006    109.8764    201.4037   9.8632543990e+01   1.7502231355e+01    0.2352801    0.1868928 -79.77 0.0007051752    1.412    0.292
        57 -11.2361     30.0809    232.1504   1.1939908894e+02   2.1766869678e+01    0.2414266     0.178752  72.26 0.0009958736    1.086    0.079
        58  -9.4641    170.9687    233.6904   9.0176473992e+01   1.3088658067e+00    0.1821454    0.1492171  25.65 0.0004853401    1.052    0.049
        59 -11.3382     59.5517    230.5360   1.1334836025e+02   1.8600719219e+01    0.3352244     0.244852 -72.69 0.0005949276    1.410    0.291
        60  -9.6763     30.8923     53.8784   9.1458419734e+01   6.3097987801e+01    0.1848292    0.1615113 -22.59 0.0004941312    1.097    0.089
        61 -10.5877     12.0426     53.0340   9.9773321920e+01   6.4859206367e+01    0.1934631    0.1521925 -35.44 0.0006687061    1.008    0.008
        62  -9.6444    160.6140     50.8246   5.0124135524e+01   3.8368596594e+01    0.2010285    0.1259135 -45.34 0.0009408238    1.648    0.393
        63 -10.4248    130.9419     38.3601   5.2101790409e+01   4.7254658612e+01    0.2937922    0.2372145 -83.86   0.00079772    1.475    0.322
        64  -9.6065      7.6581     16.3307   8.8717999748e+01   7.1840935694e+01   0.09468047   0.09094101  38.89 0.0007051266    1.748    0.428
        65 -10.4361    189.5045     15.1980   3.6346590110e+01   3.5756568263e+01    0.2338347    0.1637682  76.62 0.0007213158    1.273    0.214
        66 -10.1104      2.0000     14.0236   9.0995534784e+01   7.2641158731e+01    0.1783839   0.05268924 -48.45 0.0008059639    2.967    0.663
        67 -10.8070    194.1773    196.7096   7.8959217191e+01   3.9118470982e+00    0.8193318    0.4522898 -65.21  0.002340186    6.673    0.850
