#   1 NUMBER                 Running object number                                     
#   2 MAG_AUTO               Kron-like elliptical aperture magnitude                    [mag]
#   3 X_IMAGE                Object position along x                                    [pixel]
#   4 Y_IMAGE                Object position along y                                    [pixel]
#   5 X_WORLD                Barycenter position along world x axis                     [deg]
#   6 Y_WORLD                Barycenter position along world y axis                     [deg]
#   7 A_WORLD                Profile RMS along major axis (world units)                 [deg]
#   8 B_WORLD                Profile RMS along minor axis (world units)                 [deg]
#   9 THETA_WORLD            Position angle (CCW/world-x)                               [deg]
#  10 FWHM_WORLD             FWHM assuming a gaussian core                              [deg]
#  11 ELONGATION             A_IMAGE/B_IMAGE                                           
#  12 ELLIPTICITY            1 - B_IMAGE/A_IMAGE                                       
         1 -14.4466    220.3591    116.5064   5.4794214307e+01   1.5186695841e+01     2.504749     2.204157 -86.25   0.01404263    1.396    0.283
         2 -13.0608    237.6196     27.1477   3.3711663325e+01   2.4685440089e+01    0.6762568    0.3503603 -28.17  0.002912262    2.134    0.531
         3 -12.9530    239.1483     22.3931   3.2646306073e+01   2.4935386053e+01     1.062111    0.1766243 -40.75  0.004258637    3.475    0.712
         4 -11.9414    243.1318     16.7415   3.1270117076e+01   2.4811359767e+01    0.2908216    0.2753478  66.30  0.001894393    1.446    0.309
         5 -11.2409    249.5777     10.5903   2.9714041710e+01   2.4284110927e+01    0.2745333    0.1906954 -40.44  0.001970225    1.337    0.252
         6 -11.6229    248.9472     23.3926   3.2197337968e+01   2.3008909334e+01    0.6209712    0.1424167 -50.55  0.002565765    3.451    0.710
         7 -11.1255    249.6453     16.9792   3.0922927289e+01   2.3590514819e+01    0.2735029    0.2300206   0.67  0.001944432    1.903    0.475
         8 -12.0258    111.3793     18.9521   4.7113409489e+01   5.4148452955e+01    0.3971975     0.342342 -83.00 0.0009052866    1.268    0.211
         9 -11.2426    155.2276     15.0877   3.8655200043e+01   4.3952305122e+01     0.526887     0.252161 -15.34  0.002282699    3.013    0.668
        10 -11.9318     55.9905     15.5121   6.2085759231e+01   6.6669469132e+01    0.5186804    0.3804919 -12.69  0.002546136    1.406    0.289
        11 -10.3242     59.2956     11.3340   5.8689473843e+01   6.6505033718e+01    0.2493336    0.1854786   5.19  0.001487058    1.375    0.273
        12 -11.0126    101.4186     15.7908   4.8112516030e+01   5.6829115749e+01    0.3207009    0.2411896   9.96  0.000992875    1.565    0.361
        13 -10.2401     20.1478     15.2633   8.0517766521e+01   7.2355568037e+01    0.2779498    0.1914714  -0.45 0.0008691564    1.331    0.249
        14 -10.3725     24.7637     13.5221   7.6740343413e+01   7.2034155406e+01    0.2516108    0.1872158 -13.18  0.001612336    1.188    0.158
        15 -11.5941    227.7168     13.5064   3.1605986523e+01   2.8111854579e+01    0.2668367      0.18114 -22.22  0.001500635    1.859    0.462
        16 -11.9362    183.0711     12.9486   3.5024694680e+01   3.7664592731e+01    0.5157594    0.2848878  73.33  0.001854268    1.651    0.394
        17 -10.8736    188.5120      8.4740   3.3429624484e+01   3.6885137077e+01     0.196334    0.1800052   6.22 0.0009243593    1.469    0.319
        18 -11.0720    127.7253      4.8643   3.9261442963e+01   5.1520264016e+01    0.2744609    0.2278409 -57.29 0.0008357788    1.291    0.226
        19 -11.7225     79.3875      8.7931   5.0824150624e+01   6.2535662301e+01    0.4041634    0.2690627 -70.74  0.001989262    2.490    0.598
        20 -10.6149     47.7205      8.5435   6.2010547515e+01   6.9015473912e+01    0.2722882    0.2010892  -5.81 0.0008735464    1.352    0.261
        21  -9.9916    217.0394      8.1654   3.1196255730e+01   3.0810132697e+01    0.1912282    0.1508535 -16.96  0.001287342    1.693    0.409
        22 -11.0793    209.6841      8.6850   3.1820154197e+01   3.2280662565e+01    0.2147435    0.1745623  43.12  0.001062183    1.681    0.405
        23 -11.0483    212.8068      5.3164   3.0866578886e+01   3.1965562348e+01    0.3969657    0.2421601 -16.68  0.001926094    2.304    0.566
        24 -11.9888     14.4754      8.0333   8.0292684555e+01   7.4117061013e+01    0.4056791    0.2108945  30.55  0.001796244    1.847    0.459
        25 -11.9021      4.6382      7.1894   8.6877743590e+01   7.5257208912e+01    0.2318378    0.1747032  -6.83 0.0002434346    1.058    0.055
        26 -11.4604      5.0347      2.8343   8.4101451807e+01   7.5893520133e+01    0.4223138    0.2025333  16.54  0.002300759    2.025    0.506
        27 -10.2788    108.5037      6.9195   4.3234928464e+01   5.5971101386e+01     0.212954    0.1644093 -36.54 0.0008457255    1.465    0.318
        28 -10.8412    103.5816      2.3416   4.2443393780e+01   5.7514930125e+01    0.5155345    0.2524399  80.85   0.00226517    2.435    0.589
        29 -12.4011    122.6883     10.9039   4.2105410950e+01   5.2210886075e+01    0.5167539    0.3063111  54.48  0.001056932    1.493    0.330
        30  -9.6343     40.1478      5.0587   6.3592071568e+01   7.0751768943e+01    0.2869627     0.141208  48.86  0.001109604    2.041    0.510
        31 -12.0554     90.4499      2.6607   4.5328693185e+01   6.0561783525e+01    0.4038734    0.2478278  70.45 0.0005663821    1.582    0.368
        32 -10.2439    250.4764      2.9401   2.8235406821e+01   2.4906214960e+01    0.1608022   0.08677934 -38.25  0.001038234    1.609    0.379
        33 -10.6560    238.2004      7.6724   2.9786154300e+01   2.6693369399e+01    0.2108009    0.1448259 -29.02  0.001424002    1.648    0.393
        34  -9.6402     88.0851    105.6998   8.2845220869e+01   4.3951795518e+01     0.203875    0.1889112  15.12 0.0002600523    1.091    0.084
        35  -9.8825     80.0310    103.4628   8.4984944888e+01   4.5885462610e+01    0.3357688    0.2142391  13.90 0.0007600622    2.071    0.517
        36  -9.8601    249.1405    103.3178   4.8153965995e+01   1.2341229013e+01    0.1761976    0.1516638  13.26  0.001187429    1.472    0.321
        37  -9.5173     53.6199     97.7589   9.3208199766e+01   5.1266073464e+01    0.1994619    0.1370763 -68.18 0.0005462748    1.592    0.372
        38  -9.5983    147.9725     96.2431   6.3388728860e+01   3.3625511653e+01    0.2023598    0.1887998  46.36 0.0002812942    1.089    0.082
        39  -9.5444     69.1965     96.0059   8.6875542433e+01   4.9432337379e+01     0.208657    0.1853189 -42.57 0.0005201651    1.084    0.078
        40 -10.4467     16.4812     95.5073   1.0757986747e+02   5.5558416054e+01    0.2228236     0.204633 -58.09 0.0005161474    1.053    0.050
        41  -9.8139    116.7015     93.6946   7.0670440798e+01   4.0980672798e+01    0.2006965    0.1770738  86.17 0.0008065393    1.334    0.250
        42  -9.1066      1.3571     94.4813   1.1351700699e+02   5.6679973444e+01    0.1308842    0.1063987 -64.10 2.736754e-05    1.043    0.041
        43  -9.2233      8.4755     92.4532   1.1033921822e+02   5.6824246290e+01    0.1323547    0.1143877 -57.89 5.975395e-05    1.011    0.011
        44 -10.5522     34.3973     89.6854   9.9019860860e+01   5.5487780436e+01    0.3802844    0.1988323  16.85   0.00168178    2.147    0.534
        45 -10.3200    120.8400     87.6542   6.7763514256e+01   4.1320828730e+01    0.2830021    0.2361019 -65.12 0.0001586903    1.366    0.268
        46  -9.5000    131.4965     86.1160   6.4515958500e+01   3.9260413945e+01     0.217443    0.1486023 -39.63 0.0003781667    1.473    0.321
        47 -10.3928     28.9316     85.2517   1.0032488457e+02   5.7097470718e+01    0.2324487    0.2195042 -81.07 0.0006215879    1.178    0.151
        48 -11.1664     76.0299     83.2033   8.0707243911e+01   5.1228290105e+01    0.2757036    0.2577333   5.53  0.000243431    1.040    0.039
        49 -11.3641     80.0902     80.9919   7.8558012146e+01   5.0985220723e+01    0.2434581    0.2289588 -50.51   0.00134076    1.133    0.118
        50  -9.5813    112.8829     81.6496   6.8191461763e+01   4.4247140222e+01    0.2026667    0.1935374  54.65 0.0006080447    1.073    0.068
        51 -10.3715     54.4212     80.8237   8.8396447368e+01   5.5181904993e+01    0.2638349    0.2326626 -65.51  0.001244306    1.265    0.209
        52  -9.5118     21.8408     80.3995   1.0233535048e+02   5.8882721139e+01    0.1822693    0.1221526  -6.87 0.0006153602    1.654    0.395
        53 -10.0516      7.0491     80.4974   1.0893205929e+02   5.9845653837e+01    0.1783555    0.1278467   7.21 0.0005857234    1.547    0.354
        54  -9.7281    104.3021     78.8063   6.9845361561e+01   4.6648666745e+01    0.2325609    0.1898505 -62.31 0.0005879206    1.425    0.298
        55 -11.4573     77.5908     74.9469   7.7551701944e+01   5.2721430135e+01     0.500837    0.2594716  34.54  0.001675884    1.974    0.493
        56  -9.2961     31.1724     80.3639   9.8194973454e+01   5.8062260800e+01    0.1777709    0.1235362  31.77 0.0002955025    1.561    0.359
        57 -10.6789      4.6819     75.6753   1.0911905697e+02   6.1131857817e+01    0.2756506    0.1677795 -37.84 0.0008372411    1.491    0.329
        58 -10.5045      2.0997     73.1402   1.0984184118e+02   6.1860624821e+01     0.229568    0.2003174  -5.34 0.0004843796    1.249    0.199
        59  -9.1124     25.0197     73.9450   9.9375062633e+01   6.0151786268e+01     0.160418    0.1354437 -44.89 0.0002890767    1.052    0.049
        60  -9.5634    103.9359     72.7272   6.8021123772e+01   4.7908890636e+01    0.1980252    0.1830151  42.15   0.00024273    1.067    0.062
        61 -11.9309    137.1190     69.4333   5.8224429228e+01   4.1004195962e+01    0.4144078    0.2563779  47.92 0.0005066629    1.596    0.374
        62  -9.8625     63.4492     70.6544   8.1588198701e+01   5.6060029119e+01    0.2703474    0.1799318  29.73 0.0008879089    1.512    0.339
        63  -9.6455     17.8537     70.8151   1.0195642741e+02   6.1468860222e+01    0.1618364    0.1541189  82.44 0.0003816936    1.254    0.202
        64 -10.7592     97.3502     69.4594   6.8987987208e+01   4.9927874092e+01    0.2642292    0.2578909 -71.01  0.000422951    1.130    0.115
        65  -9.9267     33.9918     69.9944   9.4178048769e+01   6.0190654438e+01    0.2317895     0.143057 -28.12   0.00112163    1.690    0.408
        66 -10.5781    155.5405     68.3910   5.4030714703e+01   3.6871847805e+01    0.3100561    0.1852285 -63.39 0.0008565912    2.253    0.556
        67  -9.5284     90.0005     67.6880   7.0787319903e+01   5.1782316170e+01    0.2042182    0.1782814  31.47 0.0001853457    1.107    0.097
        68  -9.4285     40.1221     67.1232   9.0509775126e+01   6.0135434549e+01    0.1741756    0.1651444  59.94 0.0004201443    1.299    0.230
        69 -10.0920    121.1554     66.0904   6.1061115840e+01   4.5278804749e+01    0.2131473    0.1921195  16.46  0.001149729    1.190    0.159
        70 -10.3299    110.3628     64.6577   6.3502785962e+01   4.7977407254e+01    0.3349787    0.2578793 -52.35  0.001675993    1.439    0.305
        71 -10.1411     70.9502     66.1244   7.7110821167e+01   5.5719964311e+01    0.2158212    0.1957546   6.33 0.0003417696    1.044    0.042
        72  -9.4032     11.3402     64.2777   1.0354792488e+02   6.3438358771e+01    0.1976264   0.09038842 -21.26 0.0008330118    2.615    0.618
        73 -10.7696      3.3361     64.5424   1.0757001419e+02   6.3826124270e+01    0.3595535    0.2172061  86.07   0.00144321    2.266    0.559
        74 -11.2152      3.9597     59.5261   1.0615799733e+02   6.4948916185e+01    0.2302318    0.1874755 -40.42 0.0003586041    1.026    0.025
        75  -8.7231     99.3178     64.2936   6.6637138487e+01   5.0466647752e+01    0.1494427    0.1130613  12.53 0.0002839779    1.604    0.377
        76 -10.2154     43.6656     63.0956   8.7609541683e+01   6.0565590709e+01    0.4071719    0.2408938  50.31  0.001815399    2.393    0.582
        77  -9.4293     32.4900     63.5306   9.2984298766e+01   6.1798687549e+01    0.1364279    0.1195184 -26.16 0.0001134321    1.004    0.003
        78  -9.7333    103.9440     58.7099   6.3335842898e+01   5.0436139249e+01    0.1983812    0.1766583  41.04 0.0002342215    1.070    0.066
        79 -10.6213     59.8075     59.0070   7.9096579293e+01   5.9032940230e+01    0.2403189    0.2076745   0.55 0.0003617606    1.099    0.090
        80 -10.0053     95.3829     57.2195   6.5407769409e+01   5.2559553006e+01    0.3316398    0.1874933 -21.97  0.001336997    2.397    0.583
        81 -10.5695    149.9780     56.6974   5.1728110387e+01   4.0016011273e+01    0.3754123    0.1953523 -63.13  0.001364331    3.102    0.678
        82  -9.8427    111.8381     55.5322   6.0034145647e+01   4.9182926702e+01    0.2556171      0.20384  81.32  0.001293125    1.532    0.347
        83  -9.7509    200.5359     55.5006   4.3578104826e+01   2.8632382325e+01     0.130325    0.1157227 -62.72 0.0002888354    1.013    0.013
        84 -10.2707    134.5391     53.2562   5.3814643804e+01   4.4212510256e+01    0.2448765    0.2128948  73.13 0.0002677093    1.146    0.127
        85  -9.3101    206.7967     51.9768   4.1991485227e+01   2.7782643860e+01    0.3338017    0.1711969 -10.40 0.0009584724    7.027    0.858
        86 -10.1055    162.6954     52.9067   4.8363351307e+01   3.7563090016e+01     0.241291    0.1885116  36.87 0.0008854975    1.505    0.335
        87  -9.1174     44.4844     52.5286   8.3561043804e+01   6.2630081363e+01    0.1372745     0.120596 -10.57 0.0008097885    1.002    0.002
        88  -9.7669    212.1483     49.8723   4.0904387347e+01   2.6945083782e+01    0.1961399    0.1452307 -62.39 0.0005369087    1.231    0.187
        89 -10.0316    105.6415     49.8683   5.9761629150e+01   5.1493366038e+01    0.2949709    0.1930179  71.78  0.001314957    2.010    0.503
        90  -9.3652     55.3198     50.2870   7.7782174711e+01   6.1431945022e+01    0.2479883     0.184249  -9.52 0.0006317095    1.433    0.302
        91 -11.0280     58.8676     47.7199   7.5246480624e+01   6.1313429438e+01    0.2564378    0.2160568 -15.83 0.0003808667    1.133    0.117
        92  -9.9658     17.7009     50.5786   9.6485552265e+01   6.6015471395e+01    0.2275503    0.1205638   9.79  0.001013557    2.034    0.508
        93  -9.5898    202.6664     49.6743   4.1927398994e+01   2.8971603442e+01     0.123074     0.100073  26.39 0.0007051275    1.713    0.416
        94 -10.0486     84.8774     47.5856   6.5282892389e+01   5.6389566747e+01    0.3857897    0.1850777 -26.80  0.001509149    2.631    0.620
        95  -9.6737     49.6187     49.0316   7.9854885952e+01   6.2559381445e+01    0.1928787    0.1604524 -19.28 0.0006531749    1.116    0.104
        96 -10.5656     28.6627     48.2664   8.9882203455e+01   6.5445839113e+01    0.2177036    0.1718752 -17.78 0.0003886215    1.137    0.120
        97 -10.2160     25.5030     48.5209   9.1635071724e+01   6.5726071498e+01    0.2305915    0.1736346   3.96  0.001085694    1.292    0.226
        98  -8.7331     95.3069     48.6848   6.2347387906e+01   5.3984757371e+01    0.1385046    0.1140397 -81.56 0.0007027443    1.627    0.385
        99 -10.6504    136.7136     46.6277   5.1272308738e+01   4.4657303469e+01    0.2526735    0.2225094  84.95 0.0006813061    1.145    0.127
       100  -9.0628     45.9682     47.0487   8.0784839994e+01   6.3475507354e+01    0.1574318    0.1376185 -12.56  0.000301718    1.032    0.031
       101 -10.5920    141.0176     43.8968   4.9572633417e+01   4.4000315875e+01    0.2466163     0.188614 -33.04  0.001278287    1.389    0.280
       102  -9.6516     41.4438     44.0057   8.1766677186e+01   6.4690170719e+01    0.2705851    0.2065228  65.39  0.001076935    2.223    0.550
       103  -9.5155    233.1322     48.1319   3.8425176069e+01   2.2984751748e+01     0.169314    0.1140049 -57.90 0.0002547578    1.287    0.223
       104 -10.1229    167.1062     43.2082   4.4964870689e+01   3.7860568551e+01    0.2313254    0.2110936  80.73 0.0007707736    1.053    0.051
       105 -10.3987    108.6329     43.5635   5.6711792907e+01   5.1750681640e+01    0.2947454    0.2308865  65.54 0.0007966325    1.318    0.241
       106 -10.7464    235.8750     42.6416   3.7032192886e+01   2.3157844049e+01    0.2446516    0.1443907 -44.79  0.001396765    1.389    0.280
       107 -10.7748    247.7840     41.1467   3.5758453041e+01   2.1133605095e+01    0.2482839    0.1988019 -83.40  0.001790724    1.241    0.194
       108 -11.1001    242.3662     42.0575   3.6371134744e+01   2.2012801290e+01    0.2894065    0.1346223  57.24   0.00104287    2.545    0.607
       109 -10.7126     58.2105     41.4051   7.2973310274e+01   6.2523809213e+01     0.453404    0.1823904  35.41 0.0008788576    2.492    0.599
       110  -9.1265    149.3190     41.3025   4.7274104430e+01   4.2349158730e+01    0.1384759    0.1027149  33.52 0.0003384359    1.625    0.385
       111 -10.9354    229.3180     38.1074   3.6642348085e+01   2.4984491230e+01    0.2844707    0.1652924 -70.53  0.001600398    1.763    0.433
       112  -9.8001    181.8641     38.2022   4.1603321085e+01   3.5079731766e+01    0.1948472    0.1549933 -67.01 0.0004330821    1.178    0.151
       113  -9.5395     35.9054     38.2211   8.2210825594e+01   6.6506053630e+01    0.1804531    0.1332361  -8.38 0.0003728968    1.308    0.236
       114  -8.9006    148.7069     37.7012   4.6298389394e+01   4.2962787808e+01    0.1341271    0.1019788  33.81 0.0004096418    1.565    0.361
       115  -9.6085    127.9697     36.6934   4.9844252237e+01   4.8100321567e+01    0.2017511    0.1719278  63.24 0.0007450048    1.087    0.080
       116 -10.1093     48.3319     36.7995   7.5456064874e+01   6.4940542640e+01    0.1912206     0.165012 -46.63 0.0006390047    1.411    0.291
       117  -9.4757     21.9424     37.7869   8.9647221208e+01   6.8224127429e+01    0.1638252   0.09611849  18.81 0.0006423419    1.692    0.409
       118  -9.0027     10.6913     42.7187   9.7879970114e+01   6.8211552642e+01    0.1321172   0.07735522 -28.39 0.0002016004    1.562    0.360
       119 -10.3701     21.7003    141.9225   1.1219385834e+02   4.3242532232e+01    0.2275874     0.188433  40.58 0.0003196388    1.272    0.214
       120  -9.3496     33.9690     34.7603   8.1763517383e+01   6.7381514408e+01    0.1641607    0.1009879  26.03 0.0006475991    1.566    0.362
       121 -11.2969     76.2026    219.7536   1.0594800404e+02   1.8451383269e+01    0.3936397    0.3498783 -81.06  0.001922814    1.220    0.180
       122  -9.9372    248.5670    211.7077   6.8656815551e+01  -3.6950006707e+00    0.1848222   0.09311774  30.09  0.001071186    2.064    0.516
       123  -9.2152    120.5268     32.4800   4.9980888307e+01   5.0420729468e+01    0.1373986    0.1265655  71.14 0.0006525935    1.051    0.049
       124  -9.8662    151.4738     30.9885   4.3844324356e+01   4.3121061215e+01    0.1985512    0.1327045 -31.07  0.001037666    1.609    0.378
       125 -10.2596    116.0470     30.9973   5.0441657384e+01   5.1674489528e+01    0.2624179    0.1799164  50.47 0.0005104472    1.334    0.251
       126 -10.2760     78.8811     30.9569   6.0645001797e+01   6.0115696832e+01    0.2059978    0.1826803  25.83 0.0005485321    1.022    0.021
       127  -9.4904     29.3325     30.6919   8.2509303873e+01   6.8690060223e+01      0.11443    0.1021994  57.28 0.0002789975    1.668    0.401
       128 -10.0607    108.9461     29.5009   5.1534894430e+01   5.3541283965e+01    0.3910703    0.1251353  59.16  0.001393485    2.848    0.649
       129 -10.7670     47.4055     28.3653   7.2111821257e+01   6.6443900746e+01    0.2253318     0.206282  23.41  0.000692618    1.210    0.174
       130 -10.6609     15.2415     28.8468   9.0008024724e+01   7.0563268319e+01    0.2861762    0.1919307   3.38 0.0008162964    1.417    0.294
       131  -9.3791    215.8240     28.4069   3.5701949631e+01   2.8859590407e+01     0.159066    0.1030186  63.01  0.000816079    1.656    0.396
       132 -11.6748    236.1600    207.7584   7.0014649381e+01  -1.7009188991e+00    0.3264145    0.2247208  16.74  0.002130579    1.376    0.274
       133 -10.9169     58.3865    208.6748   1.0910135522e+02   2.3071326030e+01    0.3107442    0.1805151  58.29  0.001549062    1.769    0.435
       134 -10.2172    216.4832    192.4847   7.0727655253e+01   3.1473364807e+00    0.1279203    0.1046557 -10.87 0.0001042754    1.014    0.014
       135  -9.7168    216.3374    187.6565   6.9867285433e+01   3.9404520568e+00    0.1146575    0.1036485 -71.38 0.0007049458    1.770    0.435
       136 -10.5268    183.4212     26.4469   3.8402105171e+01   3.6133652474e+01    0.2546128    0.1967428  48.84 0.0007106913    1.505    0.335
       137 -10.3636     81.3422     26.7721   5.8074365493e+01   6.0137853391e+01    0.2665682    0.2207364 -73.08  0.001413624    1.661    0.398
       138  -9.6010      2.0104     27.3138   9.7884446113e+01   7.1883854633e+01     0.169407    0.1347488 -19.61 0.0006754759    1.063    0.059
       139  -9.6218    206.6352     26.1878   3.6014519460e+01   3.1042505458e+01     0.160943    0.1132185 -24.19 0.0009474398    1.684    0.406
       140  -9.6303    121.7248     25.9163   4.7464396923e+01   5.0909399912e+01    0.1808308    0.1729856  83.50 0.0004509249    1.075    0.070
       141  -9.0902     90.7072     26.3359   5.5064824649e+01   5.8130643721e+01    0.1306376    0.1053305 -71.99 0.0007025556    1.642    0.391
       142  -9.5044     98.5925     23.7972   5.1923603950e+01   5.6631154730e+01     0.180813    0.1223224 -41.85 0.0009395479    1.679    0.404
       143 -11.3559    227.4832     23.0401   3.3608244795e+01   2.7117685390e+01    0.3144556    0.1582316  88.42  0.001411767    2.115    0.527
       144 -10.0817    164.3982     22.0674   3.9475835686e+01   4.1043548307e+01    0.2567936    0.1552552  53.58   0.00133831    1.683    0.406
       145 -10.0691    141.8418     21.6754   4.2511776797e+01   4.6499516517e+01    0.1983362    0.1821494  26.22  0.000424718    1.259    0.206
       146  -9.1737     91.7660     22.3921   5.3168752686e+01   5.8354864257e+01    0.1286353   0.09949746 -58.84 0.0006908393    1.648    0.393
       147 -11.0684     30.6606     20.9802   7.7181752156e+01   7.0114266393e+01    0.3305723    0.3022332  72.71   0.00213683    1.810    0.447
       148  -9.5750      1.4881     21.9641   9.6157633790e+01   7.2935311228e+01    0.1790531     0.101996 -50.93   0.00103394    1.594    0.372
       149  -9.0166      1.0000    184.9603   1.2143519276e+02   3.4154842707e+01    0.2038514   0.06161005 -80.04 0.0008049883    2.960    0.662
       150  -9.2422     69.3764     20.1402   5.9185091981e+01   6.3469656648e+01    0.1762441    0.1180455 -39.16 0.0009423679    1.737    0.424
       151 -11.1126    149.9063     18.5448   4.0373681558e+01   4.4878918630e+01    0.2929193    0.2267041  80.79 0.0006099597    1.175    0.149
       152  -9.5607    119.8279     18.8920   4.5394083260e+01   5.2126514611e+01    0.1981408    0.1650925  40.26 0.0004751729    1.220    0.180
       153 -11.0296    249.0824    183.3765   6.3622532605e+01   2.3228791266e-01    0.2451057    0.1501663 -35.99  0.001490035    1.418    0.295
       154 -10.8443    237.1218    179.6445   6.4830264413e+01   2.3369469387e+00    0.2157311     0.149607 -36.48  0.001325561    1.332    0.249
       155 -12.0256    216.2398    157.0337   6.3961469102e+01   9.0367876980e+00    0.6150846    0.2687078 -46.10  0.002645114    2.354    0.575
       156  -9.5019      2.4604    153.5352   1.1905563173e+02   4.1681144726e+01     0.129278    0.1091962  84.32 0.0002849027    1.038    0.037
       157 -10.7486     77.4173     16.2337   5.4739427558e+01   6.2218373600e+01    0.2113672     0.167971 -84.88  0.001182919    1.781    0.438
       158 -10.3608     78.0391     12.7488   5.2991478000e+01   6.2447620164e+01    0.1834945    0.1352302  34.09 0.0003355119    1.245    0.197
       159  -8.9769     25.2828    152.3161   1.1223915696e+02   4.0266930742e+01     0.137066   0.09356827 -44.62 0.0001923273    1.580    0.367
       160 -14.1712    214.9166    132.3253   5.9056129279e+01   1.3479458802e+01     2.131631     1.345688  65.31   0.01016464    2.504    0.601
       161 -10.0632     10.3240     15.5390   8.7140237909e+01   7.3368652836e+01    0.2009047    0.1762002  10.06 0.0006148489    1.301    0.231
       162 -12.2121     68.1012    217.5815   1.0764677756e+02   1.9936934115e+01     0.684258    0.5795513  66.48  0.003571197    1.147    0.128
       163  -9.7807     28.3107    141.2878   1.1002251002e+02   4.2839293133e+01    0.1817001    0.1708652 -39.78 0.0004006585    1.148    0.129
       164 -10.8418     29.1488    137.9146   1.0932395612e+02   4.3638440898e+01    0.2520265    0.2167581 -42.48  0.000373849    1.213    0.176
       165 -10.4769     16.0079    128.8233   1.1252455011e+02   4.7064504360e+01    0.2487464    0.1768274 -83.93 0.0003444552    1.319    0.242
       166  -9.6461     93.2963     10.4119   4.7875590587e+01   5.9238082414e+01     0.175435    0.1167235  71.63 0.0003832015    1.542    0.351
       167 -10.3298     11.7646    128.9565   1.1395380795e+02   4.7325387285e+01    0.2094217    0.1578487 -51.51 0.0002046294    1.275    0.215
       168 -10.8793     13.1374    125.1880   1.1306262429e+02   4.8203301329e+01    0.2650577    0.1700305 -88.58 0.0006687511    1.535    0.348
       169 -10.5568     24.1223    125.5420   1.0934920977e+02   4.7286434385e+01     0.246526    0.2015803 -82.36 0.0004076647    1.160    0.138
       170  -9.0180     31.2256    123.9922   1.0666171870e+02   4.7067668046e+01    0.1821422     0.106834 -68.33 0.0003413317    1.559    0.358
       171 -10.3594    250.2319    121.6232   5.1680902473e+01   9.4054750713e+00    0.2660848    0.1433103 -30.51  0.001413645    1.669    0.401
       172  -9.2749     98.4881    117.4883   8.2511108701e+01   3.9271413913e+01    0.1557531    0.1477125 -15.16  0.000809724    1.060    0.057
       173 -10.5369     26.1937    116.2238   1.0725204498e+02   4.9526503604e+01    0.3650651    0.1827895  17.83  0.001614189    2.249    0.555
       174  -9.8241     11.3054    115.1620   1.1247472416e+02   5.0901657090e+01    0.2200174    0.1741412 -25.19 0.0008722668    1.386    0.279
       175 -10.3668      2.0198    111.1519   1.1532909136e+02   5.2450769737e+01    0.2018884    0.1847298  56.06 0.0004947809    1.215    0.177
       176  -9.6570     28.5044    109.8866   1.0536334918e+02   5.0958656279e+01    0.2099622    0.1251592 -64.80  0.000473574    1.505    0.336
       177  -9.9417     21.7784    110.2106   1.0793640132e+02   5.1434406297e+01    0.2398743    0.1212237  60.22 0.0009564188    2.794    0.642
       178  -9.6582    100.2174    109.5435   7.9954399058e+01   4.0813347577e+01    0.2129443     0.149177  23.38 0.0009339985    1.624    0.384
       179 -11.3996      6.6314    108.3007   1.1330424548e+02   5.2932138443e+01     0.309237    0.2980121   1.33 0.0009456762    1.187    0.158
       180 -11.5036      9.6950    102.8171   1.1141047565e+02   5.4148695639e+01    0.4385214    0.2608693 -23.97  0.001541801    1.917    0.478
