#   1 NUMBER                 Running object number                                     
#   2 MAG_AUTO               Kron-like elliptical aperture magnitude                    [mag]
#   3 X_IMAGE                Object position along x                                    [pixel]
#   4 Y_IMAGE                Object position along y                                    [pixel]
#   5 X_WORLD                Barycenter position along world x axis                     [deg]
#   6 Y_WORLD                Barycenter position along world y axis                     [deg]
#   7 A_WORLD                Profile RMS along major axis (world units)                 [deg]
#   8 B_WORLD                Profile RMS along minor axis (world units)                 [deg]
#   9 THETA_WORLD            Position angle (CCW/world-x)                               [deg]
#  10 FWHM_WORLD             FWHM assuming a gaussian core                              [deg]
#  11 ELONGATION             A_IMAGE/B_IMAGE                                           
#  12 ELLIPTICITY            1 - B_IMAGE/A_IMAGE                                       
         1 -11.9942      2.3260     43.2738   1.3868137279e+02   6.7423079684e+01     1.266162    0.0808309 -71.94  0.002747243    9.344    0.893
         2 -13.4778      6.0365     12.3853   1.2741136731e+02   7.4298403822e+01     2.141157    0.7439452 -51.90  0.009966465    2.073    0.517
         3 -13.2177    191.2822     30.0115   7.0292814944e+01   3.3509403717e+01      1.13557     1.116907 -50.91    0.0063043    1.030    0.029
         4 -13.9417    204.1731     12.2831   6.3727925511e+01   3.2240375365e+01      1.86921      1.13983  38.20  0.009255495    1.981    0.495
         5 -11.6425     81.2319    247.4523   1.3796112742e+02   1.6192071264e+01    0.3899972    0.3041414 -82.10  0.003136564    1.593    0.372
         6 -10.9212    139.2187    247.6654   1.2726193102e+02   9.2361760285e+00    0.3297992     0.169655 -36.88  0.002001693    2.669    0.625
         7 -11.2668    126.8030    249.4093   1.2971314995e+02   1.0546557478e+01    0.2863791    0.1693907  23.59  0.001880705    1.526    0.345
         8 -10.4708    111.7945    249.8967   1.3251684616e+02   1.2300814435e+01    0.2707991   0.09269545  40.52  0.001429153    2.150    0.535
         9 -11.4737     98.4617    248.5511   1.3486281507e+02   1.4064498952e+01     0.413048     0.184433  40.13  0.001987383    1.639    0.390
        10 -10.6330    101.0072    245.7091   1.3415849440e+02   1.4168448420e+01    0.1857591    0.1515648  28.45 0.0004833198    1.166    0.143
        11 -11.0994     46.5363    248.5603   1.4432815496e+02   1.9674467274e+01    0.3161401     0.157636  56.35    0.0011664    1.670    0.401
        12 -14.0511     33.2023    247.3129   1.4663530293e+02   2.1137184450e+01      10.0237     3.285624  20.48   0.03409809    7.964    0.874
        13  -9.9105     68.9422    234.5139   1.3937635308e+02   1.9525813283e+01    0.1930811    0.1586569  52.25  0.001534659    1.092    0.084
        14 -11.3091     19.3087    229.8710   1.4847476476e+02   2.5166581343e+01    0.2668203    0.2005797  16.33   0.00190557    1.705    0.413
        15 -13.5042      7.0993    243.9193   1.5105086173e+02   2.3932285651e+01     1.332036     1.060647  44.97    0.0120632    1.228    0.186
        16 -15.6792      7.8743    205.1334   1.4980273985e+02   3.0427677374e+01     8.455645     1.637514 -79.60   0.03239023    4.785    0.791
        17  -9.2813    225.6550    249.6848   1.1251485414e+02  -1.5731047864e+00    0.1109049   0.05829077  10.05 0.0007047868    1.716    0.417
        18  -8.8802     94.4381    216.6165   1.3284212985e+02   1.9454041202e+01    0.2093834     0.121274  69.79  0.001126495    2.457    0.593
        19 -11.4662    238.7933    247.7473   1.1016804964e+02  -2.8850229310e+00    0.2846222    0.1425974  18.83  0.001757702    1.519    0.342
        20  -8.8569    152.6706    212.9874   1.2056829659e+02   1.2192934864e+01    0.1539815    0.1330086  15.53  0.000308899    1.106    0.096
        21  -9.7682     33.1197    207.5037   1.4482462237e+02   2.7822793632e+01     0.205981    0.1228694  60.17 0.0003704225    1.417    0.294
        22 -12.6324     41.2823    230.7898   1.4442189402e+02   2.2995262836e+01    0.2698919    0.2422719 -78.17 0.0007888327    1.391    0.281
        23  -9.8293    192.0127    192.8561   1.0984093298e+02   9.3000402749e+00    0.3791166    0.2341691 -63.29  0.001342465    6.589    0.848
        24 -11.4375     66.4195    196.6756   1.3697498937e+02   2.6378313116e+01    0.3305648    0.2279424 -39.52   0.00155189    1.986    0.496
        25 -11.5801     71.7647    189.2149   1.3508493600e+02   2.7181111170e+01    0.2492189    0.2197309 -45.20 0.0004926437    1.372    0.271
        26 -10.8250     80.9517    176.7916   1.3160381489e+02   2.8501800096e+01    0.2177693    0.2105005 -44.15 0.0003636741    1.190    0.160
        27 -13.0254     68.1004    174.7545   1.3446902338e+02   3.0514546128e+01    0.4428065    0.2651114 -42.37  0.001466295    2.175    0.540
        28 -11.8627     87.9642    167.6511   1.2875085653e+02   2.9440046830e+01    0.6177304    0.4705434  45.03  0.003661054    1.202    0.168
        29 -14.5735     47.7819    222.3497   1.4271259597e+02   2.3766013123e+01     1.578477     1.239351 -57.82   0.01092232    1.632    0.387
        30 -12.6784     67.3767    144.0461   1.3092145787e+02   3.7281045102e+01    0.9101493    0.5553113  70.65  0.003502744    2.041    0.510
        31 -12.1236     57.2019    129.6669   1.3180260850e+02   4.1854935325e+01     1.401733    0.4880722 -80.00  0.003552987    6.953    0.856
        32  -9.1705    102.9721    147.1086   1.2177460230e+02   3.1579818553e+01     0.217195    0.1815559 -12.61  0.001205401    1.405    0.288
        33 -12.0397     88.8246    150.8602   1.2611766208e+02   3.2883693587e+01    0.2672276    0.2393472 -16.91 0.0005338953    1.281    0.219
        34 -10.8065    106.3948    246.8757   1.3325403674e+02   1.3363474227e+01    0.2332355    0.1238562  49.47  0.001465847    1.751    0.429
        35  -8.5503    192.2939    144.2598   1.0051989008e+02   1.6427241835e+01    0.1358706   0.09509686   8.23 0.0001914727    1.499    0.333
        36  -9.8123    110.9764    136.7300   1.1773974081e+02   3.2510477864e+01     0.374533    0.2443528 -19.31  0.001252246    2.272    0.560
        37 -10.3150     98.3841    133.9593   1.2062743949e+02   3.5168233311e+01    0.2637804    0.2183731 -19.47 0.0004468877    1.403    0.287
        38 -10.9231     50.3560    129.8012   1.3385934378e+02   4.2591446809e+01     0.260187     0.206897  58.68 0.0005583495    1.244    0.196
        39  -9.5569    107.8015    123.7549   1.1594066247e+02   3.5870676275e+01    0.2024138    0.1865061  -3.03 0.0004501017    1.132    0.116
        40  -9.7075     75.7775    242.6090   1.3863726955e+02   1.7519169100e+01    0.1971745   0.09656738  40.98 0.0008082305    1.498    0.332
        41 -10.7617    168.1224    113.1278   9.8277214940e+01   2.6319463088e+01    0.3068995    0.2959368 -50.09  0.000596353    1.218    0.179
        42  -9.8609    100.2930    151.5173   1.2321968310e+02   3.1052158325e+01    0.3262611    0.2656869 -15.89 0.0008580704    1.485    0.327
        43 -11.0316    120.1051    238.1134   1.2986460351e+02   1.2919796790e+01    0.2377636    0.1476044 -77.20  0.001432769    2.772    0.639
        44 -11.3403    248.0385    247.3822   1.0868743567e+02  -3.8727262342e+00    0.3670887    0.2084575   3.31  0.002688077    1.404    0.288
        45  -9.8787    163.3248    249.0504   1.2304973473e+02   6.0482060823e+00    0.1492499     0.117632  23.71  0.001164819    1.113    0.101
        46 -10.3848     88.4277    249.1947   1.3676160291e+02   1.5128904377e+01    0.2189016    0.1255165  60.60  0.001436703    1.919    0.479
