#   1 NUMBER                 Running object number                                     
#   2 MAG_AUTO               Kron-like elliptical aperture magnitude                    [mag]
#   3 X_IMAGE                Object position along x                                    [pixel]
#   4 Y_IMAGE                Object position along y                                    [pixel]
#   5 X_WORLD                Barycenter position along world x axis                     [deg]
#   6 Y_WORLD                Barycenter position along world y axis                     [deg]
#   7 A_WORLD                Profile RMS along major axis (world units)                 [deg]
#   8 B_WORLD                Profile RMS along minor axis (world units)                 [deg]
#   9 THETA_WORLD            Position angle (CCW/world-x)                               [deg]
#  10 FWHM_WORLD             FWHM assuming a gaussian core                              [deg]
#  11 ELONGATION             A_IMAGE/B_IMAGE                                           
#  12 ELLIPTICITY            1 - B_IMAGE/A_IMAGE                                       
         1 -11.2018      6.1303     35.0751   9.1393046380e+01   7.0007573628e+01    0.5343137    0.4114903 -55.25  0.002964867    1.409    0.290
         2 -10.6696     75.0817     24.9093   5.3563629010e+01   6.1401547082e+01    0.5636322    0.3156393 -24.48  0.002355062    1.977    0.494
         3 -12.4484    105.1166     20.8447   4.3684076253e+01   5.5142324919e+01    0.3973375    0.2810893 -33.01 0.0003946321    1.572    0.364
         4 -12.3445    107.9178     29.0364   4.6042476314e+01   5.3575901049e+01    0.4230421    0.3427135   4.49  0.002415495    1.436    0.304
         5 -10.4420     96.9858     12.6959   4.2436251566e+01   5.7838906245e+01    0.5413067    0.2021668  51.33  0.001721717    2.180    0.541
         6 -10.3001     97.9241      5.7966   3.9545819148e+01   5.8220753944e+01    0.5341538    0.2532794 -33.61  0.002600301    2.357    0.576
         7 -10.9244     19.1062     27.2862   8.0391934734e+01   7.0272241074e+01    0.6487963    0.2476072 -44.69   0.00204519    2.432    0.589
         8  -9.9402     40.2504     19.7906   6.5252939376e+01   6.8558967958e+01    0.4278946     0.260162 -53.62  0.001847214    3.026    0.670
         9 -10.1231     35.0646     18.1622   6.7037477811e+01   6.9592360289e+01    0.4127052    0.2501099  18.50  0.001118597    1.633    0.388
        10 -10.0753     28.1233     31.1442   7.6981331109e+01   6.8564754388e+01    0.7515504    0.4579317  -0.32  0.002868381    1.838    0.456
        11  -9.5863     30.8508     12.2732   6.6165319599e+01   7.1012967316e+01    0.3352319    0.2097026  46.30  0.001358279    1.929    0.482
        12  -8.6867     34.7056      9.7245   6.2753034756e+01   7.0732376265e+01    0.1837097    0.1319428   7.93 0.0001963916    1.258    0.205
        13 -10.1711    131.4321     22.2304   3.8987647003e+01   4.8714234897e+01    0.3930041    0.2552543 -15.64   0.00191302    1.931    0.482
        14 -10.5986    151.4773     17.7455   3.4588332102e+01   4.4356220103e+01    0.4035788    0.3107202 -77.59 0.0009078517    1.265    0.210
        15  -9.8976    144.2245     17.4225   3.5494192766e+01   4.6126237447e+01    0.4082494    0.1925472 -27.58  0.001907961    2.358    0.576
        16 -10.7642    145.4613     12.6820   3.3914001109e+01   4.6291634870e+01    0.7031842    0.2823311  67.73  0.002413402    2.130    0.530
        17 -10.3678     76.2642     11.9448   4.7531766501e+01   6.2555513999e+01    0.4085759    0.3445917  21.81  0.001868588    1.146    0.128
        18 -10.2205     69.8472     11.6138   4.9362409423e+01   6.3953626160e+01    0.3512147    0.2313469  34.68 0.0005305648    1.368    0.269
        19 -11.1092     68.4523     16.9931   5.2286146953e+01   6.3686026742e+01    0.7337375    0.3724789  62.47  0.003292237    2.431    0.589
        20 -11.5325     79.4449      4.3401   4.3296148324e+01   6.2534829798e+01    0.3185919    0.2381978  43.01 0.0004419835    1.136    0.120
        21 -11.6968     62.1779     16.8751   5.4456918293e+01   6.4964560903e+01    0.5810923    0.3353293  26.43  0.002941153    1.834    0.455
        22 -10.8403     73.5322      5.5251   4.5455716495e+01   6.3727381345e+01    0.3309742    0.2638513 -50.66  0.001673206    1.633    0.388
        23 -11.1058     74.6998      2.3354   4.3681550577e+01   6.3736550241e+01     0.366267    0.2141525  69.28 0.0007805236    1.829    0.453
        24 -11.0973     86.0440     22.1803   4.9047264272e+01   5.9355775876e+01    0.4290264     0.255275  63.91 0.0005506056    1.770    0.435
        25  -9.8071    225.7158     16.8811   2.7192282938e+01   2.8006375606e+01    0.3495936    0.1851119 -28.68  0.001620044    2.133    0.531
        26 -10.6262    230.1054     14.4009   2.6393021237e+01   2.7413051327e+01    0.3535535    0.1892135 -69.82  0.001167037    1.699    0.411
        27 -11.0184    165.3000     19.2890   3.3277915558e+01   4.0922123271e+01    0.4850978    0.2851092  33.66   0.00185704    2.602    0.616
        28  -9.4701      1.3622      8.4015   8.2871770538e+01   7.5077662557e+01    0.2886877    0.1195557 -44.16 0.0004745011    2.191    0.544
        29  -9.8097     14.9873      4.0574   7.0889593002e+01   7.4263842008e+01    0.2732688     0.239864 -49.28  0.001684729    1.891    0.471
        30  -9.4582     18.3882      1.8554   6.7391860201e+01   7.4096653002e+01    0.2131395    0.1366617  14.16 0.0007626998    1.365    0.267
        31 -10.6365      7.0896     10.3539   7.9809582451e+01   7.4251020620e+01    0.2658148    0.2151558  -6.57 0.0006843233    1.115    0.103
        32 -10.7243      4.9079     15.1941   8.3802434973e+01   7.3681857116e+01     0.488234     0.326643 -65.59  0.002726874    2.664    0.625
        33 -10.6321     10.0641     14.6107   8.0005808509e+01   7.3295030267e+01    0.3672631    0.1933599   6.95  0.001293397    2.012    0.503
        34 -10.6277     14.7280     11.4276   7.5259323275e+01   7.3276018220e+01    0.3976957    0.2102529  31.18  0.001553788    1.836    0.455
        35  -9.2178    195.1026     15.6144   2.9310880946e+01   3.4534834244e+01     0.214119     0.188663 -49.69  0.001040386    1.219    0.179
        36 -10.9659    182.2872     18.4679   3.1203060359e+01   3.7087815221e+01    0.2546924    0.2257248  67.22 0.0005953587    1.233    0.189
        37  -9.6449    184.5382     12.7838   2.9589756074e+01   3.7170383616e+01    0.2315989    0.2027101 -68.64 0.0007907358    1.100    0.091
        38  -9.8226    117.4407     15.1421   3.9117306571e+01   5.2789373044e+01    0.3455393     0.258941 -40.42  0.001733864    1.485    0.327
        39  -9.8132    120.1013     10.0395   3.6895893951e+01   5.2620381526e+01    0.2370516    0.1713888  55.32 0.0003106442    1.226    0.184
        40  -9.6619    210.3387     14.0216   2.7709355479e+01   3.1444608628e+01    0.2440111    0.1581701 -45.57 0.0009257387    1.382    0.277
        41 -10.5195    212.7694      9.6831   2.6597932866e+01   3.1392566788e+01    0.4413157     0.228234 -46.85 0.0009514486    1.641    0.391
        42 -10.2937    208.9990      4.7202   2.5798102065e+01   3.2674514916e+01    0.3242038    0.2739673  61.93  0.001493193    1.441    0.306
        43  -9.6759    206.3983      2.2006   2.5431809240e+01   3.3463124191e+01    0.2351206    0.1890614  83.51   0.00035834    1.205    0.170
        44  -9.1449    185.6046      1.7646   2.6852672703e+01   3.7993935018e+01    0.2384337    0.1798326 -33.27  0.001308632    1.481    0.325
        45 -10.8827    175.3727     12.7714   3.0471179350e+01   3.9251848053e+01    0.6274939    0.3787099  73.56  0.003539679    1.478    0.324
        46 -12.1536    178.1770      3.1797   2.7810522118e+01   3.9528212587e+01    0.4106172     0.293952  73.18  0.001141623    1.270    0.212
        47  -8.9535    127.8036     14.5746   3.7118938186e+01   5.0356415558e+01    0.2159166    0.1618094   2.90  0.001115638    1.724    0.420
        48 -10.0038     91.9492      8.4946   4.1937907213e+01   5.9372843250e+01    0.4672978    0.2375146  49.35  0.001212468    1.651    0.394
        49  -9.1984     87.3531      6.4146   4.2181830316e+01   6.0595087614e+01    0.2022329    0.1375654  62.97 0.0008835269    1.323    0.244
        50  -8.6939     84.8431     14.3827   4.6149468358e+01   6.0437294600e+01     0.306794    0.1455703  42.17  0.001423567    1.936    0.483
        51  -9.8907    244.2015     13.7933   2.5399079728e+01   2.4804011915e+01     0.279095    0.1555466  54.94  0.001676589    2.447    0.591
        52 -11.0738    133.0096     12.6324   3.5672762237e+01   4.9286154506e+01    0.2320597    0.2043274  89.67 0.0002746501    1.084    0.077
        53  -8.2297     56.3370     10.3275   5.3482794186e+01   6.6814302855e+01    0.2042275    0.1144865 -23.75  0.001084319    1.926    0.481
        54  -8.6741     49.4614      8.4704   5.5274638736e+01   6.8312955664e+01     0.324979    0.2123671   9.74  0.001856429    1.616    0.381
        55  -9.8342     50.9034     12.2246   5.6601940084e+01   6.7642473590e+01    0.4494524    0.2472147  22.62  0.002238642    2.027    0.507
        56  -8.6749     52.5280      8.6157   5.4104182657e+01   6.7721614212e+01    0.2055876    0.1040233  47.61 -7.358591e-05    1.719    0.418
        57 -10.0213    218.5676     11.2780   2.6530114630e+01   3.0040011015e+01    0.2728055    0.1998185 -76.31  0.001159717    1.129    0.114
        58 -11.3537    194.4139      5.0031   2.6917565803e+01   3.5754288999e+01    0.7205064    0.4932028  45.04  0.004267038    1.957    0.489
        59  -9.3998    200.3726      8.8439   2.7329062963e+01   3.4089223995e+01    0.3883179     0.182017  54.99  0.001974488    2.466    0.595
        60  -9.8363     24.4183     11.4212   6.9303466955e+01   7.2050166150e+01    0.3859057     0.158168  26.88  0.001766898    2.523    0.604
        61 -11.3410     24.3432      6.6449   6.6657073498e+01   7.2679013846e+01    0.3511726     0.210719  47.11 0.0005368065    2.182    0.542
        62  -9.8164    165.8022      9.4487   3.0594352403e+01   4.1787020887e+01    0.3144798    0.2211029 -29.42  0.001885801    1.605    0.377
        63  -9.6797    170.4398      6.5359   2.9365031625e+01   4.0985644974e+01     0.332563    0.2020304  48.54 0.0009603464    1.908    0.476
        64  -9.5969     43.4081     10.8562   5.9160561458e+01   6.9143873419e+01    0.2894009    0.1518491  32.17 0.0009103622    1.737    0.424
        65  -9.5393    230.5981      7.1992   2.4931182369e+01   2.8076749491e+01    0.2555862    0.1894076   0.47  0.001614136    2.440    0.590
        66 -11.7511    156.0574      3.5835   3.0045777790e+01   4.4598451381e+01    0.2863513    0.2168466  55.72 0.0003489765    1.353    0.261
        67 -11.9083    159.9228      1.7433   2.9143736675e+01   4.3851230440e+01    0.5120032    0.3947252 -74.67   0.00172811    1.182    0.154
        68  -8.4635    129.1111      7.7693   3.4709481963e+01   5.0657805725e+01    0.1780374    0.1325883  48.10 0.0008417898    1.333    0.250
        69 -10.4879    107.4273      7.0773   3.8128321494e+01   5.5888989587e+01    0.3533786    0.2097527  68.12  0.000932408    1.491    0.329
        70  -9.0689    103.2173      1.3238   3.6793402914e+01   5.7333177193e+01    0.1811715    0.1046823  66.28 0.0009592079    1.468    0.319
        71  -9.0622     62.9029      6.3483   4.9165854953e+01   6.5890463040e+01    0.3398582    0.2103291  68.06  0.001777038    2.023    0.506
        72 -10.6617     38.0453      4.8629   5.8406784739e+01   7.0728273808e+01    0.2814797     0.250877  31.42 0.0007802999    1.286    0.222
        73  -9.1940    123.5031      5.4856   3.4816537928e+01   5.2193792821e+01    0.2026666    0.1638751   4.01  0.000688669    1.531    0.347
        74  -9.1628    126.0177      2.3440   3.3409746125e+01   5.1844904905e+01    0.2668963    0.1887337   6.62  0.001533438    1.871    0.465
        75 -10.4182    237.8064      3.2300   2.3754671500e+01   2.7103328679e+01    0.2778492    0.2251304  59.18  0.002088892    1.657    0.396
        76  -9.6819    233.9284      2.4979   2.3824485566e+01   2.7913140939e+01    0.2111585     0.140816 -71.15 0.0005230279    1.189    0.159
        77 -10.1514    107.1818      2.0162   3.6325085247e+01   5.6348955329e+01    0.5566477    0.2485297  37.68  0.002474871    2.578    0.612
        78 -10.9477    115.6497      2.0228   3.4886176708e+01   5.4342562290e+01    0.2965082    0.1969774  54.34 0.0003556926    1.315    0.239
        79  -9.2431    119.9959      1.7365   3.4104110162e+01   5.3329567223e+01    0.1985196    0.1872226 -29.81 0.0008810543    1.247    0.198
        80 -10.9554    249.8089      1.7415   2.2867475343e+01   2.5042934810e+01    0.1843553    0.1521434 -57.67 0.0007022014    1.222    0.181
        81 -10.6151    217.8793      2.9992   2.4858876339e+01   3.1020548186e+01    0.2855642    0.2458604  83.56  0.001593711    1.272    0.214
        82 -10.2279     30.8500      3.0442   6.0966966196e+01   7.2113654160e+01    0.2411628    0.1633316 -32.52 0.0009552862    1.705    0.413
        83 -11.2740     91.5322      2.1020   3.9453711089e+01   5.9986275366e+01    0.2830796    0.2043231 -88.93  0.001625335    1.651    0.394
        84 -10.1770    135.2654      1.5959   3.1911124490e+01   4.9694830141e+01    0.2750837    0.1450781  76.86   0.00095977    1.687    0.407
        85  -8.4252     50.0360      1.8291   5.1548342136e+01   6.8848099233e+01    0.1549653    0.1276332 -37.26 0.0006733883    1.573    0.364
        86  -8.7361     43.8940      1.5007   5.3885974566e+01   7.0028278239e+01    0.1845384    0.1026241  46.61 0.0005422641    1.564    0.361
        87  -9.0883      5.1181      1.4422   7.6142973658e+01   7.5749729317e+01    0.2427181   0.09506706  21.24 0.0009312617    2.578    0.612
        88  -9.7701     46.3898    114.1554   9.3930624416e+01   4.8113112508e+01    0.3112389    0.2490283 -23.53 0.0005179765    1.340    0.254
        89  -9.8269    201.3911    249.4747   7.7767182627e+01  -4.3857423065e+00    0.2415672     0.172296   1.84  0.000648808    1.140    0.123
        90 -10.3439    115.8807    248.7144   9.5254160372e+01   6.9114597819e+00    0.2785577    0.2460919  74.05  0.001783496    1.391    0.281
        91  -8.8993     52.6641    112.6811   9.1330328615e+01   4.7717787016e+01    0.1576939    0.1058907 -28.26 0.0004709002    1.702    0.412
        92  -9.1484    138.8721    107.9226   6.3090913185e+01   3.3095099136e+01    0.2073416    0.1820697 -81.95 0.0003473593    1.312    0.238
        93 -10.1004     43.9615     99.8446   9.1729368377e+01   5.2015065436e+01    0.3338234    0.2598888  36.87  0.001094583    1.395    0.283
        94  -9.2606     39.6669     98.7178   9.3158958936e+01   5.2783525830e+01    0.3619415    0.2174622   0.91  0.001015566    2.142    0.533
        95  -9.4879     37.3088    106.1485   9.5679605570e+01   5.1169301856e+01    0.3953128    0.1742095 -52.12  0.001374263    1.967    0.491
        96  -9.1789     40.1354    102.8277   9.3888326001e+01   5.1704533811e+01    0.2703768    0.1848701 -48.55 0.0006157713    1.325    0.245
        97  -9.9527     33.5036    103.4212   9.6588383544e+01   5.2247941575e+01    0.3788126    0.1578598 -47.31  0.001479918    2.168    0.539
        98  -8.4415     47.1807    105.6702   9.1817703584e+01   5.0175132959e+01    0.1936764     0.135209   9.18 0.0004019734    1.643    0.391
        99  -9.6546    132.2526    103.9270   6.3692592134e+01   3.5365915182e+01    0.2718085    0.2198932  41.05 0.0004352039    1.253    0.202
       100  -9.8483    100.6803    103.0127   7.2412128408e+01   4.2153830172e+01    0.4366176    0.2142428  37.96  0.001656713    2.083    0.520
       101  -9.2687    100.4735     99.0726   7.1373544614e+01   4.3078185743e+01    0.2890007     0.218401 -30.57  0.001352858    1.409    0.290
       102 -10.8427     79.4262    101.1690   7.8903327256e+01   4.6519769519e+01    0.4975357    0.3185972  36.96  0.001894302    1.586    0.369
       103 -10.1205     56.7167    100.9779   8.7099524680e+01   5.0105291419e+01    0.4243058    0.2545848 -44.80  0.001909888    1.580    0.367
       104  -8.4586     29.5022    102.4800   9.7960113469e+01   5.2868770746e+01    0.1413979    0.1251099 -48.45 -7.604859e-05    1.013    0.013
       105  -8.3350    177.1595    101.3953   5.3058347527e+01   2.6051078306e+01     0.183028    0.1396761  68.47 0.0002480015    1.503    0.335
       106  -9.4810     95.0088    100.0680   7.3385677856e+01   4.3924314573e+01    0.2231838    0.2166547 -15.29 0.0003536307    1.006    0.006
       107 -11.6233    117.6690     97.9922   6.5968310483e+01   3.9760046220e+01    0.2840813    0.2651793  29.92 0.0003278676    1.075    0.070
       108  -9.6716      5.7294     98.0241   1.0655344345e+02   5.5732701970e+01    0.4863771    0.2349263  15.51  0.002298507    2.341    0.573
       109  -9.2181      3.4397     80.1847   1.0453049774e+02   6.0235331730e+01    0.3513203    0.1938467 -69.53  0.001725287    1.635    0.389
       110  -9.4030      2.5161     92.7602   1.0703291681e+02   5.7209900014e+01    0.2908893    0.1563701  45.40  0.001019298    2.307    0.566
       111 -10.2128      2.3212     87.0442   1.0620369432e+02   5.8626354035e+01    0.5423109    0.1457594 -61.68  0.002111143    2.592    0.614
       112 -10.2550    125.3927     97.0458   6.3586149403e+01   3.8290909729e+01    0.3116249    0.2331475  54.21  0.001463993    1.401    0.286
       113  -8.0669    154.6862     96.2908   5.6303238162e+01   3.1935924743e+01    0.1497517     0.117342 -80.07 0.0003906357    1.591    0.371
       114  -9.8578    139.9873     94.2473   5.9106133536e+01   3.5622974095e+01    0.4908278    0.2494337 -53.41   0.00183863    2.337    0.572
       115 -10.4166    134.8348     92.2621   5.9806332644e+01   3.7167576757e+01    0.6623127    0.2409089 -51.53  0.001967849    3.680    0.728
       116  -9.7157     80.7371     95.4990   7.6874002351e+01   4.7607965114e+01    0.3584049    0.2798148  41.84  0.001173297    1.326    0.246
       117 -10.1685     31.6481     94.0422   9.5334245498e+01   5.4774691893e+01    0.3337761    0.2414886 -79.52 0.0009973377    1.583    0.368
       118  -9.5904     33.9586     90.5548   9.3587521895e+01   5.5399741428e+01    0.3219467    0.2012509 -19.98  0.001508418    1.867    0.464
       119  -9.9077     13.5466     94.5795   1.0284740138e+02   5.6121500183e+01    0.3687056    0.2563769 -37.30  0.002028771    1.359    0.264
       120  -9.6672     18.2326     90.9908   1.0023928271e+02   5.6681231586e+01    0.2266967    0.1823492   4.69 0.0007051596    1.354    0.261
       121 -10.4475     47.0594     91.9931   8.8591507692e+01   5.3561452402e+01     0.361802    0.2584676 -66.77 0.0009441346    1.521    0.342
       122  -8.9550     44.3162     88.3154   8.8755365323e+01   5.4781002954e+01    0.2219701    0.1845011 -29.52 0.0005587065    1.138    0.121
       123  -9.0136     71.6135     91.2287   7.8917343543e+01   5.0154314879e+01    0.2756651    0.1834844  46.18  0.001256995    1.661    0.398
       124  -8.8617     52.5744     90.7532   8.6066865816e+01   5.3140400282e+01     0.201302    0.1389663 -66.54 0.0009475772    1.642    0.391
       125  -8.9299    105.7554     90.6822   6.7318036104e+01   4.3818619053e+01    0.5297829    0.1339691  47.91  0.001385751    4.470    0.776
       126  -8.7086     93.9669     78.7242   6.7331941249e+01   4.8709613005e+01     0.292493    0.2119298  13.16 0.0004538867    1.727    0.421
       127 -10.5436     86.0285     88.7258   7.3072454856e+01   4.8159173676e+01    0.4464202    0.3427612 -16.15    0.0010467    1.505    0.335
       128  -9.7439     90.8762     83.6368   6.9889636745e+01   4.8317139541e+01    0.3588942    0.2075853 -35.91  0.000208017    1.837    0.456
       129  -9.4742     39.6884     88.4895   9.0708596197e+01   5.5282473145e+01    0.3273163    0.2056536 -48.60  0.001597609    1.428    0.300
       130 -10.1077     20.3115     82.0004   9.7446485719e+01   5.8709595948e+01    0.3512549    0.2583514  46.30   0.00100997    1.662    0.398
       131 -10.9464     26.4657     87.1124   9.5940564314e+01   5.6955860918e+01    0.6172233    0.3811035 -30.58  0.001586024    1.658    0.397
       132 -11.1095    124.8234     86.7398   6.0769305929e+01   4.0492139390e+01    0.8694291     0.420752  33.05  0.002977289    2.917    0.657
       133 -10.0426    117.9907     83.4791   6.1633305242e+01   4.2648235329e+01     0.519745    0.2716664  54.54  0.001505913    2.089    0.521
       134  -9.6421     97.8326     88.7241   6.9185315608e+01   4.5857478126e+01    0.2707697    0.2404411 -66.14 0.0003443925    1.272    0.214
       135 -10.0823     57.8145     87.5239   8.3108478886e+01   5.3162772442e+01    0.5057217    0.3078512  62.50  0.001714222    2.919    0.657
       136  -9.7629      6.7672     88.9665   1.0466139383e+02   5.7924530099e+01    0.1923255    0.1833243  19.70 0.0003366711    1.223    0.183
       137 -11.4425    145.3460     74.0069   5.2142766760e+01   3.8130847515e+01    0.4456427    0.3985101  -3.29 0.0005057082    1.291    0.226
       138  -9.7581    150.0093     80.4802   5.2985578084e+01   3.5916742102e+01     0.348383    0.2544277 -69.03 0.0005695247    1.666    0.400
       139 -10.9580    155.1734     85.1264   5.3183548670e+01   3.3900031744e+01    0.2880158    0.2750647 -59.79 0.0002764867    1.021    0.021
       140 -11.0013    155.0901     79.1349   5.1552752776e+01   3.4981840033e+01    0.4534191    0.3412938  53.20 0.0004005815    1.335    0.251
       141 -10.0331    111.0665     85.4215   6.4171923632e+01   4.3775409212e+01    0.3922279    0.2514558  36.19  0.001200821    1.635    0.388
       142 -10.1789     94.2233     70.9379   6.4717212569e+01   5.0182240534e+01    0.5743878    0.3132201 -49.76  0.001876137    2.074    0.518
       143 -10.6246     87.7581     74.5925   6.8053619886e+01   5.0781465630e+01    0.7472656     0.481948  -8.11  0.002998141    2.460    0.593
       144 -10.6042     86.9257     67.5138   6.5969774355e+01   5.2320904493e+01    0.5586099    0.3356261  46.79  0.001296833    1.674    0.403
       145 -11.9673     80.4613     83.5510   7.3433949642e+01   5.0315465225e+01     1.544028     0.436653  34.15 0.0006627532    4.407    0.773
       146  -9.2592     75.1132     66.0764   6.9652371247e+01   5.4879669548e+01    0.2896264    0.2035277  31.05 0.0009880966    1.409    0.290
       147 -10.7027     79.6567     62.0094   6.6577019456e+01   5.4784842618e+01     0.728034    0.5715771  57.29  0.003190829    1.498    0.332
       148 -10.7955     73.6661     79.6836   7.4687873888e+01   5.2364825478e+01    0.4997664    0.3048238 -21.65  0.001426923    2.226    0.551
       149 -10.5274     70.3382     78.7328   7.5632409519e+01   5.3144928399e+01    0.3118392    0.2581674  48.09 0.0005978889    1.347    0.258
       150  -9.5923    143.1256     84.1850   5.5547060574e+01   3.6828631500e+01    0.2786936      0.23951 -81.33 0.0002421028    1.304    0.233
       151  -9.3112    138.9462     83.6908   5.6371902385e+01   3.7877043225e+01    0.4170359     0.233123  30.52  0.001551877    2.639    0.621
       152 -10.4949    105.8167     81.8699   6.4629467561e+01   4.5611845218e+01     0.362383    0.2422176 -37.57  0.000267853    1.532    0.347
       153 -10.8900     39.4873     81.4188   8.8948015183e+01   5.6979899371e+01    0.7477812    0.3206651  21.81  0.001578115    2.594    0.615
       154 -11.2643     45.2142     68.8845   8.2766808998e+01   5.9089651205e+01    0.3011723    0.2428135 -48.04 0.0002827546    1.238    0.192
       155 -10.7998     51.2758     82.8474   8.4404512223e+01   5.5164279769e+01    0.4953521    0.3501016  -2.71  0.001782475    1.647    0.393
       156 -11.0425     54.5600     61.3700   7.6178269816e+01   5.9308540095e+01    0.5407403    0.4149269 -77.14  0.000524602    2.079    0.519
       157 -11.8575     56.2748     56.7515   7.3783941915e+01   5.9938149051e+01    0.4752749    0.3699123  75.44 0.0002688041    2.191    0.544
       158 -12.9116     53.0764     75.1905   8.1379560029e+01   5.6633083556e+01    0.3470547     0.303729 -11.18   0.00053175    1.082    0.076
       159 -11.4157     51.1025     68.6556   8.0133961144e+01   5.8326154091e+01    0.6230428    0.5051157 -75.29  0.002942061    1.688    0.408
       160 -11.2583    167.2187     77.9773   4.8888558545e+01   3.2398416258e+01    0.4032559     0.268366 -50.56 0.0004005937    1.499    0.333
       161 -11.2691    169.8508     73.6544   4.7265098745e+01   3.2517009293e+01    0.6279413    0.3816849 -69.22  0.002668179    2.289    0.563
       162 -10.3263    136.8231     77.8349   5.5168890712e+01   3.9436139750e+01    0.4880073    0.3143598 -80.67    0.0014811    2.730    0.634
       163 -10.0329    111.4308     76.7079   6.1381922225e+01   4.5399945101e+01    0.3259413    0.2957731  32.22 0.0004549005    1.090    0.082
       164  -8.5340     12.7691     77.9023   9.9903831976e+01   6.0239206659e+01    0.1735187    0.0945555 -59.68  0.000332158    1.564    0.361
       165 -11.4403    175.5020     75.0391   4.6648803331e+01   3.1008369135e+01    0.7003183    0.3116871  57.15  0.002561525    2.290    0.563
       166  -8.5348     21.4821     76.5392   9.5640836051e+01   5.9910306373e+01    0.2007851    0.1052581 -49.85 -2.277245e-05    1.606    0.377
       167  -9.3485     18.9328     73.2833   9.6010716638e+01   6.0877336241e+01    0.3658538     0.234705 -53.77  0.001959679    1.351    0.260
       168  -9.2187    126.4898     75.5312   5.6986827137e+01   4.2230362806e+01    0.2684666    0.1463191 -26.31 0.0006888531    2.395    0.583
       169 -10.1613     64.3831     74.6336   7.6621423243e+01   5.5016164576e+01    0.4300473     0.339014  34.72  0.002268211    1.290    0.225
       170  -9.5709     29.2352     74.8404   9.1687467809e+01   5.9602137444e+01    0.3685762    0.2069234 -39.05  0.001770211    1.647    0.393
       171 -10.9018     45.5759     47.6732   7.5088796312e+01   6.3281180380e+01     1.868373    0.8423048  11.55  0.004395116    8.637    0.884
       172  -9.1056     32.1354     47.6528   8.1612626342e+01   6.5081007484e+01    0.3030534    0.2490114  68.64  0.001311161    1.976    0.494
       173 -10.1220     22.1734     66.2757   9.2638133164e+01   6.2206632769e+01     1.416795    0.4536383 -65.24  0.004633296    4.145    0.759
       174 -10.1065     29.5028     68.3875   8.9762793633e+01   6.1039095633e+01    0.7067904    0.3949167 -46.94  0.003318594    1.568    0.362
       175 -10.9484     44.7254     54.4019   7.8033827767e+01   6.2131764315e+01    0.8430072    0.3266527  32.01  0.003160423    2.573    0.611
       176 -12.3854     24.9793     56.3795   8.8282048177e+01   6.4097396563e+01     0.348952    0.2942443 -47.60 0.0005884242    1.207    0.172
       177 -10.3481     29.5569     52.0459   8.4511854403e+01   6.4510880423e+01    0.5114532    0.2377133  28.50 0.0009987339    2.164    0.538
       178  -9.0377    100.1281     75.1047   6.4220900589e+01   4.8147228509e+01    0.2120122    0.1910714  10.92  0.001129529    1.136    0.120
       179  -9.1084    122.9488     79.0000   5.8949323028e+01   4.2396514813e+01    0.2488209   0.08433968  49.58 0.0007967505    2.903    0.656
       180 -11.5823    157.7319     70.5433   4.8647481497e+01   3.5823670333e+01    0.4087618     0.371296 -58.65  0.002319763    1.077    0.071
       181 -11.2842      9.2281     51.2677   9.4917462683e+01   6.6494318947e+01    0.6981788    0.4593268  21.39  0.004060236    1.637    0.389
       182  -9.2751      8.6700     62.4602   9.8256200034e+01   6.4078879734e+01    0.2998464    0.2222187  28.62  0.001425441    1.563    0.360
       183 -12.1359      2.4440     66.1570   1.0219348168e+02   6.3585616707e+01    0.4706526    0.2526152 -65.60 0.0002348831    1.673    0.402
       184 -10.9668      4.1900     59.5767   9.9804029433e+01   6.4987242527e+01    0.6163266    0.2453657 -39.93  0.002225846    2.127    0.530
       185  -9.0089    136.5838     71.4997   5.3349204283e+01   4.0607366068e+01    0.1434951    0.1419505  42.86 6.643649e-05    1.039    0.038
       186  -8.9319    218.8318     69.8733   3.9214538069e+01   2.2569190837e+01    0.1729732    0.1632572 -46.50 0.0003265229    1.176    0.150
       187  -9.4586    102.8070     69.5502   6.1596057752e+01   4.8620965152e+01     0.355664      0.20859 -21.56   0.00141078    2.379    0.580
       188  -8.8321     37.4402     75.7830   8.8277573215e+01   5.8514709633e+01    0.1967389    0.1120066 -42.29 0.0006641637    1.603    0.376
       189  -8.2811     10.3049     69.3321   9.9121264483e+01   6.2408949481e+01    0.1433695   0.07765531 -36.84 0.0007037832    1.660    0.398
       190  -8.9995    120.0255     67.0068   5.5982127534e+01   4.5222071080e+01    0.2260051     0.214403  39.99 0.0006223377    1.030    0.029
       191  -8.1233     80.2935     67.2844   6.8191681350e+01   5.3668084915e+01    0.1451498    0.1103761   1.99 0.0002359815    1.539    0.350
       192  -9.4682     28.0135     63.4717   8.9010060728e+01   6.2274392654e+01    0.3212903    0.2021688  -5.19  0.001614887    1.780    0.438
       193  -8.3891    205.9570     65.9565   3.9911278785e+01   2.5776220542e+01    0.1544194    0.1342781 -58.81  0.000316891    1.011    0.011
       194  -8.8156    143.5888     65.7588   5.0111358832e+01   3.9924512059e+01    0.2015668    0.1305827 -49.16 0.0007106861    1.613    0.380
       195  -9.8623     14.8589     64.9105   9.5821025892e+01   6.3105375745e+01    0.4432145    0.2138024  -8.36  0.001918929    2.653    0.623
       196  -8.5689    183.9751     65.6877   4.2893175953e+01   3.0581218815e+01    0.2216105   0.08571951  42.56 0.0007045787    4.261    0.765
       197  -9.3389    136.5322     56.6694   4.8867448247e+01   4.3031739433e+01      0.25304    0.1453709 -28.15 0.0008423399    1.992    0.498
       198 -10.4761    134.7110     64.3480   5.1616133219e+01   4.2247751179e+01    0.3337163    0.2799124  57.97 0.0006033619    1.156    0.135
       199 -10.3556    132.0750     60.2087   5.0935651232e+01   4.3536919011e+01    0.4596671    0.3191472  29.17  0.001549991    1.794    0.443
       200  -9.4357    175.2780     62.4597   4.3404806650e+01   3.3039198025e+01    0.3501799    0.1948792 -33.77  0.001617389    1.841    0.457
       201 -10.1669    193.7883     60.8493   4.0291908011e+01   2.9132593944e+01    0.3958331    0.1893636 -40.14  0.001088183    1.905    0.475
       202  -9.8388     65.0611     62.0382   7.2085886590e+01   5.7460332929e+01    0.4291995     0.242566  34.14  0.001957006    1.748    0.428
       203  -8.8606    228.9260     62.3243   3.6442930605e+01   2.1679901367e+01    0.1614595    0.1391969 -74.05  0.000299801    1.115    0.103
       204 -10.6815    153.9509     60.7257   4.6597953406e+01   3.8273117425e+01    0.5926515     0.282766  52.94  0.002492245    2.034    0.508
       205  -9.8097    128.0549     57.4776   5.0994546241e+01   4.4916431505e+01    0.3315564    0.2058265  63.18  0.000911408    1.665    0.399
       206  -9.9529    165.5756     51.1519   4.1916063282e+01   3.6942340852e+01    0.5047796    0.2117232  71.44  0.001879161    2.927    0.658
       207 -10.1433    160.9825     60.4907   4.5257528019e+01   3.6653166052e+01    0.3270944    0.2424594  46.86  0.001564716    1.437    0.304
       208 -11.2231    160.8503     54.5559   4.3630147297e+01   3.7567034314e+01    0.3393585    0.2613711 -49.90 0.0003585538    1.283    0.221
       209  -9.4857     72.1713     60.7279   6.8862573992e+01   5.6440771370e+01    0.3325651    0.2150803  42.25 0.0009352202    1.541    0.351
       210  -8.8105     16.1051     59.8018   9.3804449379e+01   6.4146733858e+01    0.1763668    0.1697772 -38.44  0.000536007    1.209    0.173
       211  -9.9971    143.9410     58.9113   4.8011956336e+01   4.0925653052e+01    0.3771445    0.1808783  50.57  0.001118944    2.026    0.506
       212 -10.0158    103.0167     58.7165   5.7887636263e+01   5.0476563241e+01    0.3300042    0.2133546   7.31  0.001261125    2.534    0.605
       213  -9.4391    181.0297     56.4483   4.0976082713e+01   3.2616289030e+01    0.3204244     0.200681 -74.39  0.001521976    1.945    0.486
       214  -9.7273    167.5485     56.6545   4.3096860194e+01   3.5689885777e+01    0.2313689    0.1366459 -30.54  0.000507152    1.838    0.456
       215  -9.6415    225.8765     55.5723   3.5314482181e+01   2.3208827608e+01    0.2247429    0.1475166 -48.97 0.0004002636    1.279    0.218
       216  -9.1392    187.4542     55.9192   3.9937465168e+01   3.1245362390e+01    0.2146039    0.1690193 -89.34  0.001229867    1.266    0.210
       217  -8.3031    111.6531     56.7703   5.4825638144e+01   4.8848126334e+01    0.1458665     0.104377  30.42 0.0001644059    1.553    0.356
       218  -9.9514     93.5167     53.6754   5.8963150566e+01   5.3386687341e+01     0.437148    0.3096152  21.13  0.001315759    1.649    0.393
       219 -10.0232     61.2796     51.9643   6.9893717372e+01   5.9989147301e+01    0.3905479    0.2572733   7.63 0.0005399697    1.894    0.472
       220  -9.9749     69.6589     52.9247   6.6937225455e+01   5.8318151182e+01    0.5292696    0.3238918   1.57  0.002161115    2.649    0.622
       221 -10.4707     68.1886     48.7030   6.5879365500e+01   5.9317519961e+01    0.3146679    0.2723415 -47.19 0.0004470007    1.354    0.261
       222 -12.7299     61.8883     44.3132   6.6630931485e+01   6.1199953645e+01     0.496758    0.2859673  39.18 0.0004527638    1.651    0.394
       223 -10.2031    146.3654     52.9907   4.5779499363e+01   4.1235703037e+01    0.5062284    0.2950102 -84.18  0.001962966    2.875    0.652
       224  -9.6528    142.8528     49.1762   4.5309180504e+01   4.2624331250e+01    0.2271733    0.1894922  70.18 0.0002858074    1.145    0.127
       225  -9.9813    145.9233     46.0325   4.3792578171e+01   4.2325883126e+01    0.2604703     0.221397 -65.02 0.0003683182    1.203    0.169
       226  -9.4880    144.1300     41.1857   4.2662264240e+01   4.3405896635e+01    0.2906807    0.2458952  84.84 0.0007198611    1.153    0.133
       227  -7.9650     98.6684     54.7081   5.7766782337e+01   5.2097477924e+01    0.1483654    0.1077308  19.67 0.0002263421    1.630    0.387
       228 -10.0361    193.2199     52.5175   3.8336567053e+01   3.0445023061e+01    0.2350092     0.213674  84.43 0.0004229285    1.116    0.104
       229 -10.5843    173.5343     68.8313   4.5359657353e+01   3.2452332211e+01    0.2607448    0.2350355 -55.32 0.0003294532    1.058    0.055
       230  -9.3555    185.0123     43.9777   3.7268624625e+01   3.3433244183e+01    0.2511682    0.1943464 -22.68  0.000597403    1.550    0.355
       231 -10.5786    182.5181     48.9500   3.8852742091e+01   3.3331515783e+01    0.3589355    0.2657931 -13.94  0.001646437    1.811    0.448
       232  -9.5929    185.5703     47.5234   3.8087170751e+01   3.2834623231e+01    0.2311213    0.1871042  69.94  4.30842e-05    1.225    0.183
       233 -10.5769    175.3878     48.7783   3.9800651289e+01   3.4987602377e+01     0.340042     0.297078 -12.30  0.001304219    1.416    0.294
       234 -10.6105    127.6831     48.2810   4.8138068167e+01   4.6381383567e+01    0.3453158    0.2551648 -69.04  0.001000811    1.649    0.394
       235 -10.4898    126.0928     45.1467   4.7469778817e+01   4.7202459132e+01    0.2908114     0.230928  68.04 0.0005154422    1.232    0.188
       236  -9.7942     86.2016     49.3246   5.9698357363e+01   5.5643376216e+01    0.4580427    0.2658581  43.00  0.001691612    1.613    0.380
       237 -10.8168    153.8453     47.5140   4.2828300041e+01   4.0226665352e+01    0.3650126    0.2919893 -61.49 0.0006209752    1.273    0.214
       238 -10.0704    136.6896     49.3590   4.6579571006e+01   4.4075039955e+01    0.3048346    0.2350071  71.51 0.0003797106    1.293    0.227
       239  -8.9515    196.5737     48.9969   3.7069391639e+01   3.0191818069e+01    0.2230892    0.1637477 -88.17  0.000748915    1.363    0.266
       240 -10.3103    115.0498     46.0908   5.0334775373e+01   4.9681670004e+01    0.3841428    0.3252137   6.54  0.001378117    1.355    0.262
       241 -10.2968     23.5895     47.6620   8.6041405288e+01   6.6024290491e+01    0.4474855    0.2916645  -1.53 0.0008566695    1.580    0.367
       242  -7.7901     27.6348     42.7669   8.2079214283e+01   6.6540445481e+01    0.4165758    0.2999264  84.15  0.001902907    3.387    0.705
       243  -9.8247     16.7162     46.6899   8.9393362587e+01   6.6866927305e+01    0.3237646    0.2283548 -17.66  0.001078578    1.297    0.229
       244 -11.1690     14.5880     39.9867   8.8209183825e+01   6.8384550130e+01     0.755316    0.5227578  40.26  0.004367869    1.894    0.472
       245  -8.8432    150.7166    249.6291   8.7918528891e+01   2.0535427270e+00     0.127465   0.08570348  -7.20 0.0007016167    1.702    0.412
       246  -8.3167    235.4412     47.4304   3.2693677651e+01   2.2446837420e+01    0.1212028   0.09442616 -60.13 0.0001508281    1.040    0.039
       247  -9.6266    164.9767     46.1034   4.0626998746e+01   3.7779836374e+01    0.3227209    0.2766419  49.82  0.001897964    1.264    0.209
       248 -10.8763     79.9152     44.0674   5.9793485422e+01   5.7769287351e+01    0.5108898    0.4360078  13.11  0.002944143    1.146    0.127
       249  -8.6921     52.0104     46.7362   7.1800187124e+01   6.2461280654e+01    0.1814949    0.1587087  13.43 0.0001938739    1.070    0.065
       250  -9.0844     38.3649     47.1144   7.8307091122e+01   6.4395677113e+01    0.2201685    0.1663676   6.08 0.0005593697    1.266    0.210
       251 -10.3170     10.1468     31.5924   8.7625453192e+01   7.0360732412e+01    0.3642905    0.1920653  28.02  0.001077734    2.002    0.500
       252  -9.0634    245.0443     44.5383   3.1296805771e+01   2.1029285615e+01    0.1553009    0.1069747  77.30 0.0006642561    1.553    0.356
       253 -10.5395    122.9853     50.4728   4.9910209541e+01   4.7177889646e+01    0.8617563    0.4415976  61.37  0.003646375    1.983    0.496
       254 -10.1391    107.9438     42.6937   5.0933835136e+01   5.1815542256e+01    0.4255716    0.3162098 -19.85   0.00223438    1.526    0.345
       255  -9.5077    103.1042     39.0815   5.0897170023e+01   5.3425844561e+01    0.3356214    0.2059144 -20.66  0.001585827    1.946    0.486
       256  -8.8840     96.0548     43.5279   5.4488169674e+01   5.4395476170e+01    0.2726811    0.1827413  68.21  0.001293626    1.828    0.453
       257  -9.7557     91.2837     41.4528   5.5124062795e+01   5.5746449260e+01    0.3593914    0.3199021 -43.23  0.002101532    1.263    0.208
       258 -10.9986     96.2244     35.5888   5.1464350212e+01   5.5454701183e+01    0.5035156    0.3104711  35.86  0.001430833    1.667    0.400
       259  -8.9638     86.7961     43.1303   5.7157461714e+01   5.6471229163e+01    0.1905029     0.183147  49.05 0.0003743646    1.134    0.118
       260  -8.8979     71.4929     42.5199   6.2178064841e+01   5.9691936296e+01    0.2410825    0.1679938  11.60 0.0006218191    1.671    0.402
       261 -10.9238    228.1296     39.8955   3.1774452845e+01   2.4822951693e+01    0.3807367    0.3558283 -60.43  0.002784436    1.241    0.194
       262 -10.0096    222.6678     40.7831   3.2452022095e+01   2.5794470121e+01    0.2280778    0.2022775 -71.00 0.0003882772    1.122    0.109
       263 -10.0724    203.0611     40.1643   3.4249630940e+01   2.9945442853e+01    0.3602688    0.2703092  -1.42  0.001724662    2.111    0.526
       264 -11.5715     52.7725     38.2270   6.7955132062e+01   6.3772456794e+01    0.5719061      0.28525  22.95 0.0004124214    2.569    0.611
       265  -9.9447     48.8824     33.7281   6.7739116604e+01   6.5129647452e+01    0.7323219     0.261138  39.76  0.002961139    2.658    0.624
       266 -10.9009     48.2197     26.9632   6.4964913532e+01   6.6248606804e+01    0.6413664    0.3045548  34.88 0.0005851489    1.971    0.493
       267 -10.5091     50.3416     22.2028   6.1766665530e+01   6.6535185709e+01    0.3151783     0.219215 -14.94 0.0008476917    1.474    0.321
       268  -9.1674     34.1527     41.7929   7.8307107553e+01   6.5930946724e+01    0.2998216    0.1650855  16.46   0.00144611    1.975    0.494
       269  -9.7766    127.2870     39.7258   4.5447462631e+01   4.7647687782e+01    0.4452676    0.2344969  68.04  0.001936476    1.999    0.500
       270 -11.7292     40.1596     39.4784   7.4350419545e+01   6.5526580867e+01    0.2258533    0.1890651 -13.31 0.0003013193    1.065    0.061
       271 -10.4708    160.0137     38.6782   3.9324344011e+01   3.9926983116e+01    0.6405618    0.2255616  54.33  0.002499049    2.673    0.626
       272  -9.1594    121.0428     39.1199   4.6581630742e+01   4.9219151277e+01    0.2099513    0.1921833  70.65 0.0005114709    1.060    0.057
       273 -10.9948    118.0882     33.0940   4.5181395149e+01   5.0685182004e+01    0.8308683    0.4432993  26.64 0.0009371475    3.085    0.676
       274  -9.8565    112.6885     33.4674   4.6517524816e+01   5.1919550082e+01    0.3876626    0.2599922 -12.22 0.0007153138    1.878    0.468
       275  -9.9344    178.2946     37.2375   3.6406863798e+01   3.5830334710e+01    0.3545865    0.2357579  55.95  0.001392014    1.555    0.357
       276  -8.8306    149.2032     38.3976   4.0956988974e+01   4.2545747528e+01    0.2614762    0.1165357  59.74  0.001116475    2.031    0.508
       277  -8.8173    136.7374     37.6441   4.2923178404e+01   4.5642672582e+01    0.2029977    0.1585429  65.85 0.0003293895    1.183    0.154
       278  -9.0062    139.9903     36.5056   4.1976397322e+01   4.5001702810e+01    0.2263273    0.1656877  86.26  0.001192925    1.449    0.310
       279 -10.4805     79.9015     31.8961   5.4918238807e+01   5.9507266749e+01    0.5009713    0.3155167  31.71  0.001202226    1.608    0.378
       280 -10.4301     73.9992     36.2720   5.8724575249e+01   6.0126997091e+01    0.4340927    0.3357691 -24.26  0.001242018    1.351    0.260
       281  -9.4572     71.1515     29.8090   5.7016207971e+01   6.1589767354e+01    0.2764274    0.2612595  74.42  0.000906134    1.330    0.248
       282  -8.3964     57.0173    248.9964   1.0805151548e+02   1.4380819480e+01    0.1371256    0.1141221  52.50 0.0009245505    1.028    0.027
       283 -10.2235     86.9867     34.4180   5.3702492722e+01   5.7655266468e+01    0.4558177    0.3014055  -6.03   0.00223648    1.934    0.483
       284  -9.6727    131.4644     35.6764   4.3300409849e+01   4.7160359361e+01    0.4339332    0.2679638 -63.08  0.001178632    2.081    0.519
       285 -10.1636    133.5013     30.2414   4.1183570258e+01   4.7324404178e+01    0.4853467    0.2687547 -14.35  0.002150029    2.560    0.609
       286  -8.4213    185.5037     35.4802   3.5082256343e+01   3.4405003317e+01     0.132043    0.1101254 -73.31 3.929684e-05    1.065    0.061
       287  -8.6829    163.4524    246.4884   8.4832770155e+01   8.6148283720e-01    0.1265603    0.1014836  10.29 5.091884e-05    1.035    0.033
       288  -8.9586      1.4564    244.0287   1.1917490444e+02   2.1105745057e+01    0.1574398   0.09473116  89.21 0.0004221783    1.534    0.348
       289  -9.0397    110.8959     23.5357   4.3388524275e+01   5.3494512781e+01    0.2407907    0.1116866  56.67 0.0005684395    1.840    0.457
       290  -9.8722    246.5931    238.8181   6.8081778881e+01  -8.0064952881e+00    0.2175134    0.1389373 -26.90  0.001488388    1.347    0.258
       291  -9.0240    146.2894    242.3130   8.7853096556e+01   3.8718772023e+00    0.1271521   0.08912864  -4.03 0.0002985805    1.586    0.370
       292  -9.6580     60.6870     33.8864   6.2747052099e+01   6.3044716724e+01    0.3483049    0.2440672  11.07   0.00186121    1.547    0.353
       293  -8.4367     61.2882     29.6686   6.0655613006e+01   6.3533324086e+01    0.2015205     0.131902 -32.60 0.0006216853    1.615    0.381
       294  -9.6766     14.6763     18.3923   7.8908954197e+01   7.2217647379e+01    0.3628581    0.1779295   7.03  0.001104067    2.538    0.606
       295  -8.7665     18.5066     34.5207   8.3841785330e+01   6.9052842790e+01    0.1977416    0.1369615 -28.25 0.0007135208    1.245    0.197
       296  -8.5628    188.6917    239.6701   7.8717623658e+01  -1.3802777735e+00    0.1291242   0.08098982  -4.68 0.0007040042    1.663    0.399
       297 -10.1551     20.6155     19.6469   7.5870852253e+01   7.1346449453e+01    0.2351761    0.2152874   1.41 0.0001044835    1.327    0.246
       298  -8.7848    242.0982     34.3538   2.9515667607e+01   2.2836770814e+01    0.1524833    0.1212645 -70.74 0.0003179285    1.092    0.084
       299 -10.0324    227.1210     33.0520   3.0428861793e+01   2.5865534397e+01    0.1945832    0.1489417 -61.16  0.001310925    1.055    0.052
       300 -10.5650    234.2232     30.3733   2.9315850901e+01   2.4803356457e+01    0.3577749    0.2206673  52.31  0.001322524    2.156    0.536
       301  -9.5024    145.7122     34.1371   4.0271605452e+01   4.3914685057e+01    0.3021108    0.1733064  56.90 0.0008213437    1.606    0.377
       302  -8.3225    208.2860     33.6292   3.2227653433e+01   2.9645700608e+01    0.1350828   0.07543457 -60.97 0.0005868156    1.708    0.414
       303 -10.4872    152.9804     31.9572   3.8476852911e+01   4.2430952312e+01    0.2442675    0.2015111 -79.38     0.001439    1.182    0.154
       304  -9.5696     55.1241     31.7436   6.4110660583e+01   6.4363508609e+01    0.2720041    0.1733174 -22.56 0.0006842845    1.653    0.395
       305 -10.0612     42.9042     15.4685   6.1792910694e+01   6.8681567698e+01    0.3145953    0.1760484  38.26  0.001104715    1.585    0.369
       306  -8.3125    228.3519    234.3054   7.0460680110e+01  -5.4257796091e+00    0.1246518   0.07220849  -4.37 0.0004521966    1.709    0.415
       307  -8.9806    221.5420    233.4696   7.1534256629e+01  -4.5214490430e+00      0.12017   0.09130069  -4.34 0.0001004676    1.005    0.005
       308  -8.7768     32.0184    232.3218   1.1223757537e+02   2.0545230357e+01    0.1696861    0.1332836  49.05 0.0004078788    1.093    0.085
       309  -9.1916     34.4816     31.5269   7.3761057829e+01   6.7664083727e+01    0.1914972    0.1149951  30.11 0.0001555054    1.583    0.368
       310  -9.5815    187.4892    230.4920   7.7509909034e+01   2.0465709621e-01    0.2333546    0.1059016  20.99  0.001038942    2.385    0.581
       311  -8.3909    207.4379    226.4932   7.2984132077e+01  -1.7759504387e+00    0.1262292   0.09710142  -4.11 0.0001170908    1.049    0.047
       312 -10.6313     36.9233     26.8258   7.0337626894e+01   6.8058704926e+01    0.4153002    0.2860896   8.37   0.00156091    1.418    0.295
       313  -9.1047     34.7121     22.7117   6.9498133429e+01   6.8999790709e+01    0.2489688    0.1595343  -7.77 0.0001745105    1.675    0.403
       314  -8.7385    159.6976     31.9635   3.7490574472e+01   4.0827504126e+01    0.1845651    0.1661961 -80.78 0.0006937617    1.037    0.036
       315  -9.5419    141.6900     31.6534   4.0193493280e+01   4.5182150903e+01    0.2544992     0.203427  27.79  0.001430347    1.515    0.340
       316 -10.6196    146.3318     28.7927   3.8574527446e+01   4.4397047737e+01    0.3194654    0.2610954  74.95 0.0002913086    1.110    0.099
       317 -10.1724    248.1895     30.2176   2.8273817143e+01   2.2212756310e+01    0.2445307    0.1531557 -43.76 0.0009085288    1.329    0.248
       318  -9.2852    124.9204     30.4112   4.2860811290e+01   4.9371549049e+01    0.2367635    0.2039391  -9.08 0.0009041744    1.352    0.260
       319  -8.5865    190.4838     28.5492   3.2826569328e+01   3.4118952836e+01    0.1270389    0.1071528 -75.70 0.0002358131    1.014    0.014
       320  -9.7545    222.6163     26.6121   2.9444502651e+01   2.7526967282e+01    0.2722198    0.1564038  58.47  0.001566129    1.996    0.499
       321  -9.9852    212.9122     26.2571   3.0170125606e+01   2.9551418020e+01    0.2516583    0.1851462  54.87 0.0008060721    1.647    0.393
       322  -9.6722    204.5426     24.9528   3.0614975903e+01   3.1465512392e+01    0.3461805    0.1786856 -43.28  0.001872309    1.713    0.416
       323 -10.0353    204.9271     20.9096   2.9668897255e+01   3.1839130489e+01    0.4072624    0.1997726 -73.36  0.001993144    2.247    0.555
       324  -9.1294    161.5297     26.6999   3.5774399828e+01   4.1003316744e+01    0.2366955    0.1607626  69.89 0.0006250166    1.341    0.255
       325  -8.6829     67.5343     27.2708   5.7217256532e+01   6.2645774784e+01    0.1721558    0.1218886  -8.34 0.0005907186    1.558    0.358
       326  -9.3696    100.9538     26.1148   4.6637910078e+01   5.5535918307e+01     0.231543    0.1727093  45.90 0.0004716934    1.207    0.171
       327  -8.5649     82.8764     25.8269   5.1480896593e+01   5.9630173347e+01    0.1602238    0.1499041  79.07 0.0009937139    1.263    0.208
       328 -10.2611      1.9887     25.1207   9.0201228939e+01   7.2177287694e+01    0.2247867    0.1366603 -40.20  0.000454029    1.356    0.263
       329  -8.7023    163.3235    226.6891   8.1895189750e+01   4.1770774991e+00    0.1224465    0.1007144  54.68 0.0004212389    1.654    0.395
       330  -9.8822    232.8580     23.6001   2.8050707904e+01   2.5856333496e+01    0.3523825    0.1659619 -84.00  0.001231826    2.390    0.582
       331 -10.1052    173.5238     23.2708   3.3368707695e+01   3.8575736796e+01    0.2975778    0.2691594  71.58  0.001960818    1.164    0.141
       332 -10.5747    153.6085     22.8887   3.5776293865e+01   4.3308546422e+01    0.2331832    0.2223289 -79.46  0.000337782    1.115    0.103
       333  -8.8913    223.8870    225.1039   6.9736089836e+01  -3.6044346150e+00     0.168524    0.1412494  -1.47 0.0005548993    1.198    0.165
       334  -8.8401    132.3659    225.2497   8.8502798138e+01   8.9297506561e+00    0.1640517    0.1305273 -65.14 0.0004091891    1.591    0.371
       335  -8.4773    125.4662    225.4887   9.0110107056e+01   9.8910601285e+00    0.1344298    0.1182885  24.07 0.0001042246    1.006    0.006
       336  -9.5657     89.3149    220.7057   9.7955305567e+01   1.6028019562e+01    0.2480129    0.2216806   2.25 0.0008566342    1.244    0.196
       337  -9.1599     71.9719     14.9865   5.0212710450e+01   6.3167308194e+01    0.2157066     0.179351  59.32 0.0003703185    1.271    0.213
       338  -8.3775    117.9401    211.9888   8.9922447938e+01   1.3720997385e+01    0.1699447    0.1488581  27.52 0.0004362814    1.037    0.036
       339  -9.0593    242.6165    209.9597   6.3936325751e+01  -3.6428402270e+00    0.1703504    0.1566557 -18.27 0.0006166096    1.487    0.328
       340  -8.2977    230.5531    209.5071   6.5896274781e+01  -2.1214743238e+00    0.1251622   0.09396636 -11.13 0.0001714275    1.061    0.057
       341 -11.0879     62.1026     22.4889   5.7095301080e+01   6.4317025280e+01    0.2874981     0.234965  36.73  0.001158201    1.110    0.099
       342  -8.6684     20.9880    204.0248   1.1281286032e+02   2.7905189259e+01    0.1534852    0.1296603  72.51 0.0004974309    1.013    0.013
       343  -9.0551    221.4811    198.5555   6.5540061094e+01   7.3983439115e-01    0.1279942    0.1019574 -11.50  6.81235e-05    1.018    0.017
       344  -8.6311     96.0219    195.6910   9.2945312420e+01   2.0601477433e+01    0.2000244     0.175449  32.81 0.0004282415    1.083    0.076
       345  -9.0276      6.8082    194.7137   1.1559260401e+02   3.1331050712e+01    0.1767282    0.1555862 -29.33  0.001166654    1.473    0.321
       346  -8.3202     31.6723    181.3046   1.0822300016e+02   3.2316437988e+01    0.1443003   0.08820964  61.01  0.000553173    1.649    0.394
       347  -8.8622     21.4781    181.0232   1.1090351034e+02   3.3363575718e+01    0.1962162   0.08086329 -52.38 0.0008102769    2.600    0.615
       348 -10.3745    220.1736     20.5433   2.8356642071e+01   2.8711697563e+01    0.3044922    0.2319567  60.46  0.001537067    1.557    0.358
       349  -9.7534    217.1849     17.4669   2.7931936393e+01   2.9659539613e+01    0.2326232    0.2047726 -26.99 0.0009559548    1.453    0.312
       350  -9.7366      9.0804    179.0405   1.1398370344e+02   3.4907903591e+01    0.2483338    0.1775644  86.03 0.0004142821    1.234    0.190
       351  -8.6642    116.7767     22.4377   4.1775246613e+01   5.2213859740e+01    0.1784691    0.1088339  51.54  0.000275757    1.467    0.319
       352  -8.8316    188.3500     21.3300   3.1297269855e+01   3.5413510446e+01    0.1765723    0.1378531  40.10 0.0007148567    1.690    0.408
       353  -9.5574      6.0060    174.9049   1.1448710635e+02   3.6160746006e+01    0.2211596    0.1665819  56.71 0.0004289414    1.251    0.200
       354  -8.9759     18.1916    174.4544   1.1121564094e+02   3.5285397030e+01    0.2311418    0.1340453  14.79  0.001139384    2.103    0.525
       355 -10.3107      7.4322    166.2441   1.1345950563e+02   3.8203959317e+01    0.2452661    0.1765006  21.11 0.0005966517    1.592    0.372
       356  -9.4464     15.4419    165.4144   1.1117664161e+02   3.7788748809e+01    0.1308228    0.1152637  89.62 4.483815e-05    1.014    0.014
       357 -12.5509     40.8568    161.8539   1.0348223500e+02   3.6291214884e+01    0.7656042    0.3630543  55.82 0.0008423386    2.523    0.604
       358  -9.9788     24.6796    163.0158   1.0832722141e+02   3.7602382429e+01    0.2259031    0.1941808  40.15 0.0002170648    1.220    0.181
       359  -9.6864      8.1289    161.8557   1.1291428848e+02   3.9255679219e+01    0.1949006    0.1538952  72.75  0.000300039    1.173    0.147
       360  -9.3719    199.4591     18.7817   2.9660640000e+01   3.3247358904e+01    0.2581882    0.1175308 -28.81  0.001057909    2.422    0.587
       361  -9.3546    193.2464     20.0548   3.0520444991e+01   3.4466060520e+01    0.1657347    0.1550187  88.67 0.0003346073    1.203    0.169
       362 -10.7045      1.9450    157.9161   1.1433208224e+02   4.0679964421e+01    0.5733754    0.1574015 -69.46  0.002199253    2.817    0.645
       363  -9.3183      9.7105    157.8249   1.1212449193e+02   4.0160174337e+01    0.2517717     0.138675  38.20  0.001268411    1.835    0.455
       364 -12.0467     30.4830    154.5120   1.0566814936e+02   3.9254135450e+01    0.7547729    0.4607081  62.28  0.003430651    1.805    0.446
       365 -10.0642    237.5938     17.7121   2.6560620554e+01   2.5611712026e+01    0.2313055     0.196308  -6.98  0.000954832    1.814    0.449
       366  -9.7443     26.2267     22.5038   7.4009802461e+01   7.0204840907e+01    0.2476951    0.1488182 -29.40  0.000588769    1.568    0.362
       367  -9.3555    248.8938    153.9006   5.2661311056e+01   4.0824741184e+00    0.1941909    0.1416412 -19.13 0.0006106584    1.272    0.214
       368  -9.7383     19.1385    153.8537   1.0899254735e+02   4.0439004901e+01    0.2039754    0.1639997 -62.38  0.001180592    1.177    0.150
       369  -8.5873     93.3812     18.2227   4.5479403764e+01   5.8128794983e+01    0.2928599    0.1590718  85.26  0.001100399    3.597    0.722
       370  -8.5662    206.4954     13.4302   2.7875338733e+01   3.2314159147e+01    0.1710438   0.09642592 -83.90 0.0005120999    1.693    0.409
       371 -11.3890     20.5525    149.6051   1.0810988013e+02   4.1419862805e+01    0.4717612    0.4148554 -68.12  0.002862027    1.074    0.069
       372 -11.3887     10.1763    146.6487   1.1095197533e+02   4.2986369121e+01    0.5377355    0.2801302 -48.09  0.001611886    1.956    0.489
       373 -10.1539     11.4868    151.4733   1.1102605913e+02   4.1651515908e+01     0.245379    0.2121569 -81.35 0.0007437305    1.016    0.016
       374  -9.6292     14.5384    150.5047   1.1002157126e+02   4.1670308309e+01    0.2298724    0.1926899  60.56 0.0006042196    1.200    0.166
       375  -8.6332     62.2496    144.9988   9.4393894445e+01   3.8089635401e+01    0.2096384    0.1807516 -57.60 0.0005604635    1.114    0.102
       376  -9.2203      4.1096    144.8246   1.1261274173e+02   4.3863678049e+01    0.2413082    0.1739354 -31.34  0.001360488    1.630    0.387
       377  -9.2842    239.0153    141.2407   5.1623688456e+01   7.5694438053e+00    0.1541281    0.1268245  64.91  0.000491478    1.692    0.409
       378  -9.1758     38.1763    143.1309   1.0177091333e+02   4.1458517141e+01    0.2049235    0.1791126 -49.40 0.0003003487    1.143    0.125
       379  -9.8936     15.8785    142.8641   1.0880421436e+02   4.3543296777e+01    0.2003678     0.167992 -55.08  0.001184379    1.170    0.145
       380  -9.3269      1.7323    139.6761   1.1287032112e+02   4.5327537709e+01    0.2753189    0.1590605 -89.89  0.001392227    1.619    0.382
       381  -8.3008     47.7004    139.2859   9.8095931666e+01   4.1415170234e+01    0.1458585    0.1066713  65.64 0.0001840396    1.553    0.356
       382  -9.6881     88.7783     13.4548   4.4728776980e+01   5.9644252153e+01    0.3769239    0.1247467  62.83  0.001405225    2.982    0.665
       383  -9.6714     40.8756    138.1487   1.0014671793e+02   4.2480407524e+01    0.2300837    0.1910789  70.99  0.001243248    1.275    0.216
       384  -9.1827    230.6897    136.9651   5.2005476167e+01   9.5922336580e+00    0.1878589    0.1483005 -35.16 0.0006238552    1.059    0.056
       385  -8.9317    235.9450    136.5394   5.1130458385e+01   8.8203634250e+00    0.1640119    0.1285222  41.67 0.0005020807    1.526    0.345
       386  -8.8607     82.8847    136.0542   8.6133410750e+01   3.7337689341e+01    0.2262615    0.2061352  79.67  0.000383701    1.192    0.161
       387  -9.2700     58.1362    135.7135   9.4050528106e+01   4.1057178390e+01    0.2519942    0.2175287 -32.11 0.0003940102    1.217    0.179
       388  -9.9511     60.6821    131.3370   9.2377169803e+01   4.1857060412e+01    0.3536954     0.282419   2.80  0.001776884    1.448    0.309
       389  -8.9785    249.0000    133.9806   4.8770471203e+01   7.2162670937e+00     0.211239   0.05806329 -38.81 0.0005165412    2.913    0.657
       390 -11.2528      7.4728    133.1443   1.1041549133e+02   4.6651924016e+01    0.5852944    0.4559739  57.19  0.003437726    1.357    0.263
       391  -9.6115     12.3838    127.8680   1.0819506957e+02   4.7690540897e+01    0.4319732    0.1220717 -61.32  0.001610425    2.639    0.621
       392  -8.8670     30.6298    132.4556   1.0268146409e+02   4.5008809218e+01    0.2722773    0.1538887  75.26  0.001131902    2.362    0.577
       393  -8.9587     42.5238    130.0428   9.8272790807e+01   4.4427728531e+01     0.210236    0.1992395  19.24 0.0005197485    1.141    0.123
       394 -11.0413     18.6740    126.5392   1.0589365712e+02   4.7576961433e+01    0.3737867    0.2035619 -55.43  0.001785432    1.609    0.378
       395 -10.0417     56.0824    126.6350   9.3011438876e+01   4.3687931060e+01    0.4127687      0.21095 -65.69  0.001502684    1.985    0.496
       396 -11.1577     50.5272    126.4257   9.4878917900e+01   4.4442755841e+01    0.3440705    0.2782158  46.20 0.0001242933    1.325    0.245
       397 -10.2187     38.5783    123.9759   9.8589503699e+01   4.6439184727e+01    0.5653178    0.2983434   3.48  0.002235391    2.754    0.637
       398  -9.5246     32.7116    123.3516   1.0054354632e+02   4.7193131888e+01    0.2175733    0.1933212  85.35 0.0006533717    1.167    0.143
       399  -8.9486    241.4856    124.0764   4.7817478234e+01   9.9657038900e+00     0.203345    0.1040158 -39.46  0.001031073    1.590    0.371
       400 -11.9515     61.9323    121.0408   8.9846559372e+01   4.4341379354e+01    0.3900988    0.2669377 -43.26  0.001829161    1.440    0.306
       401 -10.4727      7.6962    122.5694   1.0914465707e+02   4.9366438399e+01    0.4025693    0.2266273 -38.15  0.001973939    1.886    0.470
       402  -8.8587     84.4463    122.1109   8.2517479809e+01   4.0582816413e+01    0.2432561    0.1468242 -51.32  0.001025887    1.602    0.376
       403 -10.5821     44.8770    119.6571   9.5569487288e+01   4.6870574600e+01    0.3651409    0.2868681  32.30 0.0009929137    1.354    0.261
       404 -11.6629     21.6917    119.0253   1.0376293751e+02   4.9293164031e+01    0.5763866    0.4222539  48.22  0.001090585    1.521    0.342
       405  -9.0743     29.2588    120.4662   1.0129085556e+02   4.8269336018e+01    0.3976015    0.1673696 -66.50 0.0009403862    2.122    0.529
       406  -9.8290     28.2239    114.6315   1.0068660622e+02   4.9876305546e+01    0.4071354    0.1457025 -55.85  0.001290339    2.276    0.561
       407 -11.0372     21.1160    109.0940   1.0239074676e+02   5.1900788719e+01    0.7217979    0.3491315 -70.41  0.002816255    1.925    0.481
       408 -10.4126     14.7995    107.1490   1.0446120612e+02   5.2865081159e+01    0.5959375    0.3749726 -79.76  0.003014271    1.582    0.368
       409  -9.4872     13.9580    113.5129   1.0573517524e+02   5.1292643910e+01    0.2271961     0.194842  74.81 0.0005775619    1.254    0.202
       410 -10.5784     11.3962    117.0218   1.0714827599e+02   5.0561068681e+01    0.7466201     0.329387  80.82  0.002303572    3.583    0.721
       411 -10.2874      2.9331    108.9989   1.0915258566e+02   5.3111690353e+01    0.6068232    0.2574557  36.59  0.002687669    2.634    0.620
       412  -9.8662    221.5826    119.2892   4.9680943105e+01   1.4124659606e+01    0.2679856    0.2382377  30.00  0.000723241    1.310    0.237
       413  -8.6428     94.0588    118.9746   7.8680276606e+01   3.9664665526e+01    0.2449042    0.1870365 -14.19 0.0006797099    1.610    0.379
       414  -9.4614     38.0602    118.6073   9.7815554369e+01   4.7890512247e+01    0.2595495    0.2306007 -26.40  0.001427851    1.167    0.143
       415 -10.0853      3.6679    117.0443   1.0988143867e+02   5.1020713933e+01    0.4169633    0.2070123 -66.20  0.002009546    1.642    0.391
       416 -10.6972     33.1984    114.6132   9.8856330961e+01   4.9415533615e+01    0.6588672    0.2605611 -68.27  0.002349276    2.475    0.596
       417  -9.5152     71.1943    116.5654   8.5643706502e+01   4.4113737240e+01    0.2979125    0.1378869  38.32  0.001131198    2.199    0.545
       418  -8.3870    104.0548    114.9839   7.4576688290e+01   3.8738780744e+01    0.1836854     0.180164  -4.45 0.0003231038    1.011    0.011
