#   1 NUMBER                 Running object number                                     
#   2 MAG_AUTO               Kron-like elliptical aperture magnitude                    [mag]
#   3 X_IMAGE                Object position along x                                    [pixel]
#   4 Y_IMAGE                Object position along y                                    [pixel]
#   5 X_WORLD                Barycenter position along world x axis                     [deg]
#   6 Y_WORLD                Barycenter position along world y axis                     [deg]
#   7 A_WORLD                Profile RMS along major axis (world units)                 [deg]
#   8 B_WORLD                Profile RMS along minor axis (world units)                 [deg]
#   9 THETA_WORLD            Position angle (CCW/world-x)                               [deg]
#  10 FWHM_WORLD             FWHM assuming a gaussian core                              [deg]
#  11 ELONGATION             A_IMAGE/B_IMAGE                                           
#  12 ELLIPTICITY            1 - B_IMAGE/A_IMAGE                                       
         1 -13.5172    205.3852     51.8493   1.4597434120e+01   2.9444085720e+01     0.928447    0.8007168  29.11  0.004709132    1.672    0.402
         2 -12.8753    238.2373     24.3176   6.6373781857e+00   2.6988140125e+01    0.7087688    0.5420509 -49.17   0.00431839    1.105    0.095
         3 -12.8758    211.8955     46.7325   1.2921918539e+01   2.8912355390e+01    0.6183253     0.472646 -35.69  0.001501434    1.254    0.202
         4 -11.4504     12.5879      9.8197   5.2015187837e+01   7.7567669880e+01    0.4632197    0.1748202  37.19  0.001230551    2.403    0.584
         5 -11.2384      6.9872      8.9418   5.7071342417e+01   7.8492885881e+01    0.3689513    0.1891204  37.88  0.001485386    1.915    0.478
         6 -11.1543      2.0000      7.9673   6.2033299171e+01   7.9256486974e+01     0.667878    0.1523707 -53.69  0.002335532    4.274    0.766
         7 -10.7174      2.2660      2.8277   5.7816411577e+01   8.0155540133e+01    0.4518127    0.2237018 -47.69  0.002286241    2.127    0.530
         8 -11.2781      8.2016     24.9329   6.5427470840e+01   7.5227218016e+01    0.3706303    0.2264244 -36.90  0.001391735    1.631    0.387
         9  -9.6247    101.0090    250.4668   7.1232477922e+01   1.0359332428e+01    0.1691304    0.1170498  17.55  0.001073396    1.143    0.125
        10  -9.1016     51.4733    250.4906   8.2671867017e+01   1.5066644860e+01    0.1216933    0.0969446  24.32 4.207887e-05    1.030    0.029
        11 -15.7456     69.4223    148.8686   6.6875986549e+01   3.6039229910e+01     14.19115     7.594986  80.50   0.04507195    3.859    0.741
        12  -8.7306    215.2957    227.9354   4.6134231204e+01   2.7327945514e+00    0.1464001    0.1007168 -19.47 0.0007425458    1.111    0.100
        13 -11.8055     98.4039    225.4257   6.9202128493e+01   1.5094963693e+01    0.7606153    0.6096076 -21.93  0.004788734    1.292    0.226
        14  -9.8613     72.1195    224.7217   7.5616408177e+01   1.8047496329e+01    0.2098302    0.1741056  22.52 0.0005261654    1.013    0.013
        15 -10.3915    174.0789    223.6234   5.2642550120e+01   7.2152597309e+00     0.355989    0.1633473   1.50  0.001535301    3.382    0.704
        16 -10.4057    110.1608    222.9069   6.6111593639e+01   1.4267098694e+01    0.2133081    0.1671427 -35.62 0.0007622632    1.349    0.259
        17  -9.8785     67.1239    220.8414   7.6528281928e+01   1.9358526444e+01    0.1849458    0.1782658 -86.52  0.000459518    1.222    0.181
        18 -11.3700     87.9836    222.4903   7.1420461033e+01   1.6800254100e+01    0.6807688    0.5215874  43.04  0.004105641    1.343    0.255
        19 -15.3186     46.4632    179.0404   7.8268457574e+01   3.1120438665e+01     6.115889     2.953074 -69.93   0.02596412    2.191    0.544
        20  -8.8239    144.3510    212.1615   5.6965372008e+01   1.2297931099e+01    0.1557175    0.1162396 -53.94 0.0009347218    1.676    0.403
        21 -10.6474    125.3551    238.7860   6.4583545386e+01   9.8506197187e+00    0.2598018    0.1658935 -45.08 0.0008419487    1.726    0.421
        22 -10.0578    146.9100    243.3623   6.0608426173e+01   6.9505229342e+00    0.1724201    0.1542524 -25.47 0.0006532004    1.372    0.271
        23  -9.8560    210.9930    198.6509   4.2429641521e+01   7.0911704178e+00    0.1898271    0.1338069 -31.69 0.0004821419    1.252    0.201
        24  -9.8705    191.9942    192.9719   4.4685411979e+01   9.9670900091e+00    0.3372562    0.1919975 -62.23  0.001266381    5.747    0.826
        25 -11.2320     68.9567    193.7104   7.3237227110e+01   2.5089563083e+01    0.3415943    0.2410692  71.83 0.0008313598    1.767    0.434
        26 -15.8934     22.2455    172.6529   8.5337846206e+01   3.5049908641e+01     8.449394     3.250354  82.81   0.01320996    3.468    0.712
        27 -10.1389     45.7228    241.3760   8.3473692503e+01   1.7305181895e+01    0.2139191    0.1559072 -66.57  0.001347596    1.658    0.397
        28  -9.1666    207.5186    189.5322   4.1522488541e+01   8.7683250738e+00    0.1155305   0.08748002 -17.27 0.0008094346    1.019    0.019
        29 -10.1108     72.4163    187.1965   7.1476224991e+01   2.6191479083e+01    0.6119838    0.2946492  61.52  0.002130635    3.582    0.721
        30 -11.3506     43.5661    236.8416   8.3718415620e+01   1.8388492563e+01    0.3108611    0.2056397 -79.66  0.001077072    1.832    0.454
        31  -9.8140    141.7609    182.9921   5.2978281970e+01   1.7941915590e+01    0.1696593    0.1057037 -44.95 0.0004199604    1.589    0.371
        32 -10.5828    116.3161    181.8590   5.8836597667e+01   2.1647444274e+01    0.2442105    0.1782563  33.97  0.001305682    1.335    0.251
        33 -10.9301    172.9520    176.6834   4.5411078101e+01   1.4928474138e+01    0.3068336    0.2604806 -50.13  0.001733056    1.432    0.301
        34  -9.4860     63.0223    181.0152   7.3462287272e+01   2.8782688595e+01    0.2093366    0.1960863  36.68 0.0005543856    1.034    0.033
        35  -9.5603     81.0315    179.1001   6.7933262013e+01   2.7012775473e+01    0.2490485    0.1888675  16.12 0.0008963496    1.284    0.221
        36 -10.0127     96.7156    175.1776   6.2930759245e+01   2.5817815490e+01    0.2374181    0.2106471  16.34 0.0003167479    1.054    0.051
        37  -9.4962     75.2320    175.7933   6.9159279926e+01   2.8544674476e+01    0.2057102    0.1787899  48.18 0.0004196047    1.167    0.143
        38 -10.8543     47.1443    229.1452   8.2314501740e+01   1.9613699966e+01    0.2292899    0.1976578  53.69 0.0009597609    1.189    0.159
        39 -10.5000    105.0183    172.4566   6.0233436811e+01   2.5264115604e+01    0.3227864    0.2611096 -56.31 0.0008920853    1.333    0.250
        40 -10.6057    100.6478    168.1563   6.0705272243e+01   2.6861141500e+01     0.544695    0.3687466 -37.32  0.001863374    1.565    0.361
        41 -11.4208    179.7992    168.8768   4.2738407695e+01   1.5356938679e+01    0.5253556    0.3530347 -36.04  0.003118819    1.307    0.235
        42  -8.8746    118.5004    170.4910   5.6379997443e+01   2.3746969887e+01    0.1388575    0.1306871   8.21 -0.0002293045    1.053    0.051
        43 -10.1250    110.7137    166.6436   5.7725497061e+01   2.5728443050e+01    0.2325497    0.2055944 -53.91 0.0007206275    1.213    0.175
        44  -9.0810    116.3974    164.7003   5.5894341615e+01   2.5307800595e+01    0.1942932    0.1277066 -40.84 0.0009367386    1.529    0.346
        45 -11.4135    238.3581    162.4123   3.2518978323e+01   9.2654368694e+00    0.2703277     0.165925   4.50  0.001283659    2.103    0.524
        46 -10.3721     48.8583    161.5598   7.5531830258e+01   3.5335602360e+01    0.7119884    0.3082433  65.44  0.002143003    4.153    0.759
        47 -14.4435     29.7499    248.2108   8.7676785747e+01   1.7369731482e+01     1.612985    0.6704048  35.41  0.008353458    1.764    0.433
        48 -10.5175     95.6633    160.7435   6.0840219405e+01   2.9307727114e+01     0.338272    0.2588767 -82.22  0.001147472    1.667    0.400
        49  -9.5335    128.1910    160.5215   5.2159351429e+01   2.4408128338e+01     0.292722    0.2282093 -75.10  0.001393818    1.753    0.429
        50  -8.5056    117.6586    159.2674   5.4573965293e+01   2.6301162547e+01     0.139967    0.1102806  60.64 0.0002539192    1.602    0.376
        51  -9.0709    114.6523    153.9088   5.4347431379e+01   2.7953661716e+01    0.1979822    0.1808439 -49.44 0.0005155565    1.137    0.120
        52 -10.7859    134.0000    147.9899   4.8311890484e+01   2.6105581844e+01    0.4641615    0.2058344 -52.87  0.001828041    2.426    0.588
        53 -11.2449    132.7081    144.2588   4.7858507034e+01   2.7095910736e+01    0.8233349    0.2647048 -49.19  0.002818352    3.070    0.674
        54 -10.5474     80.5846    150.5515   6.3577365937e+01   3.4011046420e+01    0.2679645    0.2517664  -8.04 0.0003537539    1.085    0.078
        55 -11.9560     87.1534    145.4195   6.0597877851e+01   3.4289440906e+01    0.6374887    0.5075357 -37.29  0.001086985    1.318    0.241
        56  -8.9407     43.0152    149.0168   7.5940322998e+01   3.9325495741e+01    0.1952305    0.1886858  63.51   0.00108175    1.023    0.023
        57 -10.9195     36.7434    142.9519   7.7421041054e+01   4.1652091773e+01    0.6514056    0.3955616  66.24  0.002559063    1.902    0.474
        58 -10.1458     31.0935    143.9116   7.9616661370e+01   4.1957958569e+01    0.3730893    0.2697354 -29.66  0.001190036    1.585    0.369
        59 -10.7894    108.9655    145.3126   5.4197148301e+01   3.0812234822e+01    0.3035294    0.2797737  12.27 0.0006590672    1.072    0.067
        60 -10.2739    147.0275    142.7989   4.4268856115e+01   2.5018105810e+01    0.2371891     0.187263 -41.45 0.0003524766    1.194    0.162
        61 -11.8401    105.1157    132.0615   5.2506471165e+01   3.4521228599e+01    0.6787585    0.6364384 -39.53  0.003307284    1.060    0.056
        62 -10.9122    110.7194    127.1268   4.9826505346e+01   3.4658623426e+01    0.4928325    0.2788636 -28.63  0.001873657    2.532    0.605
        63 -10.9179     45.2683    135.5137   7.3217217860e+01   4.2736762930e+01    0.3349931     0.279253  47.60 0.0004475045    1.183    0.155
        64 -10.9457     44.0508    130.5361   7.2903873062e+01   4.4244843976e+01    0.5176086     0.346176  75.84   0.00172561    1.788    0.441
        65  -9.4920    241.8215    135.0949   2.7364023031e+01   1.2601590271e+01    0.1631743     0.116059 -42.40 0.0004991466    1.260    0.207
        66  -9.2560    127.1642    136.8848   4.7660273793e+01   2.9596759587e+01    0.2094231    0.1937539 -83.66 0.0004734028    1.248    0.198
        67 -11.6182     89.2223    132.1181   5.7299072320e+01   3.7227967087e+01    0.2890722    0.2764075 -30.12 0.0004103681    1.059    0.056
        68 -10.9189    135.4952    126.3711   4.3324715831e+01   3.0324974367e+01    0.6723838    0.1629935 -49.99   0.00184584    4.638    0.784
        69 -15.1595      9.8642    206.5224   9.0898380819e+01   2.7715141290e+01    0.8085254    0.4565738   1.58  0.002514804    2.047    0.512
        70  -9.4503    162.5286    127.4928   3.7812727320e+01   2.5337195479e+01     0.134836    0.1211492 -33.67 -0.0002176915    1.004    0.004
        71  -9.8561     43.1120    229.6399   8.3370606767e+01   1.9883975923e+01    0.3253089    0.2674463  34.64  0.001450129    1.038    0.037
        72 -15.7705      3.7459    247.0927   9.3734666521e+01   1.9591200854e+01      1.00756    0.5775619  40.76  0.006080453    1.328    0.247
        73 -10.3846     98.1925    121.6993   5.2213652766e+01   3.8178516174e+01    0.3254773    0.2604606 -24.32 0.0007950615    1.428    0.300
        74 -10.6729    116.8801    121.8195   4.6924864312e+01   3.4715472216e+01    0.2317286     0.203272 -10.31 0.0008928544    1.257    0.205
        75  -9.9335     74.9610    121.2467   5.9693344217e+01   4.2314218231e+01    0.3638943    0.3103802  36.11  0.001835295    1.153    0.132
        76  -9.8377     24.5728    119.7931   7.9177921812e+01   4.9293263985e+01    0.2844056    0.2070537  21.61  0.000732272    1.380    0.275
        77 -13.2899    130.2356    229.8408   6.2424035793e+01   1.0835793025e+01     1.975996    0.5245094  26.96  0.007743252    3.149    0.682
        78  -9.7701    107.5138    116.3099   4.8190116577e+01   3.7700581294e+01    0.2569718    0.2387817 -55.08 0.0001767864    1.075    0.070
        79  -9.8476     80.9660    220.6469   7.2979602329e+01   1.7929852349e+01    0.2649995    0.2104866  55.57 0.0005082648    1.436    0.304
        80  -8.5101     99.6884    113.2633   4.9738968200e+01   3.9875453867e+01    0.1495477    0.1186118  73.01 0.0001845306    1.536    0.349
        81 -10.2258    107.0026    233.6914   6.8108831495e+01   1.2649489212e+01    0.1890459    0.1596174   8.63 0.0004716328    1.046    0.044
        82 -11.0391     53.2566    109.1716   6.5253058192e+01   4.8838194391e+01    0.4085028    0.3339742 -12.16  0.001391976    1.402    0.287
        83 -10.4272    114.9988    108.2834   4.4118704250e+01   3.8028934242e+01    0.2088396    0.2058815  50.73 0.0007617412    1.034    0.033
        84  -9.1662     93.1706    106.2934   4.9996855732e+01   4.2734391381e+01    0.3583617     0.156548 -40.97  0.001234359    2.634    0.620
        85 -10.1308    134.1498    105.0539   3.8540221162e+01   3.4896109875e+01    0.3986962    0.1724268 -54.06  0.001429433    2.766    0.639
        86 -10.0789    112.7477    103.3975   4.3464308936e+01   3.9529263100e+01    0.2042365    0.1429223  34.15 0.0004141876    1.567    0.362
        87 -10.6321     37.0323    101.7664   7.0678768260e+01   5.2995258522e+01    0.5920192    0.2395344  27.35  0.002130782    2.360    0.576
        88  -9.7366     32.8859     96.9818   7.1624557591e+01   5.4787147646e+01    0.3429527    0.2029909  39.14   0.00125022    1.681    0.405
        89 -11.2749     56.9674     93.2588   5.9888359032e+01   5.2423430827e+01     0.670782     0.346056  56.90  0.002000077    2.792    0.642
        90  -9.2187    102.2459     90.8009   4.2977507042e+01   4.4385721415e+01    0.4549318    0.2230574 -57.00  0.001672799    2.452    0.592
        91 -10.2969     15.4574     89.4759   7.8876419923e+01   5.8538852073e+01    0.3142837    0.1411622  18.37  0.001222041    2.227    0.551
        92 -11.0466     31.4165     86.2846   7.0017922409e+01   5.7843149887e+01    0.3686846    0.2391351  38.23 0.0006134941    1.540    0.351
        93 -12.2265    108.4596    229.1707   6.7254882594e+01   1.3306186171e+01     0.903049    0.3414342  23.43  0.003979812    2.278    0.561
        94 -11.0002     52.1805     82.0711   5.8888097701e+01   5.6011587362e+01      0.68654    0.2855923  50.82  0.002167094    3.311    0.698
        95  -9.4393    184.6523     76.7031   2.2569791175e+01   2.9865713680e+01    0.1185156   0.09839666   9.02 0.0003867529    1.678    0.404
        96  -9.5905     58.6853     76.0189   5.4132905781e+01   5.6360671111e+01    0.2107283    0.1961423 -51.85 0.0003218648    1.100    0.091
        97  -9.4743     84.3199     73.1889   4.3224066350e+01   5.1910154192e+01    0.2893589     0.191169  70.54  0.001090963    2.048    0.512
        98 -11.0073    102.9115    239.0117   6.9631706736e+01   1.2135049344e+01    0.3968481    0.2128057 -40.93 0.0005894813    2.065    0.516
        99 -12.0016    189.4175     62.7526   1.8705498897e+01   3.0970239557e+01    0.3995938    0.3558967 -25.40 0.0007360814    1.297    0.229
       100 -12.1300    147.6057    228.0434   5.8492246340e+01   9.2803730333e+00     0.386612    0.3047079  15.43  0.002180615    1.157    0.135
       101  -8.8562    131.7742     57.4359   2.5745670319e+01   4.3989701106e+01    0.1848594    0.1275733  51.83 0.0006416243    1.530    0.346
       102 -17.7594      5.8818    222.0922   9.2512726142e+01   2.4536126646e+01     3.219697     2.533269  37.63   0.01860015    1.040    0.038
       103 -11.2958      8.7330     41.3267   7.1692279328e+01   7.1513077259e+01    0.4458643    0.1757465  26.15  0.001821292    2.343    0.573
       104  -9.3018     44.6235     37.7327   4.5944953485e+01   6.7119658392e+01    0.2329505    0.1616613  58.88 0.0006510273    1.677    0.404
       105 -10.3869     32.0048     37.0033   5.2992232512e+01   6.9517098156e+01    0.2123027    0.1987095  26.76 0.0003675614    1.056    0.053
       106  -9.7168     38.9696    248.8241   8.5526044593e+01   1.6476365317e+01    0.1722066    0.1305453  35.27 0.0005194916    1.075    0.070
       107  -9.5551     60.8575     21.1661   3.0022634801e+01   6.6259791604e+01    0.2102147    0.1796162  80.65 0.0006573171    1.234    0.190
       108  -9.5908     40.4671     18.4913   3.7725152173e+01   7.1156141238e+01    0.1361492    0.1217953  38.57 0.0001087974    1.002    0.002
       109  -8.9531     94.3323    247.8984   7.2490707890e+01   1.1454532077e+01    0.1963897    0.1199009 -73.60  0.001096236    2.462    0.594
       110  -9.5959     33.6594     14.6919   3.9236353976e+01   7.3095569769e+01    0.1394546   0.09646886  20.19 0.0006208842    1.687    0.407
       111 -11.4687     82.9680    245.7570   7.4911932247e+01   1.2952852118e+01    0.1839895    0.1719245  -8.82 0.0003540897    1.211    0.174
       112  -9.0718     67.8336    245.2962   7.8434715089e+01   1.4506751294e+01    0.2957534    0.1738649  70.89   0.00117972    2.515    0.602
       113  -9.1910     75.9749    245.5506   7.6531681750e+01   1.3674657781e+01    0.1670587    0.1447482 -56.98  0.000645228    1.424    0.298
       114 -10.4530    125.0492    243.8362   6.5238330699e+01   9.0547742525e+00    0.2457289    0.1613201 -42.22 0.0009161256    1.664    0.399
