#   1 NUMBER                 Running object number                                     
#   2 MAG_AUTO               Kron-like elliptical aperture magnitude                    [mag]
#   3 X_IMAGE                Object position along x                                    [pixel]
#   4 Y_IMAGE                Object position along y                                    [pixel]
#   5 X_WORLD                Barycenter position along world x axis                     [deg]
#   6 Y_WORLD                Barycenter position along world y axis                     [deg]
#   7 A_WORLD                Profile RMS along major axis (world units)                 [deg]
#   8 B_WORLD                Profile RMS along minor axis (world units)                 [deg]
#   9 THETA_WORLD            Position angle (CCW/world-x)                               [deg]
#  10 FWHM_WORLD             FWHM assuming a gaussian core                              [deg]
#  11 ELONGATION             A_IMAGE/B_IMAGE                                           
#  12 ELLIPTICITY            1 - B_IMAGE/A_IMAGE                                       
         1 -12.2434     17.9531     24.3869   1.0720650536e+02   6.9321441044e+01     0.500374    0.2834351 -68.38  0.002348781    1.951    0.487
         2 -11.7378      7.1995     18.1129   1.1057366727e+02   7.1260501223e+01    0.2463626    0.1775243 -45.69 0.0004186291    1.062    0.059
         3 -11.6481    190.2080     20.4652   5.3772775049e+01   3.4951974613e+01     0.335819    0.2627704   5.82 0.0002989524    1.482    0.325
         4 -11.0325     33.8999     18.7986   9.7164144068e+01   6.8967659308e+01    0.3457153    0.2136188 -64.55  0.001099208    2.302    0.566
         5 -10.8056    115.4124     15.8517   6.5868212728e+01   5.4970560401e+01    0.5116337    0.2323331  39.05  0.001993929    2.381    0.580
         6 -10.6307     74.2116      8.5798   7.4845977532e+01   6.4662410123e+01    0.2644528    0.1668009 -31.07 0.0009913804    1.502    0.334
         7 -12.0824     80.2013     15.5612   7.6160797674e+01   6.2579879024e+01    0.3677816    0.2869383 -29.51  0.001522154    1.231    0.188
         8 -10.0243     74.9821     12.9780   7.6762249841e+01   6.3920619620e+01     0.271594    0.2180024 -81.90  0.001088415    2.106    0.525
         9 -10.6189     43.2734     16.1771   9.1506406742e+01   6.8349019194e+01    0.3035189    0.2300989  70.92  0.001668915    2.576    0.612
        10 -12.3858     26.0941     13.3485   9.8705326943e+01   7.0740230859e+01    0.3685729    0.2850604  -1.18  0.001832487    1.359    0.264
        11 -10.0743     66.9758     11.6845   7.9123492308e+01   6.5528252485e+01    0.1806221    0.1564792  -4.72 0.0005862419    1.020    0.020
        12 -11.7326     45.2802      8.6507   8.6860831236e+01   6.9323948503e+01    0.2941199    0.2512646 -34.38  0.001984361    1.243    0.195
        13  -9.9452      7.8787     10.8675   1.0758318848e+02   7.2622646781e+01    0.1283032    0.1247425 -48.74 0.0004137851    1.333    0.250
        14 -10.1637    128.0844      8.3376   5.9788935425e+01   5.2719871494e+01    0.2314417     0.188627   9.61  0.000328333    1.259    0.206
        15 -10.2227     87.4334      7.2506   6.9736690437e+01   6.2232110700e+01    0.2446887    0.1260206 -19.86 0.0008687083    1.980    0.495
        16 -11.1781     24.7780      6.8501   9.6363231472e+01   7.2012775626e+01    0.2145486    0.1564737 -44.67 0.0004794319    1.262    0.208
        17 -12.3491    209.5303      5.4653   4.6966596983e+01   3.1392236826e+01    0.5749679    0.3078881 -57.92 0.0005630261    2.035    0.509
        18  -9.8409     62.4187      7.0058   7.8522928293e+01   6.6962131962e+01    0.2530805    0.1793354 -79.73  0.001086924    3.888    0.743
        19  -9.3991     19.6851      7.2709   9.9378396327e+01   7.2408935433e+01   0.09635871   0.08928131 -78.44 0.0002973502    1.556    0.357
        20 -11.6628     38.3758      3.6182   8.7538209826e+01   7.1011607213e+01    0.3699203    0.2774544 -50.11  0.002330668    1.670    0.401
        21 -11.4166    194.3367      3.8368   4.8057469979e+01   3.5559370303e+01    0.3113825    0.2050348  55.43 0.0006482761    1.480    0.325
        22 -11.0570    112.6050      5.2016   6.1884325300e+01   5.6839729520e+01    0.3208485    0.1887475  79.52  0.001366887    2.418    0.587
        23 -10.7118     14.1554      4.9024   1.0142103992e+02   7.3284819649e+01    0.1575218    0.1313415 -46.32 0.0002697291    1.236    0.191
        24 -11.6475    161.4202      3.0613   5.1936097243e+01   4.4497007858e+01    0.4283601    0.2929538  89.12  0.001616467    1.603    0.376
        25 -10.0095     30.7368      3.9367   9.1658724598e+01   7.1875124107e+01    0.1709855    0.1259346 -32.80 0.0004343525    1.127    0.112
        26 -10.6392    217.8918      2.7153   4.5394357010e+01   2.9495035309e+01    0.2308259    0.1949641  -1.93  0.001003184    1.355    0.262
        27 -10.8852     73.6973      2.1872   7.1708689414e+01   6.5561645153e+01    0.2503211    0.2119993  -9.95  0.001052087    1.086    0.079
        28 -11.2335    181.2731      1.9835   4.8960817789e+01   3.9237804043e+01    0.3734584    0.1664735  58.21  0.001521019    2.019    0.505
        29 -10.8264     50.3060      2.0490   8.0988846208e+01   6.9579858113e+01    0.2070433    0.1663866  19.77 0.0003124281    1.229    0.186
        30 -10.3096    199.2529      1.4108   4.6795954557e+01   3.4476903815e+01    0.2637383     0.123614  67.81 0.0009328591    1.967    0.492
        31  -9.7013     90.5169      1.4200   6.5909638824e+01   6.2242754361e+01    0.1334484    0.1190895  16.32 9.090966e-05    1.027    0.026
        32  -9.5520      2.5039      1.4712   1.0689696655e+02   7.4688867271e+01     0.110337   0.08341762 -41.95 -1.890872e-05    1.041    0.039
        33 -10.1343    105.9790    235.3087   1.1723991493e+02   1.5972744459e+01    0.1516419    0.1025263  50.69 0.0001934353    1.090    0.083
        34 -12.2598    209.7871    247.2687   1.0128668219e+02  -8.8993539216e-01    0.2887125    0.1981647  29.16 0.0001715427    1.096    0.088
        35 -10.7252    186.5184    248.4951   1.0515887287e+02   2.4177164047e+00    0.1944406    0.1732988  65.35  0.001243922    1.524    0.344
        36 -10.5785    187.5209    245.5436   1.0464369632e+02   2.5839979701e+00    0.2026175    0.1059504  43.01 0.0005461811    1.423    0.297
        37  -9.5698    158.6731    250.8006   1.0993746406e+02   6.2865272542e+00    0.1681614     0.058692  47.74 0.0005323195    2.267    0.559
        38  -9.7997    127.9268    250.5115   1.1493179207e+02   1.0782165235e+01    0.1613255   0.07712957  43.85 0.0003895839    1.501    0.334
        39 -10.4588    111.3287    247.1528   1.1735881003e+02   1.3557602333e+01     0.241222    0.1181806 -56.17  0.001537092    2.715    0.632
        40 -11.3258    111.7201    243.0932   1.1694872826e+02   1.4061507125e+01    0.4129997     0.116539  40.24 0.0003471409    2.828    0.646
        41 -10.9549    115.0094    249.9373   1.1699058707e+02   1.2672244165e+01    0.2622181    0.1520708  42.02  0.001816134    1.344    0.256
        42 -11.2530    121.3323    247.9184   1.1578025904e+02   1.2055438246e+01    0.2095844    0.1663036  40.97  0.001587565    1.253    0.202
        43 -10.7645    117.7514    246.5883   1.1625290071e+02   1.2737850100e+01     0.182982    0.1543915 -77.36  0.001516078    1.501    0.334
        44  -9.5982     84.4810    250.4301   1.2196135586e+02   1.6679056985e+01    0.1031265   0.07161824  55.09   0.00015651    1.023    0.022
        45 -11.6289     83.6020    237.9898   1.2122734666e+02   1.8597385346e+01    0.2850043    0.1523021  55.38 0.0006808624    1.407    0.289
        46 -12.1160     77.8030    248.1552   1.2287713539e+02   1.7847708308e+01    0.2627115     0.161708  75.95  0.001961733    1.563    0.360
        47 -12.7348     75.1283    240.1274   1.2277785924e+02   1.9359969630e+01    0.3809793    0.1895881  64.65  0.002461116    1.808    0.447
        48 -12.0949     46.3941    247.0556   1.2776102588e+02   2.1727816002e+01    0.2569709    0.1643366  81.84 0.0007892112    1.400    0.285
        49 -12.1959     30.1558    230.9144   1.2955740975e+02   2.5957618517e+01    0.4755452    0.1388549  51.04 0.0006318906    2.237    0.553
        50 -12.1269      6.8220    223.5091   1.3296955893e+02   2.9418064313e+01    0.4909397     0.269477 -80.21  0.002017573    1.745    0.427
        51 -13.4781     27.7381    219.2590   1.2941641291e+02   2.8103577390e+01    0.5742953    0.4335074 -54.68  0.001012976    2.109    0.526
        52 -12.9521      3.0172    233.2138   1.3385790666e+02   2.8215297878e+01    0.7821506    0.2276691  88.92  0.004419648    3.235    0.691
        53 -13.3565     11.5740    231.7446   1.3250702227e+02   2.7660335781e+01     0.470538    0.2614239  55.61 0.0006812441    1.243    0.196
        54 -13.3405      4.0436    245.6885   1.3405836447e+02   2.6216469076e+01    0.5052674    0.3545029 -81.77  0.004318992    1.629    0.386
        55 -14.1750     35.1903    243.4586   1.2932385523e+02   2.3483762786e+01    0.6836852    0.4316968  74.30  0.003135572    1.247    0.198
        56 -13.0731     23.7560    246.1069   1.3116822951e+02   2.4265650737e+01    0.4598267    0.2457437  86.17  0.001294422    1.651    0.394
        57 -12.7309     21.6295    238.1067   1.3118988005e+02   2.5694607748e+01    0.3195707    0.2030581  46.15   0.00122001    1.412    0.292
        58 -12.6859     13.9457    224.0185   1.3186010745e+02   2.8674927557e+01    0.3349912    0.1925957  61.63   0.00172765    1.187    0.157
        59 -13.4186      8.4635    213.8508   1.3236898506e+02   3.0865770424e+01    0.6186839    0.2695919  49.73  0.002316967    1.661    0.398
        60 -10.7960    231.2698    233.7269   9.6059728901e+01  -2.7427852438e+00    0.2214374    0.1501552  13.08 0.0005232347    1.347    0.258
        61 -10.6691    233.3108    229.3470   9.5104798949e+01  -2.6275765143e+00    0.3054803    0.1969253  25.63   0.00212508    1.190    0.160
        62  -9.6782    183.4357    233.0056   1.0376247241e+02   4.6121986941e+00    0.1301915    0.1113428 -26.11 0.0003145488    1.506    0.336
        63 -10.1083    173.0711    233.1818   1.0553358146e+02   6.2049578210e+00    0.1717704     0.123071  29.96 0.0005150069    1.259    0.206
        64 -11.5591    143.7865    232.2692   1.1044096328e+02   1.0848923358e+01    0.3329354     0.149482  44.59 0.0009212437    1.667    0.400
        65 -10.0995    152.4767    231.2104   1.0882214742e+02   9.6545168059e+00    0.2232216    0.1097066 -63.05  0.001139437    3.581    0.721
        66 -10.5823     80.8525    231.3810   1.2120113522e+02   1.9958719983e+01    0.2064505    0.1157067  66.71 0.0007347359    1.623    0.384
        67 -10.6245     74.6054    231.2487   1.2225076099e+02   2.0780763335e+01    0.1651321    0.1226435  87.87 0.0006604984    1.354    0.262
        68 -11.5297     72.9870    226.4879   1.2218504739e+02   2.1735578621e+01    0.3718077    0.1373843  57.67  0.001406832    2.439    0.590
        69 -10.8881     58.4401    230.2176   1.2489823284e+02   2.2926667343e+01    0.2527081    0.1296167  73.62  0.001197451    1.845    0.458
        70  -9.7528     55.7085    228.6793   1.2526008255e+02   2.3493563818e+01     0.127758     0.107893  82.22 0.0004623456    1.326    0.246
        71 -12.5200     39.6345    229.4890   1.2795955766e+02   2.5179558750e+01    0.2469548    0.1808384  69.38 0.0001781616    1.101    0.091
        72 -11.8447     45.7914    229.7396   1.2696501869e+02   2.4460636442e+01    0.3443064    0.1726334  70.11  0.002326417    1.698    0.411
        73 -10.9955     38.0190    224.0311   1.2794536424e+02   2.6237390049e+01    0.2129906    0.1482923  64.42  0.000905757    1.011    0.011
        74 -12.0459     38.5292    218.5592   1.2757027985e+02   2.7087256142e+01    0.2597925    0.2110318  87.35  0.000907164    1.322    0.244
        75 -11.6114    242.9417    229.3360   9.3596020876e+01  -4.0354368519e+00      0.23319    0.2261104 -68.47  0.001555153    1.908    0.476
        76 -10.7642    111.4718    227.5244   1.1558046699e+02   1.6341937512e+01    0.1865883    0.1415349  53.42 0.0004890604    1.018    0.018
        77 -10.1990     96.6944    230.0964   1.1838347317e+02   1.8037619841e+01    0.1869726    0.1113536  53.93 0.0006587378    1.274    0.215
        78  -9.9260    202.6874    228.0229   9.9880811760e+01   2.1740560940e+00    0.1780884    0.1020543 -44.25  0.001081025    2.460    0.594
        79  -9.2561     64.2392    229.2952   1.2386720885e+02   2.2376011932e+01   0.08141793   0.07597199  72.17 0.0001777557    1.472    0.320
        80 -10.9237     23.0054    227.7163   1.3056137717e+02   2.7196193299e+01      0.27982    0.1331934  58.44  0.002001816    1.467    0.318
        81 -10.6635    173.7825    228.0239   1.0476689788e+02   6.7260808401e+00    0.2518564    0.1286955  42.17 0.0007075633    1.485    0.326
        82  -9.6276    157.9118    229.0000   1.0762390880e+02   9.0992340986e+00    0.1954198   0.05063732  42.51 0.0003037166    2.921    0.658
        83  -9.4985    125.8777    228.1770   1.1312020204e+02   1.4127998163e+01    0.1430545    0.1112705  35.76 0.0003726165    1.316    0.240
        84 -12.0780    107.2851    228.0227   1.1635979550e+02   1.6868035670e+01    0.2271717    0.1699181  65.87 0.0003193307    1.193    0.162
        85 -10.2061     90.3085    224.9679   1.1906079814e+02   1.9702859917e+01    0.1483366    0.1147121  65.20 0.0004495318    1.090    0.083
        86 -10.8936     78.8805    223.4512   1.2093666832e+02   2.1464022587e+01    0.2172571    0.1391609 -78.67  0.001082645    1.690    0.408
        87 -11.2808    176.8291    222.6570   1.0354483300e+02   6.9114802610e+00    0.2786006    0.1878189  61.54  0.001265954    1.856    0.461
        88 -11.8555    121.5543    221.9233   1.1323589267e+02   1.5697011806e+01    0.2888651    0.2040272  31.79 0.0003570238    1.547    0.353
        89 -13.7048     14.1738    247.3968   1.3263318525e+02   2.5014156832e+01    0.5783212    0.4009636  67.18   0.00530524    1.119    0.106
        90 -10.1221     54.0106    222.2901   1.2515332034e+02   2.4727145291e+01    0.1741287    0.1172961 -47.19  0.001163011    2.626    0.619
        91  -9.7350     44.9495    223.4851   1.2675896019e+02   2.5566246066e+01    0.1452415    0.0763199  46.74 0.0004248018    1.485    0.327
        92 -10.3663    188.0454    222.1075   1.0153615141e+02   5.1766962767e+00    0.1722831    0.1281217  25.07 0.0003687682    1.236    0.191
        93 -10.5202    159.0757    221.9651   1.0656242955e+02   9.8493090263e+00    0.2616044    0.1470243  55.33 0.0009684673    1.800    0.444
        94 -11.6223    135.2560    218.5371   1.1040279950e+02   1.4102847001e+01    0.3756851    0.2205127  36.39 0.0008039242    1.559    0.359
        95 -10.2733    249.1645    220.0137   9.1212219738e+01  -4.0804025803e+00      0.23957    0.1359147  51.29  0.001210857    2.413    0.586
        96  -9.6379     62.9463    219.9795   1.2346033655e+02   2.4040574310e+01    0.1656339   0.08866679  63.38  0.000474274    1.547    0.353
        97 -11.2328     47.8056    218.2947   1.2597157709e+02   2.6103878979e+01    0.2213568    0.2029985  81.32  0.001909073    1.456    0.313
        98 -10.0887     45.6932    215.3243   1.2615766842e+02   2.6842153133e+01    0.1697318    0.1144696  81.11 0.0002720441    1.258    0.205
        99 -10.9156    173.1804    216.5344   1.0336323260e+02   8.2911426150e+00    0.3008785    0.2218689 -80.46  0.001793192    2.324    0.570
       100 -11.0100     88.6934    217.9753   1.1874945605e+02   2.1040108354e+01    0.2076948    0.1436905  67.89 0.0002961456    1.253    0.202
       101 -11.9863     84.9760    213.8002   1.1905696696e+02   2.2231523002e+01    0.3905477    0.3437367  12.66  0.002891796    1.782    0.439
       102 -10.0307    228.1194    216.9043   9.4068838668e+01  -6.0011113653e-01    0.1592927    0.1318737  32.58 0.0003264103    1.245    0.197
       103  -9.9628    217.7926    217.5943   9.5866659640e+01   9.4349307575e-01    0.1574023   0.09094392  45.52 0.0005580528    1.589    0.371
       104 -10.3155    116.5238    216.9917   1.1362501627e+02   1.7205919267e+01    0.1958134    0.1487095  27.15  0.001307406    1.622    0.383
       105 -11.1657    117.8501    212.8617   1.1294054371e+02   1.7653402570e+01    0.3446794    0.1955541  31.30  0.001904604    2.052    0.513
       106 -10.4223    101.2834    217.1889   1.1640906627e+02   1.9407655670e+01    0.1462491    0.1425514 -83.18 0.0007363359    1.408    0.290
       107 -10.6721     72.5025    216.8922   1.2155300815e+02   2.3358298636e+01    0.1836603    0.1522582  35.11 0.0008751135    1.541    0.351
       108  -9.8081    157.2825    216.6847   1.0621380856e+02   1.0860860546e+01    0.1124243   0.08089749  64.16            0    1.578    0.366
       109 -10.4923    146.4055    215.1115   1.0797717424e+02   1.2838951549e+01    0.3346582    0.1558808  58.49  0.001545961    2.754    0.637
       110  -9.6629    107.4991    216.4929   1.1521381022e+02   1.8620170359e+01     0.114636   0.08972269  53.95 0.0008102726    1.043    0.041
       111  -9.8246     76.7514    216.5647   1.2076988721e+02   2.2864456737e+01    0.1572283   0.07568953  51.11 0.0009363075    1.593    0.372
       112 -11.2064    111.8731    213.7598   1.1413551598e+02   1.8409753029e+01    0.2374947     0.197707 -74.83 0.0006648574    1.399    0.285
       113  -9.5431    180.7448    214.0092   1.0167884484e+02   7.3776376206e+00    0.1539276    0.1241805  33.76 0.0002477164    1.051    0.049
       114 -11.9125     96.0917    210.1172   1.1667917726e+02   2.1302479311e+01    0.3598681     0.215838 -77.99  0.002018422    1.934    0.483
       115 -10.5052    218.2475    212.7468   9.5051201973e+01   1.4033179389e+00    0.1632618    0.1098615  20.75 0.0005719417    1.338    0.252
       116  -9.3224    164.2321    213.0166   1.0448446557e+02   1.0234584660e+01    0.1235039    0.1019773 -43.61 0.0003327917    1.534    0.348
       117 -11.8155     38.7875    211.8629   1.2715433784e+02   2.8193693237e+01    0.2088849    0.1450584  67.48 0.0003685909    1.039    0.037
       118 -11.8016    129.0608    209.3371   1.1046451617e+02   1.6472781913e+01     0.338311    0.2984059 -80.53  0.002471045    1.323    0.244
       119  -9.7539     75.0098    212.5090   1.2075635066e+02   2.3769483396e+01    0.1726362   0.08669079  44.40 0.0001328392    1.611    0.379
       120 -12.2022     20.0150    217.0803   1.3059794334e+02   2.9237283088e+01    0.3559101    0.1622458 -73.01 0.0004499888    2.188    0.543
       121 -10.0813    214.4526    210.4626   9.5332857431e+01   2.2719768652e+00    0.1191535   0.09210709  28.01 0.0001068776    1.003    0.003
       122 -10.0349     80.5514    210.1033   1.1954427863e+02   2.3447260271e+01    0.1465873    0.1005247 -80.52  0.001004184    1.525    0.344
       123 -12.2977     67.0962    207.6454   1.2180954742e+02   2.5613474698e+01    0.2611665    0.1588568  60.72  0.001745536    1.310    0.237
       124 -10.6684    143.7254    208.1219   1.0759041122e+02   1.4307737816e+01    0.2968538    0.1390935  41.52  0.001188871    1.740    0.425
       125 -11.1356     13.7161    197.8677   1.3082889993e+02   3.3158745475e+01    0.2811663    0.1395172  65.47  0.001094376    1.524    0.344
       126 -10.2314     17.0664    207.7954   1.3068959951e+02   3.1101019656e+01    0.1814053    0.0953923  48.28 0.0004306845    1.506    0.336
       127 -11.0777     14.1964    205.0840   1.3106193520e+02   3.1841221590e+01      0.18729    0.1507326  83.16 0.0002410699    1.281    0.220
       128 -12.8320     19.2643    201.3919   1.3001720664e+02   3.2012464587e+01    0.2760897    0.2069522 -80.98 0.0005650957    1.410    0.291
       129 -10.9231     52.2026    207.0061   1.2447229032e+02   2.7528809754e+01     0.249284    0.1375973  34.63  0.001250421    1.983    0.496
       130 -11.7154     52.3517    201.9951   1.2409588049e+02   2.8396019767e+01    0.2941948    0.2709577  50.40  0.001566944    1.452    0.312
       131  -9.7211     38.7204    206.0200   1.2682653430e+02   2.9215086869e+01    0.1378842   0.09971223  78.68  0.001060924    1.132    0.117
       132 -10.5836      2.9401    205.7848   1.3299166962e+02   3.2728703675e+01    0.2582907   0.09423435  53.72  0.001149362    1.909    0.476
       133 -11.6069    183.5892    203.7519   9.9679147730e+01   8.2520991464e+00    0.2368561     0.203554  22.59 0.0003245322    1.136    0.120
       134 -11.7141    110.6129    200.2973   1.1290406073e+02   2.0813901961e+01     0.534602    0.2845321 -77.40  0.002726046    2.682    0.627
       135 -11.8846    108.9115    194.0249   1.1250882526e+02   2.2153996039e+01    0.2283317    0.1805284 -84.31 0.0003027504    1.352    0.260
       136 -10.7756     90.1646    204.8986   1.1728152904e+02   2.3021425780e+01    0.1772396    0.1223949  66.43 0.0003676011    1.260    0.207
       137 -10.8513    195.6597    204.0206   9.7571588555e+01   6.1673089291e+00    0.1979164    0.1420605  44.56 0.0004933442    1.245    0.197
       138 -11.5642    122.6307    203.3760   1.1096541923e+02   1.8438256262e+01     0.241496    0.1909018  59.70 0.0005905966    1.099    0.090
       139 -10.8960    121.4202    199.1491   1.1068785439e+02   1.9326397722e+01    0.2121564    0.1636634  46.42 0.0003585142    1.116    0.104
       140 -10.2688    159.3265    202.8114   1.0398041192e+02   1.2509795534e+01    0.2593837    0.1374319  36.54 0.0008056534    1.692    0.409
       141 -10.5251     31.3059    202.7080   1.2795631517e+02   3.0582644098e+01     0.184602    0.1095467  62.71 0.0005500248    1.261    0.207
       142 -10.5036     27.9820    201.1978   1.2846606508e+02   3.1190401546e+01    0.2189103    0.1124293  47.81 0.0007658153    1.561    0.359
       143 -12.1634    240.4102    201.5260   8.9605262105e+01  -9.1306252361e-01    0.3600917    0.2003728  38.52 0.0009639155    1.502    0.334
       144 -10.0190    165.5458    201.9348   1.0270262551e+02   1.1582449231e+01     0.195209    0.1363514  43.99 0.0007741576    1.167    0.143
       145 -10.6736     39.3900    201.9193   1.2645826148e+02   2.9868005579e+01    0.1956508    0.1409602  36.92 0.0008201937    1.607    0.378
       146 -11.2427    190.8527    200.7983   9.7924680147e+01   7.4040780390e+00    0.2014912    0.1937472 -28.47 0.0002876886    1.312    0.238
       147 -10.8764    188.9486    196.1417   9.7534416623e+01   8.3565603901e+00    0.2146143    0.1538116  44.72 0.0004304407    1.226    0.184
       148 -11.2517     95.9466    200.2399   1.1571637023e+02   2.3003513413e+01    0.2005687    0.1577064 -79.15 0.0003978657    1.360    0.265
       149 -10.3969     70.2572    200.6592   1.2065121105e+02   2.6438990872e+01    0.2531477    0.1743161 -51.47  0.001369892    2.037    0.509
       150 -12.4627      5.0303    199.8288   1.3241950607e+02   3.3585344695e+01    0.2319874    0.1652753  66.30 0.0007307222    1.088    0.081
       151 -11.2491    208.8281    199.1957   9.4502545374e+01   4.5408081627e+00    0.2266026    0.1768908 -22.22  0.000823626    1.448    0.309
       152 -11.2451     89.6774    199.7734   1.1687183929e+02   2.3979502637e+01    0.3207548    0.1538482  46.61 0.0008379061    1.685    0.407
       153 -10.0615     45.1435    200.0748   1.2529020925e+02   2.9564218427e+01    0.1481979    0.1298729  67.07 0.0008091498    1.298    0.230
       154 -10.0544    169.6082    198.4600   1.0144033893e+02   1.1389088831e+01    0.2578688    0.1191421 -38.34  0.001244878    2.774    0.640
       155 -10.8670     24.9135    194.4758   1.2865568227e+02   3.2706945067e+01     0.391063    0.1425748 -85.88   0.00209701    2.622    0.619
       156 -12.0986    217.4010    194.7437   9.2286613718e+01   3.6299104567e+00    0.3978972    0.2386884  34.52   0.00230804    1.380    0.276
       157 -10.8343    224.0083    197.7408   9.1669326327e+01   2.1658692520e+00    0.2791634    0.1516857  35.37 0.0006970619    1.517    0.341
       158 -12.6519    229.4930    194.7783   9.0249885289e+01   1.5972361188e+00     0.322524    0.2086789  21.57  0.001949987    1.401    0.286
       159  -9.5518    162.0239    198.0247   1.0279155121e+02   1.2759712030e+01    0.1489448    0.1207767  42.36 0.0003255694    1.010    0.010
       160 -11.7090     62.7597    196.3734   1.2171542976e+02   2.8156162722e+01    0.2207275    0.1630756  74.00 0.0002265105    1.111    0.100
       161 -11.2034     57.1363    195.4073   1.2270865025e+02   2.9018311588e+01    0.2469645    0.1422039  64.36 0.0002471633    1.463    0.316
       162 -11.3058     52.8085    192.7718   1.2333004003e+02   3.0015896139e+01    0.2163689    0.1496494  59.64 0.0002743829    1.141    0.123
       163 -10.4323    136.5976    195.7764   1.0732433448e+02   1.7419266316e+01    0.3404131    0.1970138  78.35  0.001479865    3.392    0.705
       164  -9.9188    139.8692    194.8252   1.0656253045e+02   1.7027806036e+01     0.173934    0.1505548  35.52  0.000579655    1.184    0.155
       165  -9.8885    102.2554    196.3600   1.1407913780e+02   2.2753673382e+01    0.1654306   0.08932497  49.91 0.0002371289    1.526    0.345
       166  -9.9317     82.4380    195.6684   1.1786445138e+02   2.5715303431e+01    0.1341863    0.1050553 -67.74 0.0009241357    1.453    0.312
       167 -10.4217     95.4351    194.9537   1.1525746078e+02   2.4006567266e+01    0.1934695    0.1487443  36.34 0.0004074715    1.425    0.298
       168 -10.5174     44.7004    194.4883   1.2499261773e+02   3.0627729590e+01    0.1845204    0.1259946  71.19 0.0003115852    1.141    0.124
       169 -11.1249    146.9317    193.1819   1.0496715829e+02   1.6096954937e+01    0.2513504    0.1781618  35.60 0.0007640338    1.323    0.244
       170 -10.2423     71.1889    194.2326   1.1991171922e+02   2.7476887253e+01    0.1599336      0.13609  63.54  0.001181441    1.160    0.138
       171 -12.0439    248.3506    190.8377   8.6494285968e+01  -1.0384554440e+00    0.3481908    0.2373643  34.18  0.002247255    1.267    0.211
       172 -10.2753    163.9842    192.4842   1.0159659442e+02   1.3253229713e+01    0.2445654      0.15328   2.60  0.001014266    3.466    0.712
       173 -10.4514    123.1875    193.1981   1.0960058660e+02   2.0046522536e+01    0.2065659    0.1517088  50.58 0.0003438542    1.126    0.112
       174 -10.6245    120.1287    190.8896   1.0990846959e+02   2.0935559396e+01    0.2235403    0.1844928 -70.64 0.0007099177    1.364    0.267
       175 -10.3283    131.2030    191.8667   1.0785093803e+02   1.8960961356e+01    0.1556966    0.1380036  25.00 0.0003341667    1.323    0.244
       176 -11.0744     34.7491    191.4841   1.2666200256e+02   3.2257562233e+01    0.2479401    0.1311613  53.84  0.000938939    1.495    0.331
       177 -11.0397     66.4970    191.0735   1.2054305479e+02   2.8659726702e+01    0.2280491    0.1581809  39.80 0.0005856566    1.480    0.324
       178 -10.0207     16.8462    191.1503   1.2995183241e+02   3.4085085747e+01    0.1211101    0.1012628  78.93            0    1.262    0.208
       179 -10.5621    227.0719    189.4635   8.9736002072e+01   2.6218436961e+00    0.1859879    0.1672868 -31.02  0.000403765    1.445    0.308
       180 -11.1981    189.6155    189.2475   9.6294172213e+01   9.1882878841e+00    0.2459894    0.1754967  26.39 0.0001308976    1.330    0.248
       181 -12.2738     91.6534    188.9384   1.1535335665e+02   2.5639525346e+01    0.2479503    0.1908398  74.56 0.0006440453    1.176    0.150
       182 -10.6381     81.0524    189.2174   1.1749703008e+02   2.7081317685e+01    0.1958259    0.1495675  45.02   0.00046922    1.279    0.218
       183 -10.5283     57.5347    189.7878   1.2218149575e+02   3.0007690794e+01    0.1873578   0.09685866 -69.81 0.0008483903    1.928    0.481
       184 -10.9232      3.6896    187.9893   1.3218701880e+02   3.5824178012e+01    0.1514018    0.1170512  63.30 0.0003143664    1.204    0.169
       185  -9.7897    205.4481    187.0534   9.3062491680e+01   6.6733641519e+00    0.1604563    0.1214828 -25.77 -1.428473e-05    1.477    0.323
       186 -10.0770    132.2852    186.9852   1.0696812936e+02   1.9607610757e+01    0.1676344    0.1503449  62.67 0.0004069094    1.087    0.080
       187  -9.0675     60.6291    187.2887   1.2136484499e+02   3.0099108311e+01    0.1246151   0.06569354  63.30 0.0007021995    1.714    0.417
       188 -10.7856     10.0785    186.0291   1.3094246538e+02   3.5637771424e+01    0.2570634    0.2147408  60.55  0.002186948    1.309    0.236
       189 -10.9480     15.4834    183.2076   1.2980156322e+02   3.5682600903e+01    0.2059113    0.2012706 -37.81  0.001321209    1.654    0.395
       190 -10.0176    221.0013    186.2727   9.0207426144e+01   4.0474625092e+00    0.1741461    0.1340354  31.28 0.0003537343    1.090    0.083
       191  -9.3191    148.4719    186.5251   1.0369504315e+02   1.6908261498e+01    0.1284757    0.1079193  49.05 8.418344e-05    1.023    0.022
       192 -11.4978    104.6112    184.2772   1.1219554905e+02   2.4558857300e+01    0.3346761    0.3215019 -23.80  0.002362023    1.420    0.296
       193 -11.4934    176.1383    183.6521   9.7883102168e+01   1.2422438767e+01    0.4999247    0.2313965  51.91  0.001744516    2.221    0.550
       194 -10.6642    225.9959    183.8722   8.8927805214e+01   3.4776481130e+00    0.2487936    0.1462488  39.69   0.00138982    1.466    0.318
       195 -11.5928     59.4500    180.9062   1.2103957378e+02   3.1458506025e+01    0.3488849      0.21237 -63.17  0.002176806    1.763    0.433
       196 -10.2696     55.5134    181.4965   1.2188533592e+02   3.1820396263e+01    0.1915452    0.1385446  79.71 0.0007557602    1.162    0.139
       197 -11.5583     29.3156    180.7080   1.2701346475e+02   3.4840352014e+01    0.3434684    0.2108147 -88.78  0.002132844    1.377    0.274
       198 -11.7905     32.7961    177.0143   1.2608288174e+02   3.5200397850e+01     0.383754    0.2762807 -62.98  0.002423102    1.630    0.387
       199  -9.9808    122.7977    182.8077   1.0829992656e+02   2.1918402302e+01    0.1799424    0.1283913  62.44 0.0005862106    1.346    0.257
       200 -11.0412     47.7057    181.8302   1.2347430514e+02   3.2664772282e+01    0.2622705    0.1926586  22.79  0.001102247    1.980    0.495
       201 -12.4694     47.8250    177.1211   1.2307073952e+02   3.3562143365e+01    0.2734759    0.1921947  47.40 0.0004194485    1.340    0.254
       202 -11.4315    229.6591    180.5933   8.7714877298e+01   3.2427162494e+00    0.2510373    0.2302212  88.49  0.001651643    1.738    0.425
       203  -9.8296     88.1509    182.1676   1.1531184231e+02   2.7401089243e+01    0.1694608    0.1193407  71.27 0.0004065749    1.318    0.241
       204  -9.8060     79.5834    182.5552   1.1710638061e+02   2.8529971259e+01    0.1191969   0.09572673  68.14  0.000111409    1.013    0.012
       205 -10.2783      3.7837    181.9977   1.3191917414e+02   3.6921454927e+01    0.1814485     0.103403  83.84 0.0006679154    1.342    0.255
       206  -9.8452    132.4922    180.4849   1.0599813125e+02   2.0697863815e+01    0.1296403    0.1090413  55.83 0.0008101691    1.037    0.036
       207 -11.2864     73.3732    177.5406   1.1785959350e+02   3.0331408100e+01      0.32443     0.226002  21.41  0.001329349    2.157    0.536
       208 -11.6985     79.7633    175.0564   1.1625693181e+02   2.9946733573e+01    0.5179693    0.2771478  82.07  0.001553434    2.401    0.584
       209 -10.5612    136.4263    176.7171   1.0463229676e+02   2.0679729205e+01    0.2644503    0.1177806 -42.54  0.001144894    2.923    0.658
       210 -11.8744    106.0708    176.3976   1.1089058601e+02   2.5793328586e+01    0.4238189    0.2970538  29.58  0.001385781    1.711    0.416
       211 -10.2893     22.4752    175.7350   1.2803930297e+02   3.6460260586e+01    0.1695151    0.1117335  81.24  0.001063206    1.184    0.155
       212  -9.9125      6.4271    176.0620   1.3115781371e+02   3.7818932335e+01    0.1511126   0.07929467 -83.28 0.0006583564    1.572    0.364
       213 -10.2593    191.8129    174.2414   9.3292176725e+01   1.0936548505e+01    0.1806647     0.137473  20.11 0.0004550333    1.325    0.245
       214 -10.5724    156.1545    173.8808   1.0016810240e+02   1.7630294090e+01    0.2223652    0.1630095  43.72  0.001268913    1.185    0.156
       215 -10.3577    159.5490    173.5548   9.9432006135e+01   1.7060209953e+01    0.2363902    0.1660884  47.47 -1.039532e-05    1.254    0.203
       216  -9.5894     18.3010    174.2932   1.2877276298e+02   3.7125493514e+01   0.09215388    0.0752531 -63.43 0.0001770165    1.570    0.363
       217  -9.7605      2.2387    173.8372   1.3185148316e+02   3.8583063715e+01    0.1199813    0.1012219  88.74 0.0004229837    1.306    0.234
       218 -10.3895     98.1807    172.2268   1.1201307327e+02   2.7812665905e+01    0.2389354    0.1588814 -75.99  0.001074442    1.616    0.381
       219 -10.8776    199.8212    171.6208   9.1325014006e+01   9.8197078346e+00    0.2077407    0.1873993  16.63 0.0003355378    1.079    0.073
       220 -10.4625    114.3932    168.9640   1.0809620942e+02   2.5857216143e+01    0.2329959     0.178535  71.02 0.0009024845    1.298    0.229
       221 -10.9813     62.3689    170.3473   1.1943353660e+02   3.3167425980e+01    0.2619046   0.09699903  54.40  0.001137652    2.623    0.619
       222 -10.8951     72.9867    165.9897   1.1668475621e+02   3.2667574528e+01    0.4133928    0.2187172  86.16  0.002020037    2.356    0.576
       223 -10.0781     75.5955    162.2787   1.1567873882e+02   3.3066661822e+01    0.1978052    0.1034906 -55.97 0.0005169289    2.064    0.515
       224 -11.3509     47.5997    167.0876   1.2225879637e+02   3.5575938873e+01    0.3619915    0.2228303  84.47  0.001878326    1.468    0.319
       225 -10.1523      2.1132    169.0447   1.3165809731e+02   3.9511154793e+01    0.1399195    0.1098709 -89.11            0    1.226    0.184
       226 -10.1126    133.0240    168.4913   1.0405901132e+02   2.2754230022e+01    0.1972165    0.1166457  44.14  0.000415434    1.499    0.333
       227  -9.2924    121.3491    167.2843   1.0635460172e+02   2.5007206351e+01    0.1236271    0.1022704  11.77 0.0002839329    1.653    0.395
       228 -10.7468     81.7322    166.0170   1.1478132041e+02   3.1458347663e+01     0.280829    0.1643293  42.26   0.00113182    1.602    0.376
       229  -9.6642     59.4502    165.5521   1.1957467657e+02   3.4492480225e+01    0.1189274   0.09631179  75.03 7.609346e-05    1.006    0.006
       230 -11.9271     24.0350    164.0158   1.2696613881e+02   3.8620551330e+01    0.2083983    0.1507189  57.32 0.0004182295    1.229    0.187
       231 -11.8107    141.1886    161.0905   1.0109888968e+02   2.2635599965e+01     0.242788    0.2159271  48.81 0.0002563483    1.027    0.026
       232 -10.2696     27.2544    157.8069   1.2583802104e+02   3.9573915919e+01    0.2089955    0.1487808 -54.49 0.0004146206    1.756    0.430
       233 -10.0407     32.8737    162.2255   1.2497803232e+02   3.8126358207e+01    0.1483611    0.1181366  72.07 0.0002515892    1.074    0.069
       234 -11.7888     35.0208    158.2758   1.2419771633e+02   3.8715913555e+01    0.4258489    0.1797767  51.40 0.0006397209    2.094    0.522
       235 -10.0201     18.7113    160.7566   1.2785558831e+02   3.9759405404e+01    0.1484315    0.1192058  83.32 0.0008630732    1.116    0.104
       236  -9.9411    149.0357    159.2586   9.9110329534e+01   2.1502990520e+01    0.1847017    0.1567066  49.58 0.0002375336    1.062    0.058
       237 -10.9394    108.0778    158.3665   1.0789831556e+02   2.8962832004e+01    0.3929935    0.1871221  41.20  0.001195785    1.969    0.492
       238 -11.0738     45.9354    158.8954   1.2186874194e+02   3.7431022123e+01    0.2041714    0.1816716  46.47  0.001089425    1.343    0.255
       239 -10.7507    248.6431    157.6379   8.0179724455e+01   2.7056217826e+00    0.2047416    0.1294205  14.17  0.001014798    1.645    0.392
       240  -9.3164    172.3244    158.7423   9.4203949335e+01   1.7100500794e+01    0.1314013     0.103234  69.39 0.0002323333    1.551    0.355
       241  -9.2890    114.5244    158.5108   1.0648399625e+02   2.7858597141e+01    0.1323704    0.1171472  64.23 9.371644e-05    1.002    0.002
       242  -9.6357     66.4771    158.4907   1.1726502670e+02   3.5054673655e+01    0.1245428    0.1000089  74.79 5.934535e-05    1.048    0.046
       243  -9.6375     11.6038    158.1319   1.2917286411e+02   4.0895756309e+01    0.1365131    0.0800164 -72.40 0.0001780049    1.546    0.353
       244 -10.2307    163.9059    155.8707   9.5374403782e+01   1.9238468411e+01    0.2920629    0.1645522  25.14  0.001196215    2.581    0.613
       245 -10.7513     52.1955    156.1430   1.2020994697e+02   3.7291211865e+01    0.1721646    0.1487904 -86.18  0.001216579    1.165    0.142
       246 -10.9002     96.6650    153.9973   1.0982133014e+02   3.1677343747e+01     0.309012    0.2255178  15.72  0.001403247    2.117    0.528
       247 -10.1195    113.1571    153.8651   1.0604786735e+02   2.9011942782e+01    0.2077843    0.1648926  75.66  0.001046841    1.280    0.219
       248  -9.6790     71.0663    154.4816   1.1574932832e+02   3.5286248104e+01    0.1677423    0.1141796  41.91 0.0003448846    1.466    0.318
       249  -9.7917     65.3186    152.0524   1.1677232698e+02   3.6546606460e+01    0.1701412    0.1366906  87.60  0.000472622    1.085    0.078
       250 -10.7128    249.1403    150.8957   7.8728137273e+01   3.4416040649e+00    0.1798988    0.1669825  -9.99 0.0003066918    1.254    0.203
       251  -9.4718    137.5266    151.5099   1.0019339584e+02   2.5108826955e+01    0.1369388    0.1253773  52.35 5.309417e-05    1.024    0.024
       252  -9.9776     79.9297    150.2953   1.1315882419e+02   3.4944339614e+01    0.1723482    0.1469219  61.99  0.000159304    1.093    0.085
       253 -10.1766     51.8642    149.3389   1.1956706640e+02   3.8758393301e+01    0.1981249    0.1375615  88.74  0.000358869    1.276    0.216
       254 -10.3679    226.1730    148.6354   8.2053190713e+01   8.0254579958e+00    0.1903393    0.1099312  36.06 0.0003083403    1.630    0.386
       255 -11.0440     36.1885    145.5935   1.2280955465e+02   4.1246396320e+01    0.2833574    0.1564658 -78.58 0.0009699728    1.568    0.362
       256 -10.3229    164.2743    145.9414   9.3348412660e+01   2.0910979059e+01    0.1917535    0.1851195  -4.06 0.0004032918    1.105    0.095
       257  -9.5119    195.7315    145.6463   8.6960215851e+01   1.4537510297e+01    0.1412258    0.1031188   7.88 0.0004016519    1.631    0.387
       258 -10.2041      4.4955    143.6104   1.2981908325e+02   4.4406905028e+01    0.2339201   0.08049566 -76.29  0.001018891    2.283    0.562
       259  -9.9958     72.6888    140.0524   1.1345772445e+02   3.8136398401e+01    0.1791133    0.1475422 -79.21 0.0004214593    1.119    0.107
       260 -11.0381    132.2739    140.4696   9.9300651791e+01   2.8247453669e+01    0.2388091    0.2242192  82.82 0.0003098976    1.063    0.060
       261 -10.5236     65.9919    139.0417   1.1495208749e+02   3.9243406301e+01    0.1831086     0.156637  82.84            0    1.007    0.007
       262  -9.9384     48.6799    138.2852   1.1907891019e+02   4.1492124751e+01     0.167571   0.09732259 -64.48  0.000296006    1.586    0.370
       263 -10.1465     50.7280    134.9975   1.1818439968e+02   4.1978218431e+01    0.1747394    0.1395349 -85.12 0.0004620986    1.072    0.068
       264 -10.3607     34.5522    137.7053   1.2242719118e+02   4.3096904417e+01    0.2381954    0.1560962  76.18   0.00117909    1.366    0.268
       265 -10.7155     95.8281    135.6477   1.0709367501e+02   3.5660157551e+01    0.2948629    0.2522928  67.24  0.001135345    1.090    0.083
       266 -10.3090     40.5557    133.3265   1.2050283588e+02   4.3444879620e+01      0.24862    0.1363051  83.71  0.001017436    1.872    0.466
       267 -11.5546     27.6205    131.3162   1.2347702389e+02   4.5131614012e+01    0.3911353    0.1836944  64.07  0.002019565    2.230    0.552
       268  -9.5377     69.2730    131.6528   1.1308567056e+02   4.0429452818e+01    0.1331954   0.08798475  77.78 0.0006917081    1.625    0.385
       269  -9.8958     61.8176    131.1749   1.1490446147e+02   4.1496732540e+01    0.1594211    0.1367369 -57.59 0.0002367822    1.288    0.223
       270 -10.1041      9.8666    130.9903   1.2773855696e+02   4.6655593871e+01    0.1569818    0.1222127 -73.52 0.0002675888    1.240    0.194
       271  -9.8239    122.1007    130.1141   9.9645037381e+01   3.2263711866e+01    0.1938509     0.187482  -2.22 0.0003367926    1.192    0.161
       272 -10.1610     34.1399    129.8827   1.2171778162e+02   4.4837282432e+01    0.2265816    0.1337142 -43.76  0.001242166    2.291    0.563
       273  -9.4122      2.6277    130.2708   1.2939712875e+02   4.7320692193e+01    0.1147007   0.06122187  63.64  0.000699766    1.677    0.404
       274  -9.6396    126.9754    128.4770   9.8137909721e+01   3.1678684927e+01    0.2061732    0.1349329  44.44 0.0003433998    1.476    0.323
       275  -9.2715     17.3310    128.3097   1.2572129693e+02   4.6656750529e+01    0.1090769    0.0757617 -52.38 0.0007041725    1.668    0.401
       276 -10.4979     91.4100    127.0904   1.0669673293e+02   3.8214773444e+01    0.2679576    0.1971485  21.61 0.0007044651    1.823    0.451
       277 -10.3188     30.2970    125.8289   1.2225048113e+02   4.6087406018e+01    0.1758498    0.1384147  63.35 0.0003293561    1.217    0.178
       278  -9.8538      3.7578    124.9081   1.2875739792e+02   4.8381971314e+01    0.1602949    0.1143238 -74.51 0.0002521741    1.226    0.184
       279 -11.0129     57.0627    124.6042   1.1519332644e+02   4.3536986471e+01    0.2667042    0.1305114  21.62  0.001148536    3.289    0.696
       280 -11.1867     69.0219    122.9790   1.1180672019e+02   4.2386446417e+01    0.2427851     0.168826 -54.46  0.001236161    1.450    0.310
       281  -9.6014     39.3140    122.3143   1.1952709230e+02   4.6000078189e+01     0.116921   0.08442625 -47.00 0.0007034049    1.640    0.390
       282  -9.5758     84.0030    121.5071   1.0760782974e+02   4.0586468452e+01    0.1909153    0.1004522  60.56 0.0008084541    2.395    0.582
       283 -11.2637     19.7766    118.4037   1.2418284778e+02   4.8621375548e+01    0.4395846    0.2225779  65.13  0.002407397    2.040    0.510
       284 -10.6959     18.9784    114.9058   1.2403881316e+02   4.9455018691e+01    0.1972566    0.1454839 -89.21 0.0003062028    1.093    0.085
       285 -10.6119     91.9606    117.4840   1.0474681920e+02   4.0237484650e+01    0.4083297    0.3092099  85.37  0.002195491    1.460    0.315
       286  -9.6063    147.4826    118.4300   9.1070603137e+01   2.9556658922e+01    0.1459912    0.1395262  48.56 0.0001329587    1.014    0.014
       287 -10.0287     54.9372    117.6844   1.1473914726e+02   4.5339723073e+01    0.1667551    0.1467007  75.56 0.0004235294    1.099    0.090
       288  -9.5515     10.5071    117.5253   1.2649143405e+02   4.9509327813e+01    0.1149675   0.08729523  87.82 0.0002490583    1.039    0.038
       289  -9.7297    138.6142    115.7357   9.2527388888e+01   3.1950147458e+01    0.1860206    0.1390762 -56.82 0.0002422314    1.427    0.299
       290  -9.6060    105.2942    114.3174   1.0057848464e+02   3.8680279805e+01     0.135809    0.1122018 -17.73 0.0002267742    1.605    0.377
       291  -9.6590     60.4643    113.9523   1.1264279980e+02   4.5515396524e+01    0.1897704    0.1014726  89.08 0.0008094694    2.597    0.615
       292 -10.7343      3.0627    107.6342   1.2758508416e+02   5.2153404126e+01    0.2160906    0.1262007 -73.11 0.0004984898    1.345    0.257
       293  -9.7302      5.9952    114.2681   1.2737431681e+02   5.0524628483e+01    0.2335586    0.1699174  17.53 0.0003437731    1.874    0.466
       294 -10.7182      4.1468    111.6362   1.2763533206e+02   5.1215269755e+01     0.284932    0.1431284 -44.79  0.001588324    2.543    0.607
       295 -10.0478     28.9771    112.8170   1.2112649510e+02   4.9091393578e+01    0.2045823    0.1076265  60.56    0.0010879    2.042    0.510
       296 -11.7923    149.8489    111.2887   8.8810378437e+01   3.0444888047e+01    0.2454391    0.2406793 -35.64 0.0002321576    1.051    0.049
       297  -9.8335    120.5501    112.4586   9.6223596759e+01   3.6251865459e+01    0.1425392    0.1372815  83.82 3.540263e-05    1.003    0.003
       298 -10.1379     73.9012    111.9148   1.0857403369e+02   4.4201732456e+01    0.2393726    0.1884329  58.23  0.001391725    1.291    0.225
       299 -10.7962     38.0072    111.9426   1.1854250319e+02   4.8451543340e+01    0.2109613    0.1385101  85.94 -0.001320134    1.467    0.318
       300 -11.0645     38.3756    108.7335   1.1799888495e+02   4.9139384653e+01    0.2908417    0.2092678  63.35 0.0008443648    1.409    0.290
       301 -10.5659     86.4382    110.0198   1.0474392889e+02   4.2769206557e+01    0.3048108    0.1939613  67.14  0.001440924    1.963    0.490
       302 -10.5408     20.6237    109.6734   1.2303977934e+02   5.0486154489e+01      0.26549      0.16655 -42.50  0.001585613    1.983    0.496
       303 -10.3262     65.4665    109.1751   1.1042853870e+02   4.5961257827e+01    0.2557082    0.1742455 -87.52  0.001002356    1.575    0.365
       304 -10.3565     63.1763    105.2236   1.1036349863e+02   4.7152416279e+01    0.2213088    0.1684815 -84.88 0.0006371755    1.284    0.221
       305 -10.8035    112.9131    105.0151   9.6462871708e+01   3.9294091506e+01    0.2072574    0.2010412 -77.09 0.0002967453    1.025    0.024
       306 -10.0265    123.9180    103.4975   9.3220899291e+01   3.7468037093e+01     0.219712    0.1886779 -49.48 0.0004405988    1.164    0.141
       307 -12.0717     52.3549    100.8489   1.1272915086e+02   4.9454548984e+01     0.544091     0.420542 -13.57  0.002873324    1.865    0.464
       308 -11.0980     58.7625    100.3094   1.1074076065e+02   4.8820833827e+01    0.2309307    0.2194526  48.48 0.0006468287    1.202    0.168
       309 -11.2841     43.1353    102.1078   1.1564705720e+02   5.0165477427e+01    0.3230056    0.2346317 -83.20 0.0008913376    1.247    0.198
       310  -9.5947     29.1963    103.1983   1.1984834295e+02   5.1232413539e+01    0.1588647    0.1175861  80.58 0.0003290079    1.271    0.213
       311 -10.8506      9.2270    101.6501   1.2534177149e+02   5.3081299593e+01     0.365582    0.1489253 -69.89  0.001014616    1.869    0.465
       312 -10.7011    135.0748    100.8734   8.9734936099e+01   3.5697631888e+01    0.3024279    0.2084311 -38.58     0.001412    1.512    0.339
       313 -10.7513     75.8349    102.6622   1.0622097706e+02   4.6013024176e+01    0.2543206    0.1315912  27.31   0.00109488    2.593    0.614
       314 -10.9004     70.6811    101.6051   1.0749749617e+02   4.6978168450e+01    0.2524662    0.1941905 -46.29 0.0002443162    1.355    0.262
       315 -10.7062     36.8465     98.4495   1.1692942799e+02   5.1616383314e+01    0.3625793    0.1425259 -76.33  0.001529411    2.662    0.624
       316 -12.8802    106.4527     97.5977   9.6404233877e+01   4.2095538634e+01    0.3131308     0.291736  38.00 0.0007050947    1.140    0.123
       317 -11.0149     86.0459     97.0880   1.0205634219e+02   4.5716677738e+01    0.3431737    0.3331477  10.75  0.001319799    1.178    0.151
       318 -10.2623     80.1990     95.9940   1.0351575327e+02   4.6868188261e+01     0.232823    0.1873415  13.45  0.001276385    1.617    0.382
       319 -10.7949     62.8742     96.1018   1.0870058230e+02   4.9263408150e+01    0.1960675    0.1814909  75.78 0.0003374875    1.117    0.105
       320  -9.9174     23.9642     96.4603   1.2047281627e+02   5.3184244386e+01    0.1562626    0.1151564  35.80  0.001021674    1.584    0.369
       321 -10.7813     53.7132     92.5047   1.1077877596e+02   5.1198895028e+01    0.2492266    0.1904641 -48.34  0.001487043    1.311    0.237
       322  -9.6946      1.5639     92.7935   1.2664673129e+02   5.5491837253e+01    0.1596588   0.08459542  89.62 0.0006015477    1.623    0.384
       323 -10.4379    106.0619     91.5959   9.4987429204e+01   4.3458886169e+01     0.240089    0.1951942 -65.34 0.0004105302    1.269    0.212
       324  -9.9143    102.1266     92.1433   9.6237667448e+01   4.4065623294e+01    0.1990287    0.1852588 -28.93 0.0002457724    1.157    0.136
       325 -10.7982    113.1073     90.7784   9.2818232345e+01   4.2285808184e+01    0.3342298    0.1698648  47.65  0.001374879    2.030    0.507
       326 -11.6417      9.3018     85.8475   1.2355515195e+02   5.6586440027e+01    0.2177872    0.1604866 -81.95 0.0002771062    1.091    0.084
       327 -10.4527     88.1400     89.1404   9.9538381102e+01   4.7140282488e+01     0.222118    0.1890812 -28.21 0.0009251612    1.332    0.249
       328 -10.4955     77.9485     88.0295   1.0233910149e+02   4.8988894070e+01    0.2059838    0.1832941 -63.71  0.000371797    1.030    0.029
       329 -10.4625     67.2412     88.5882   1.0576891962e+02   5.0390833347e+01    0.1993017    0.1782349 -25.28 0.0005082203    1.299    0.230
       330 -10.9316     63.3759     86.8922   1.0659817771e+02   5.1285482834e+01    0.3496479    0.2351534  18.67  0.001820433    1.995    0.499
       331 -10.9454     27.4896     87.9821   1.1816663370e+02   5.4815913196e+01    0.1926388    0.0995454 -69.89  0.001030889    1.585    0.369
       332 -11.1962     48.8480     84.7370   1.1076845363e+02   5.3513408569e+01    0.4478234     0.237599 -33.13  0.001391779    2.822    0.646
       333  -9.8133     53.5180     82.4729   1.0878080465e+02   5.3498254179e+01    0.1300216    0.1127149 -64.18 -3.181539e-05    1.010    0.010
       334  -9.9340    128.8273     85.6198   8.7190731497e+01   4.0114186298e+01    0.2243002    0.1410464  58.50 0.0009605566    1.797    0.443
       335 -10.5015     98.2512     84.0137   9.5211876533e+01   4.6517371420e+01    0.2185416    0.2040771  41.60 0.0004949365    1.131    0.116
       336  -9.5604     30.6318     84.6849   1.1663316634e+02   5.5299523487e+01     0.126711   0.07917287 -41.30 0.0007037158    1.776    0.437
       337 -10.7273    133.0007     82.6543   8.5262362240e+01   3.9792333855e+01    0.2903887    0.2342953  68.89   0.00104538    1.404    0.288
       338 -10.8886     89.5568     81.2636   9.7065802467e+01   4.8626677030e+01    0.3404307    0.2227453 -51.74  0.001679589    1.434    0.302
       339 -10.7185     42.1951     80.7268   1.1213030647e+02   5.5122058032e+01    0.3002841    0.2475139 -73.86   0.00193669    1.080    0.074
       340 -10.1390     20.1448     82.0737   1.1959960815e+02   5.6714597635e+01    0.1794164    0.1325696 -57.54 0.0003990805    1.219    0.180
       341  -9.6303     77.0011     80.7972   1.0083576310e+02   5.0736779636e+01    0.2122954     0.157418 -12.30  0.001066294    1.917    0.478
       342 -10.2895     68.0167     78.9038   1.0323060334e+02   5.2455096526e+01    0.2010218    0.1771506 -48.57 0.0004534373    1.085    0.078
       343 -10.0639    110.7777     77.6380   8.9782143848e+01   4.5483489850e+01    0.2009636    0.1376787  54.78 0.0004269139    1.596    0.374
       344 -11.2639     59.9265     74.7194   1.0485910674e+02   5.4458797847e+01    0.4098831    0.2899862  89.51   0.00215593    1.817    0.450
       345 -10.1299     28.3210     75.0840   1.1570564469e+02   5.7660684223e+01    0.2794133    0.1004612 -56.67 0.0009290707    2.152    0.535
       346 -11.2112      6.6154     89.9946   1.2485993912e+02   5.5824543869e+01    0.4217054    0.1950612  56.75  0.002246761    2.464    0.594
       347  -9.2714    131.4102     75.4652   8.3530863900e+01   4.1546635692e+01    0.1491983    0.1449021 -54.00 9.456481e-05    1.040    0.039
       348 -10.2481    141.3922     73.8248   8.0518077058e+01   3.9575484541e+01     0.273465    0.2170361  -1.56 0.0009620339    1.551    0.355
       349  -9.8794     80.6763     74.0696   9.7862016987e+01   5.1638540015e+01    0.1919258    0.1607799 -51.47 0.0003963779    1.098    0.089
       350  -9.9514     69.4803     74.0212   1.0149505308e+02   5.3329876282e+01    0.2025671    0.1225982 -57.22 0.0007927378    1.519    0.342
       351 -10.0060     79.9620     69.5238   9.6795292907e+01   5.2728589721e+01    0.2162894    0.1683871 -48.74 0.0003685971    1.177    0.151
       352 -11.8263     52.6266     68.7360   1.0586537681e+02   5.6677588202e+01    0.3754899     0.238376 -70.42  0.001973505    1.638    0.390
       353 -11.0699      2.4285     70.2597   1.2379461719e+02   6.0419483807e+01    0.1636598   0.08830289 -84.71 0.0008520708    1.623    0.384
       354  -9.6063    118.1512     69.6070   8.5260408285e+01   4.5577237122e+01    0.1973362    0.1384173  34.21 0.0001456478    1.573    0.364
       355 -10.0419     87.9168     69.0760   9.4099653365e+01   5.1508475016e+01    0.2158792    0.1674996 -12.93 0.0004762931    1.622    0.383
       356 -12.0398     52.6766     75.5013   1.0749102811e+02   5.5165334393e+01    0.4070054    0.2713985 -51.89   0.00228262    1.321    0.243
       357 -10.3688     17.8196     75.7617   1.1938492580e+02   5.8295007270e+01     0.291114    0.1562679 -86.95  0.001450649    1.917    0.478
       358 -11.0646     45.1861     68.6484   1.0846615670e+02   5.7526715536e+01    0.2886914    0.1615447 -53.48  0.001521481    1.503    0.335
       359 -11.1857     16.5790     61.7758   1.1739497023e+02   6.1492781731e+01    0.4465095    0.3266909 -42.71  0.002989279    1.356    0.263
       360 -11.5614     22.3935     67.8208   1.1642033632e+02   5.9747639961e+01     0.368968    0.2258004 -82.88 0.0003522606    1.633    0.387
       361 -10.3427     17.4955     67.0087   1.1802204057e+02   6.0271728354e+01    0.1826969    0.1478709  59.03 -0.0003177672    1.430    0.301
       362  -9.5104     75.4386     66.4976   9.7403353928e+01   5.4080947867e+01    0.1372242    0.1237135 -47.42 4.511024e-05    1.008    0.008
       363 -10.1611      1.3249     66.1811   1.2362221263e+02   6.1370204481e+01    0.1629771   0.08390769 -82.78 0.0004393577    1.683    0.406
       364  -9.7346    137.0037     63.6795   7.8390943431e+01   4.2462095079e+01    0.2061315    0.1916267  46.28 0.0005856018    1.080    0.074
       365  -9.8987     47.6802     63.1493   1.0620061229e+02   5.8471459391e+01    0.1823886   0.09634635 -51.31 0.0002610812    1.598    0.374
       366 -11.1253      9.6473     62.8066   1.2013015923e+02   6.1685564744e+01    0.2149007    0.1837538 -12.37 0.0008770197    1.468    0.319
       367 -11.6118      5.1810     59.6337   1.2124891081e+02   6.2621196114e+01    0.3945167    0.2352703 -23.04  0.002308234    2.161    0.537
       368 -10.1228     54.8762     61.8595   1.0323930895e+02   5.7914621786e+01     0.301188    0.1419814  56.61  0.001094858    4.181    0.761
       369 -10.8920     25.0000     61.0299   1.1410292745e+02   6.1060167580e+01    0.3137585    0.1210384 -71.92  0.001077303    2.649    0.622
       370 -10.7596     21.3978     56.9926   1.1460431570e+02   6.2216976592e+01    0.3470446    0.1802537  34.57  0.001672128    2.280    0.561
       371 -10.6865     27.6810     56.6747   1.1210791937e+02   6.1806801376e+01    0.2583013    0.1474797 -43.51 0.0009569402    1.630    0.386
       372 -11.4436     29.4305     53.9433   1.1076742396e+02   6.2258434189e+01    0.4189851    0.3091876 -18.10  0.002636587    1.620    0.383
       373  -9.8456     73.8396     61.1569   9.6330510741e+01   5.5454634759e+01    0.1795246    0.1522304 -18.10 0.0003283243    1.283    0.221
       374 -11.0096     68.6405     60.7877   9.8020127942e+01   5.6306312417e+01    0.4061733    0.2292582  35.91  0.001532426    1.976    0.494
       375 -10.4282     39.4837     60.5774   1.0856822425e+02   5.9892502474e+01    0.2221326    0.1952959 -54.59 0.0009939155    1.051    0.049
       376 -10.6693     47.7508     58.4630   1.0491872692e+02   5.9484622323e+01     0.215886    0.1899257 -54.40 0.0006827884    1.038    0.037
       377  -9.9771     31.2853     58.9809   1.1126954931e+02   6.0999683585e+01    0.1727845    0.1300985 -62.23 0.0003366112    1.107    0.097
       378 -11.2003    225.8640     55.7798   5.9309443557e+01   2.1339577323e+01    0.2362502      0.21076 -33.32 0.0002867825    1.066    0.062
       379 -10.2872     79.4327     55.4994   9.2590069141e+01   5.5731429664e+01    0.2945868    0.1252989 -46.57  0.001197198    2.156    0.536
       380  -9.3973    132.7052     55.7099   7.6807277280e+01   4.4884057975e+01    0.1515292    0.1170896  14.92  0.000268552    1.552    0.356
       381 -10.8266     91.9154     54.4311   8.8078284082e+01   5.3764174918e+01     0.314632    0.2259896 -81.36  0.001424186    2.283    0.562
       382 -10.4153     52.4896     55.5036   1.0229528186e+02   5.9569973921e+01    0.1955924    0.1156877 -63.88 0.0008858701    1.751    0.429
       383  -9.8155     53.8111     52.1525   1.0077877591e+02   6.0117081574e+01    0.1744344    0.1329361 -32.70 0.0002445684    1.291    0.225
       384 -10.2639    118.7025     54.6499   8.0140343154e+01   4.8272219052e+01    0.1538759    0.1159502   4.88 0.0003373736    1.685    0.407
       385  -9.4498    150.7048     53.3706   7.1736144205e+01   4.0888026093e+01    0.1615082    0.1176644 -64.21 0.0005807126    1.730    0.422
       386 -11.5242     41.5393     52.4419   1.0560955317e+02   6.1449101664e+01    0.3265201    0.2060511 -39.75  0.001293118    1.500    0.333
       387 -10.6870    174.0093     50.2141   6.5932040348e+01   3.5387449048e+01    0.2379629    0.2172516 -30.04 0.0003590697    1.100    0.091
       388 -10.2409    128.7789     50.1250   7.5862753655e+01   4.6764970329e+01    0.2648225    0.2008342  -8.96  0.000883187    1.531    0.347
       389 -10.8800     65.7592     50.0990   9.5628497141e+01   5.8938154943e+01     0.268046    0.2079876 -63.29  0.001014343    1.420    0.296
       390 -11.3056     13.5877     50.6783   1.1632340054e+02   6.4112704246e+01    0.2468988    0.1933647  22.15 0.0008628798    1.596    0.373
       391 -11.5065     17.3642     46.4397   1.1381982138e+02   6.4787946682e+01    0.2766337    0.1584409 -41.54  0.001079616    1.614    0.380
       392 -10.8723     98.0907     49.8997   8.4510504626e+01   5.3449645953e+01    0.4165418    0.3008117 -84.29  0.001858599    2.352    0.575
       393 -10.3091     93.8921     49.9055   8.5842258497e+01   5.4259152192e+01    0.2483851    0.1995323 -20.37 0.0003294929    1.287    0.223
       394 -10.9464     73.5337     50.0621   9.2796738721e+01   5.7770906677e+01     0.210544    0.1227619 -45.14 0.0008013485    1.553    0.356
       395  -9.5281     31.6531     48.2370   1.0838552205e+02   6.3296706747e+01    0.1099997   0.08959679  70.49 0.0006903067    1.563    0.360
       396  -9.9837    205.1387     46.8923   5.9725047722e+01   2.7734467634e+01    0.2183143    0.1922517 -57.29 0.0002833726    1.163    0.140
       397 -10.5369    122.9067     46.1542   7.5966182685e+01   4.8798236505e+01    0.2614027    0.2092466 -31.20 0.0006809169    1.231    0.187
       398 -10.0869    114.3493     47.0235   7.8624335407e+01   5.0578150946e+01    0.2075093    0.1756149 -30.82 0.0003242884    1.150    0.130
       399 -11.2595     61.6352     45.0321   9.5430097615e+01   6.0544186579e+01    0.3374289    0.1974278 -35.41  0.000411706    1.680    0.405
       400 -11.6090     12.3673     46.3601   1.1588047693e+02   6.5118843363e+01    0.2833102    0.2026889 -80.44 0.0004790324    1.383    0.277
       401 -10.4303     80.8222     43.3487   8.7792709545e+01   5.7862187474e+01    0.2346292    0.1745296 -38.64 0.0002455061    1.238    0.192
       402  -9.8741     34.0342     44.2532   1.0626229300e+02   6.3923956055e+01    0.1841413    0.1298989  60.60  0.001055685    2.015    0.504
       403 -10.7488    141.4784     42.3667   7.0006467477e+01   4.4934064079e+01    0.2494105    0.2403817  34.19 0.0001932614    1.019    0.019
       404 -10.6693     70.0840     41.6552   9.1017838700e+01   5.9951446111e+01    0.2500807    0.1738629 -37.35  0.000351047    1.303    0.232
       405 -11.1341     56.6880     41.0038   9.5920274761e+01   6.2020299353e+01    0.2090801    0.1897594  17.70 0.0002461956    1.218    0.179
       406 -10.9156     41.1675     38.4853   1.0141151081e+02   6.4396922000e+01    0.3680017    0.2059381 -20.93  0.001038869    2.549    0.608
       407 -11.2369    103.7067     39.0261   7.8688567296e+01   5.4229395996e+01    0.2541931    0.2329709 -55.78 0.0004203214    1.227    0.185
       408 -11.4868     11.7287     39.0487   1.1443041632e+02   6.6715751323e+01    0.3907692    0.2764882 -23.26  0.002624946    1.570    0.363
       409 -10.6085    128.3015     37.5356   7.1374775916e+01   4.8903702498e+01    0.3663899     0.224307  -8.75   0.00130896    2.191    0.544
       410 -10.4853      4.1409     36.9197   1.1728926415e+02   6.7568593969e+01    0.3802734     0.150253 -79.85  0.001651497    3.232    0.691
       411  -9.6957     86.4388     37.4534   8.3575369832e+01   5.7922511641e+01    0.2047243    0.1273741 -26.69 0.0001227678    1.670    0.401
       412 -10.6718     87.0105     33.6890   8.1858105418e+01   5.8463691551e+01    0.1938873    0.1809613  11.91 0.0007052223    1.081    0.075
       413 -11.2570    193.9791     35.3258   5.7889141366e+01   3.2166019621e+01    0.2577942    0.2151598 -27.65 0.0002530452    1.204    0.169
       414 -11.6450    118.8188     33.8651   7.2393113894e+01   5.1702367704e+01    0.3633903    0.3045333 -71.75  0.001414193    1.500    0.333
       415 -10.7331     29.3845     34.1865   1.0512051733e+02   6.6427512668e+01    0.1868995    0.1764164 -64.82  0.000394432    1.233    0.189
       416 -11.4158    140.7177     32.7845   6.6680660532e+01   4.6528339135e+01    0.4748728    0.3517393  48.07  0.002319666    1.308    0.236
       417 -11.7006    107.2603     29.9748   7.4011157325e+01   5.4906138937e+01    0.5262085    0.2932044 -24.45 0.0005659734    1.885    0.470
       418 -11.8405     77.5868     33.4384   8.5036465599e+01   6.0216641042e+01    0.2878914    0.2418858  75.99  0.001274868    1.689    0.408
       419 -10.3548     55.7718     34.0849   9.3691576491e+01   6.3482009073e+01    0.2408925    0.1815508  50.74  0.001214605    1.719    0.418
       420  -9.6957    112.5795     33.4672   7.3925739802e+01   5.3189660788e+01    0.1432697    0.1364189  -9.67 0.0001322586    1.038    0.037
       421 -10.8087    206.6397     31.3811   5.4932804394e+01   2.9326482011e+01    0.2533572    0.2180754  76.72  0.001060778    1.171    0.146
       422  -9.3502      5.2858     32.2810   1.1565368473e+02   6.8484952761e+01    0.1152129   0.06395012 -43.59 0.0001986606    1.519    0.342
       423 -10.5499     18.8606     40.9169   1.1178957777e+02   6.5863176500e+01    0.2784166    0.1078544  33.31  0.001366739    3.042    0.671
       424 -10.9202     33.6442     30.5246   1.0192277375e+02   6.6762069370e+01     0.243938    0.2038406 -15.82   0.00165693    1.223    0.182
       425 -10.1288    159.2148     29.9708   6.1901591241e+01   4.2108924380e+01    0.2050451    0.1936742  -2.35  0.001109424    1.082    0.076
       426  -9.9003     29.3420     30.2862   1.0381218396e+02   6.7215699319e+01    0.1247004   0.07709546 -29.29 0.0007019038    1.641    0.391
       427  -9.8801     23.8485     30.6303   1.0648152500e+02   6.7617808080e+01    0.1413824    0.1089184  34.19 0.0008395176    1.613    0.380
       428 -10.0635    250.4839     29.0027   4.9405292637e+01   1.8761692507e+01    0.1982871    0.1232398 -27.31 0.0009991203    1.493    0.330
       429  -9.9729     51.1457     28.9496   9.3571938762e+01   6.5060579448e+01    0.1713913    0.1560675 -50.80 0.0003291513    1.245    0.197
       430 -12.4156    200.3696    245.1157   1.0251529843e+02   7.1185862372e-01    0.2083548    0.1768777  22.67 0.0003693371    1.217    0.178
       431 -10.0158     60.7321     34.0279   9.1667893885e+01   6.2796950235e+01    0.2175782    0.1721417 -12.42  0.001284752    1.307    0.235
       432 -11.2216    242.9993     25.3709   4.9182313573e+01   2.0922410307e+01     0.239574    0.1854353 -30.07 0.0003699457    1.217    0.178
       433 -10.1754     46.0361     25.2378   9.4259512749e+01   6.6395400312e+01    0.2231869    0.1535984 -54.91  0.001279129    1.571    0.363
       434 -11.8506      1.9059     25.3245   1.1546140014e+02   7.0080949346e+01    0.2937361    0.1327152 -67.49  0.001623542    1.847    0.459
       435  -9.4725      5.7019     23.3356   1.1299959031e+02   7.0299359433e+01    0.1920824    0.1454181 -45.23 0.0006879417    1.083    0.077
       436 -11.1695    201.4757    240.4912   1.0174730694e+02   1.0233782175e+00    0.2705099     0.154783  42.46  0.001096315    1.360    0.264
       437 -10.8614    131.6647     22.8957   6.4911672741e+01   5.0130661486e+01    0.4368387    0.2654415 -25.77  0.001483025    1.666    0.400
       438  -9.7211     90.3734     25.1369   7.7112981232e+01   5.9187723961e+01    0.1984715    0.1197298 -41.24 0.0009416805    1.697    0.411
       439 -10.2621     61.0475     23.8569   8.7262306469e+01   6.4567710732e+01    0.2427195    0.1731983   7.93  0.001345856    1.616    0.381
       440 -10.5007    221.9054     22.6552   5.0595469329e+01   2.6410366814e+01    0.1930545    0.1741735 -86.13  0.000353424    1.098    0.089
       441 -10.5632    198.2841    240.3347   1.0224534487e+02   1.5207611627e+00    0.1896771    0.1270594  23.13 0.0004381179    1.384    0.277
       442 -10.2069    153.0386     23.2689   6.0656762569e+01   4.4582640424e+01    0.2159413    0.1830851  60.04  0.000622259    1.145    0.127
       443 -12.0324    117.5461     22.6596   6.8199444148e+01   5.3596051232e+01    0.3707378    0.2505253  45.50 0.0005654047    1.428    0.300
       444 -10.8878      9.9789     22.9202   1.1070994791e+02   7.0143409568e+01    0.1950644    0.1283161 -55.21 0.0007822432    1.183    0.155
       445  -9.8440    102.4666     22.4721   7.2227786946e+01   5.7051270133e+01    0.2419918    0.1415342  67.06   0.00096079    2.365    0.577
       446  -9.7365     78.8200     22.1629   7.9716957233e+01   6.1858077639e+01    0.1812623    0.1424681  -0.67            0    1.289    0.224
       447 -10.9725     38.4642     20.9963   9.5923845491e+01   6.8067614210e+01    0.2804295    0.2026571  16.02  0.001489212    1.546    0.353
       448 -10.6950    151.8815    244.8009   1.1042153573e+02   8.0124673811e+00    0.2429816    0.1859943  12.91 0.0003480816    1.760    0.432
       449 -10.9805    182.3041     18.8725   5.4353040224e+01   3.7253472371e+01    0.3000929    0.2473625  10.50 0.0008026243    1.364    0.267
       450  -9.6677     52.8069     20.6365   8.9273989317e+01   6.6320563257e+01    0.1511901    0.1184608  41.99 0.0001800434    1.543    0.352
       451 -10.3039    198.7456     18.6450   5.2102432049e+01   3.2876145770e+01    0.1954053    0.1912387  12.22 0.0007445684    1.086    0.079
       452 -10.6692     92.7337     18.7262   7.3502096440e+01   5.9644799971e+01    0.2875878     0.170752 -36.64  0.001384963    1.677    0.404
       453  -9.7303    158.0048     17.6627   5.7730435308e+01   4.3922588366e+01    0.2032251    0.1861873  61.74 0.0005585134    1.055    0.052
       454 -11.7310    146.0540    242.9253   1.1119548815e+02   9.1143479489e+00     0.388285    0.2382761 -66.29   0.00209615    2.458    0.593
       455 -10.1936    112.4610     15.5240   6.6473870252e+01   5.5705447083e+01    0.2515886    0.2211458  13.61 0.0004976281    1.085    0.078
       456 -11.5478    141.8471    238.4422   1.1143521496e+02   1.0320972357e+01    0.5548802    0.1575728  45.38  0.002552216    2.605    0.616
       457 -10.7019    140.9913    247.0121   1.1245226823e+02   9.3440267322e+00     0.175389     0.104798  60.54  0.001139935    1.743    0.426
       458 -11.1447    136.5825    246.7299   1.1315352119e+02   1.0022963246e+01    0.2035298    0.1314848  66.04 0.0005915507    1.732    0.423
       459  -9.6097     61.0017     17.7830   8.4491173490e+01   6.5580413876e+01    0.2381694    0.1379943  44.70  0.001227196    1.979    0.495
       460 -10.9916    130.3907    246.8307   1.1418709184e+02   1.0906180793e+01    0.1966098    0.1531186 -42.22  0.001192793    1.893    0.472
       461 -10.0314    131.8451     16.4084   6.2287474276e+01   5.0879653559e+01    0.2239466    0.1175658  47.81 0.0009430508    1.794    0.443
       462 -10.7919    129.5217    242.4058   1.1391125525e+02   1.1615155524e+01    0.1816675    0.1085635 -58.87  0.001226917    2.225    0.551
       463 -10.6250     99.1795     26.9906   7.5146179363e+01   5.7098787170e+01    0.3090996    0.1954985  43.14   0.00149928    1.581    0.368
       464 -10.4864    179.8235     13.6260   5.2976147557e+01   3.8489538864e+01    0.2038635    0.1358035  84.16 0.0003648788    1.608    0.378
       465 -10.6693    148.5046     12.9720   5.7669413852e+01   4.6959565269e+01    0.3000214    0.1781131  47.84 0.0008738296    1.601    0.375
       466  -8.6633    102.5255    233.5022   1.1767277666e+02   1.6720131098e+01    0.2363946     0.105232 -65.30  0.001331504    2.805    0.644
       467 -10.2629     87.0655    231.1005   1.2012030533e+02   1.9185885482e+01    0.1975885    0.0920085  57.82 0.0005169488    1.830    0.454
       468 -11.3470    102.0525    240.3543   1.1833113136e+02   1.5786696364e+01    0.2327501    0.1761298 -80.21 0.0002363643    1.555    0.357
       469 -11.6976     99.9232    246.1355   1.1914810415e+02   1.5256349307e+01    0.5159529    0.1856565  43.34  0.002887599    2.010    0.502
       470 -11.8665     92.3428    243.0244   1.2015424269e+02   1.6711495133e+01    0.3456448    0.1871973  49.48  0.001643715    1.323    0.244
       471 -10.2736     85.8483    245.1843   1.2137625976e+02   1.7250594980e+01    0.2183908   0.09863923  49.48  0.000673975    1.568    0.362
       472 -11.5634     95.8627    239.1025   1.1926533192e+02   1.6809552655e+01    0.4956004    0.1915566  58.20  0.002567786    2.588    0.614
       473 -11.1367     92.7906    233.0205   1.1929593056e+02   1.8126747077e+01     0.465639    0.1441316  52.11 0.0007069974    2.677    0.626
       474 -11.9920     63.3936    244.1695   1.2493267990e+02   2.0195342452e+01    0.2592115     0.175514  49.83 0.0008119864    1.203    0.169
       475  -9.5187     64.3775    238.6171   1.2443841834e+02   2.0911754418e+01    0.2279355    0.0703679  49.91  0.001245272    2.241    0.554
       476 -10.2088    191.4825    240.4411   1.0336912878e+02   2.5386319135e+00     0.225012     0.141412  26.28  0.001500732    1.468    0.319
       477 -10.1674    184.8781    241.0894   1.0453385857e+02   3.4697936590e+00    0.1637407    0.1246924  49.29 0.0009118808    1.302    0.232
       478 -10.8838    120.5823    241.1713   1.1529504220e+02   1.3072648169e+01    0.2892345   0.06544934  43.72  0.001236003    3.099    0.677
       479 -11.6131    167.9769    238.6682   1.0705131578e+02   6.3286208356e+00     0.230121    0.1911685  85.63 0.0004400927    1.712    0.416
       480 -10.7289    157.2249    238.4064   1.0882985781e+02   8.0021374020e+00    0.1707672    0.1270556  72.06  0.001190557    1.731    0.422
       481 -10.7915    109.9084    238.7484   1.1687460278e+02   1.4926145724e+01    0.1716618    0.1355355  73.31 0.0002583652    1.269    0.212
       482 -11.8723     44.6771    236.6935   1.2751288408e+02   2.3490577194e+01    0.2864934    0.1292442  62.48  0.001168117    1.727    0.421
       483 -11.2997    196.8480    234.1603   1.0167773184e+02   2.4042008123e+00     0.244726    0.1894164  -9.56  0.001102219    1.559    0.359
       484  -9.9588    187.4956    236.4565   1.0352356545e+02   3.5884952268e+00    0.1135737   0.08336357  36.46 8.507595e-05    1.004    0.004
       485 -11.0043    219.6193    232.7767   9.7777537956e+01  -9.2037163994e-01    0.2551498     0.232546 -72.72  0.001307011    1.942    0.485
       486  -9.6407    132.9785    234.9784   1.1258816923e+02   1.2111032935e+01    0.1341287   0.09921825  48.42 0.0003698051    1.004    0.004
