#   1 NUMBER                 Running object number                                     
#   2 MAG_AUTO               Kron-like elliptical aperture magnitude                    [mag]
#   3 X_IMAGE                Object position along x                                    [pixel]
#   4 Y_IMAGE                Object position along y                                    [pixel]
#   5 X_WORLD                Barycenter position along world x axis                     [deg]
#   6 Y_WORLD                Barycenter position along world y axis                     [deg]
#   7 A_WORLD                Profile RMS along major axis (world units)                 [deg]
#   8 B_WORLD                Profile RMS along minor axis (world units)                 [deg]
#   9 THETA_WORLD            Position angle (CCW/world-x)                               [deg]
#  10 FWHM_WORLD             FWHM assuming a gaussian core                              [deg]
#  11 ELONGATION             A_IMAGE/B_IMAGE                                           
#  12 ELLIPTICITY            1 - B_IMAGE/A_IMAGE                                       
         1 -16.3280     19.8874    133.8479   1.3706354916e+02   4.5868717180e+01     8.970827     3.827425  22.52   0.04286214    3.077    0.675
         2 -14.4856     65.7609    139.9901   1.2578639135e+02   3.9409020881e+01       2.6885     1.575148  87.79   0.01112828    2.600    0.615
         3 -10.2883    188.0061      7.1598   6.1737600451e+01   3.7256904409e+01    0.4440946    0.2143146 -56.37  0.002091101    2.324    0.570
         4 -10.2182      6.8471      2.8641   1.0801835414e+02   7.1830903319e+01    0.2306053    0.1347916  -2.44   0.00161109    1.505    0.336
         5  -8.8936     90.4196      7.9251   7.9071416805e+01   5.9302793509e+01    0.2139127    0.1536943  47.30 0.0003340019    1.218    0.179
         6  -9.6086      2.3776      7.1818   1.1211854315e+02   7.1630192461e+01    0.2005907   0.08369447 -47.55  0.001118112    2.720    0.632
         7 -11.7906     18.7910      8.9134   1.0505476846e+02   6.9991124934e+01    0.4418139     0.366437  11.90  0.003552606    1.400    0.286
         8 -10.3864     21.3403      2.7335   1.0110547623e+02   7.0459873240e+01    0.2871991    0.1335745  37.76  0.001703211    2.471    0.595
         9  -9.7876     44.3639      3.6567   9.1919313316e+01   6.7502752238e+01    0.2199244    0.1837414 -52.05  0.001520542    2.203    0.546
        10 -11.5724    250.4373    233.6743   1.0230209895e+02  -1.2479861789e+01    0.1894913    0.1345289 -23.31 0.0005421978    1.326    0.246
        11 -14.9103    189.1006    222.9367   1.1197706476e+02  -8.7243787866e-01     4.779908     3.685323 -41.71   0.02744043    1.430    0.301
        12 -18.7737     63.5288    233.5075   1.3876330686e+02   1.8307457278e+01     5.559213     3.341773  55.00   0.03261875    1.405    0.288
        13 -15.3432     81.3308    213.1935   1.3303117602e+02   1.9979831728e+01    0.9515258    0.5999578  32.27  0.004915779    1.915    0.478
        14  -9.0837    139.1180    219.1917   1.2167178196e+02   8.9313222540e+00   0.09889761   0.08775363 -43.00 0.0005567589    1.309    0.236
        15  -8.8625    133.1897    219.1238   1.2291072878e+02   1.0015428662e+01    0.1066158   0.08272489  36.79 0.0002844473    1.289    0.224
        16  -9.5443    125.0255    219.4725   1.2468325030e+02   1.1400423679e+01    0.1528236    0.1194271  56.65 0.0003460631    1.148    0.129
        17 -11.3699    109.4910    202.8954   1.2557163842e+02   1.7636337184e+01     0.399097    0.2409981 -48.88  0.001206556    1.867    0.464
        18 -11.8583    106.4895    212.7334   1.2765165603e+02   1.6019887128e+01    0.2866399    0.2063881  82.09  0.001186032    1.483    0.326
        19 -10.6947    108.5890    209.5271   1.2674536649e+02   1.6349428325e+01    0.1901622    0.1732513  78.74 0.0001389165    1.067    0.063
        20  -9.5909    129.0884    205.1183   1.2160589950e+02   1.3651980411e+01    0.2626204   0.07752901 -52.70 0.0008610286    3.549    0.718
        21 -10.7121     10.3879    205.1265   1.4637116204e+02   3.0606480781e+01   0.08814378    0.0853314 -58.13 0.0002734847    1.566    0.362
        22 -12.3278    118.0275    201.3252   1.2344068389e+02   1.6475053738e+01    0.2711299    0.2191839 -71.78 0.0004131751    1.263    0.208
        23 -12.6184    115.0800    198.0069   1.2357270298e+02   1.7731699706e+01    0.2758771    0.2443917  83.64 0.0006171301    1.068    0.064
        24  99.0000     16.1649    202.8580   1.4510845199e+02   3.0521921428e+01    0.4928298      0.21062 -54.85  0.002442142    2.767    0.639
        25 -11.4261     16.5335    197.5273   1.4461023848e+02   3.1642944260e+01    0.1653821    0.1267215 -89.75 0.0002001759    1.055    0.052
        26  99.0000     26.3255    194.7727   1.4242250651e+02   3.1241417844e+01     0.394375    0.1783048 -74.85   0.00202734    1.856    0.461
        27 -11.7028     22.6017    195.1546   1.4320737480e+02   3.1548173806e+01    0.2662609    0.1893726 -26.58  0.001517827    2.656    0.623
        28 -10.0684     23.7745    191.6640   1.4265733565e+02   3.2202109430e+01    0.1686959    0.1237026 -85.68 0.0002756119    1.079    0.073
        29 -12.3859     98.3193    201.6045   1.2784587408e+02   1.9821604113e+01    0.2400008    0.2005263  74.28 0.0004960967    1.082    0.076
        30  99.0000      6.8139    201.9875   1.4681140963e+02   3.1617208976e+01    0.1752807   0.08434016 -60.85 0.0009801276    2.069    0.517
        31 -10.2045     10.2610    201.2764   1.4611055175e+02   3.1443076182e+01     0.126667    0.1100758  74.90 0.0009013106    1.272    0.214
        32 -11.0829      1.1602    199.8370   1.4771373654e+02   3.2591566334e+01    0.1554995   0.06318208 -85.61 0.0007893237    2.074    0.518
        33 -10.9891    101.5585    194.3109   1.2604057493e+02   2.0916690255e+01    0.4569298    0.2799818  28.98  0.001386799    2.085    0.520
        34  -8.4772      4.0379    196.6632   1.4694998442e+02   3.3013493126e+01    0.2240291    0.1144166  61.61  0.001315975    1.787    0.440
        35 -12.5623    122.4353    248.5787   1.2910946700e+02   6.2685448489e+00    0.3245372    0.2018948  51.11   0.00181434    1.350    0.259
        36  -9.6121     68.1119    192.1263   1.3323913179e+02   2.6653853039e+01   0.08678906   0.07439131 -74.77 0.0005013323    1.157    0.136
        37  -9.4563     82.1609    190.1285   1.2981816113e+02   2.5028419011e+01   0.09351743   0.08843307  57.56 0.0005473887    1.214    0.176
        38  -8.6721    108.3329    188.1315   1.2351413881e+02   2.1152690813e+01    0.1673838    0.1454775  81.54 0.0002965681    1.083    0.076
        39  99.0000    114.9058    247.6981   1.3045504774e+02   7.6709537994e+00     0.381651     0.210779 -35.46  0.001623343    3.777    0.735
        40 -10.4612     17.0534    186.9619   1.4360719553e+02   3.3925414589e+01    0.0984671   0.07174517  45.64            0    1.507    0.336
        41  -9.9201     20.6787    184.0031   1.4258818946e+02   3.4233759587e+01    0.3162248    0.1164736 -72.99 0.0008097865    2.226    0.551
        42 -13.4603    115.8679    217.0792   1.2627118007e+02   1.3495812512e+01     1.130823    0.5427036 -75.42  0.004125054    3.581    0.721
        43  -9.4406     66.8123    183.8904   1.3244691888e+02   2.8749481669e+01    0.1560472    0.1230788  82.40            0    1.148    0.129
        44  -8.6621    151.9296    181.2945   1.1224585527e+02   1.4393606758e+01    0.2563835    0.1915995  29.91  0.001225052    1.476    0.322
        45  -9.9593      4.8868    181.1668   1.4559112884e+02   3.6321671854e+01    0.1327033    0.1001889 -78.05            0    1.145    0.127
        46  -7.7491    147.1642    180.1773   1.1311331669e+02   1.5593937029e+01    0.1953735    0.1674226  87.84 0.0003555758    1.277    0.217
        47 -11.2120     63.0092    179.9192   1.3278325302e+02   3.0209173028e+01    0.1916882    0.1670385  85.52 0.0002799662    1.045    0.043
        48 -10.6570     66.6540    178.2229   1.3170425541e+02   3.0104415985e+01    0.2024344    0.1850001 -82.23   0.00036863    1.130    0.115
        49  -9.6825     21.1673    178.0730   1.4191560449e+02   3.5528294768e+01    0.1201755   0.09592201 -84.95            0    1.055    0.053
        50 -10.5994     33.6554    176.0676   1.3897419529e+02   3.4704087104e+01    0.1820087    0.1585994 -63.11  0.001100706    1.288    0.224
        51 -10.0557     27.1871    176.1608   1.4041454725e+02   3.5363559787e+01    0.1610675    0.1295346 -80.29 0.0002791169    1.081    0.075
        52 -14.9673     47.6017    201.6911   1.3874348510e+02   2.7228390571e+01    0.9659851    0.5594614 -39.07  0.004447321    3.216    0.689
        53 -11.4201     61.7353    173.3721   1.3217828561e+02   3.1930206521e+01    0.2178319    0.1867314 -81.51 0.0002878053    1.041    0.040
        54 -14.5593     42.1421    193.3964   1.3901400578e+02   2.9762856005e+01    0.9735662    0.8781872 -39.53  0.006524539    1.561    0.359
        55  -8.8694     24.8369    172.7435   1.4057187121e+02   3.6386467988e+01    0.1085591   0.07111404 -63.94            0    1.370    0.270
        56  -7.6784    143.7126    169.5832   1.1180926933e+02   1.8651324803e+01    0.2189473    0.1398365  54.06 0.0007028739    1.626    0.385
        57 -12.4380     40.8534    168.1196   1.3639060756e+02   3.5764042676e+01    0.2825659    0.2181555  77.26   0.00047276    1.210    0.173
        58  -7.7142    155.4766    168.4601   1.0884778734e+02   1.6481650470e+01    0.1513414    0.1479687  58.43 0.0001435119    1.022    0.021
        59  -9.1228     77.2709    167.8237   1.2760336487e+02   3.1040702397e+01    0.2250637    0.1637781  54.88 0.0006696498    1.384    0.278
        60  -7.5607     72.3667    166.7238   1.2862964376e+02   3.2029691490e+01    0.2720455    0.1166766  37.76 0.0007814608    2.443    0.591
        61  -7.9952     58.1569    168.7444   1.3237658879e+02   3.3506616765e+01    0.1483527    0.1180953  31.76 0.0008471266    1.513    0.339
        62  -9.2623     21.4977    168.0089   1.4081381525e+02   3.7800845601e+01    0.1596871    0.1251253 -82.74  0.001048784    1.016    0.016
        63 -15.1772     76.7270    202.7078   1.3270642915e+02   2.2989826908e+01      1.07965    0.8060161  -9.50  0.005312785    2.666    0.625
        64  -9.3895      1.1594    167.2367   1.4518985817e+02   3.9724538261e+01    0.1496102   0.06550287 -75.37 0.0004313057    1.748    0.428
        65 -12.1250     56.8141    159.6118   1.3137128812e+02   3.5865228326e+01    0.7698557    0.3708294 -59.87 0.0009824459    1.811    0.448
        66 -11.6765     51.7554    161.4742   1.3289076256e+02   3.6054404698e+01    0.2684467    0.2191233 -73.89 0.0002972443    1.061    0.057
        67 -13.8834    108.4797    244.7008   1.3134107833e+02   9.2747774603e+00    0.4195405    0.3708261 -59.86  0.002787807    1.384    0.277
        68  -8.8968    161.3924    128.2253   9.8312922820e+01   2.4084188250e+01    0.5721046    0.3663016 -82.70  0.002013746    2.868    0.651
        69 -10.0390    242.4740    125.4140   8.1894968712e+01   6.7049613594e+00    0.2822659    0.2529437 -57.15 0.0007626127    1.086    0.079
        70 -10.2480    248.9414    117.3113   7.9123607950e+01   6.8592357556e+00    0.4508086    0.1976466 -38.48  0.001872139    2.067    0.516
        71  -8.8961    196.7179    107.1950   8.5605249918e+01   2.0171058354e+01    0.2601705    0.2354561  57.13 0.0005002511    1.135    0.119
        72 -10.1033    247.7451    144.0865   8.5096185477e+01   2.3283767685e+00    0.5935846     0.225756  39.36  0.002151202    3.461    0.711
        73  -7.6771     17.0506    165.2954   1.4152616305e+02   3.8835958055e+01    0.1436598    0.1126584 -84.29 0.0004630056    1.011    0.011
        74  -8.8822    223.4403    144.1092   8.9293181053e+01   7.1099267858e+00    0.2431973    0.2344796  33.39 0.0003176242    1.101    0.092
        75 -10.9036     14.7660    243.8089   1.4815043021e+02   2.2293752245e+01    0.1815125    0.1038026 -87.46  0.001207278    1.408    0.290
        76  -8.4432    150.0534    147.0249   1.0544361511e+02   2.2428166281e+01    0.2347902    0.2295534  72.92 0.0004245492    1.019    0.018
        77  -7.4760    145.3056     78.3146   8.8721350345e+01   3.7897427833e+01    0.1513977    0.1184311  15.05 0.0003758461    1.623    0.384
        78  -9.7275    244.1721    131.8806   8.3039139886e+01   5.2016711552e+00    0.2671435    0.1841814  20.41   0.00125389    2.137    0.532
        79  -8.7324    237.3713     69.9241   7.0292780850e+01   1.7367548823e+01    0.2281241    0.1876727  65.97 0.0004299604    1.285    0.222
        80  -8.9503    126.1695     59.0264   8.7536152058e+01   4.5542470850e+01    0.2267947    0.1925327  45.65 0.0003291309    1.119    0.106
        81 -10.8569    158.6379     54.2790   7.8894718339e+01   3.8652129716e+01    0.4740361    0.3452432 -71.85  0.002223318    1.676    0.403
        82  -7.9088     82.8047     53.2153   9.7879199223e+01   5.5119778042e+01     0.175633    0.1386205   8.26 0.0003411859    1.263    0.208
        83 -11.5004    169.6693     39.2484   7.2653444196e+01   3.8049154549e+01    0.7450287    0.6020147  39.77  0.004159829    1.362    0.266
        84 -10.1341    174.2787     31.4455   6.9791681978e+01   3.7904704847e+01    0.5875325    0.3219886  40.12  0.002184884    2.278    0.561
        85  -8.9503    134.9221     42.6728   8.0355317047e+01   4.5933910149e+01    0.2241292     0.196796 -41.56 0.0003430235    1.243    0.196
        86  -8.6829    229.8598     21.2577   6.0540261523e+01   2.5933637641e+01    0.2580599    0.1786529 -33.57  0.001507941    1.671    0.402
        87  -8.5801      9.9586     21.3141   1.1420744642e+02   6.9078779694e+01     0.148761   0.06959938  41.79 0.0004606118    4.370    0.771
        88  -8.1850    125.9876    240.4319   1.2738306402e+02   7.1600744450e+00    0.2985074    0.1707109 -34.44  0.001319216    3.133    0.681
        89  -9.9605    124.9542    231.9987   1.2646592256e+02   8.9325688234e+00     0.178307    0.1541881  62.34 -0.002661949    1.031    0.030
        90 -11.1860    121.3792    239.3142   1.2815207222e+02   8.1491261963e+00      0.28295    0.1686971 -52.31  0.001490474    1.952    0.488
        91 -13.2406    120.4138    233.0686   1.2752948675e+02   9.5042907014e+00    0.4628911    0.2993053  67.70  0.002408373    1.689    0.408
        92  -9.9466    116.3012    241.3466   1.2941176888e+02   8.6181492829e+00    0.1184909     0.104764  59.54 0.0001696351    1.092    0.084
        93 -11.2552    113.9945    237.2794   1.2935969632e+02   9.7748395990e+00    0.1765361    0.1480552  61.66 0.0002527657    1.009    0.009
