#   1 NUMBER                 Running object number                                     
#   2 MAG_AUTO               Kron-like elliptical aperture magnitude                    [mag]
#   3 X_IMAGE                Object position along x                                    [pixel]
#   4 Y_IMAGE                Object position along y                                    [pixel]
#   5 X_WORLD                Barycenter position along world x axis                     [deg]
#   6 Y_WORLD                Barycenter position along world y axis                     [deg]
#   7 A_WORLD                Profile RMS along major axis (world units)                 [deg]
#   8 B_WORLD                Profile RMS along minor axis (world units)                 [deg]
#   9 THETA_WORLD            Position angle (CCW/world-x)                               [deg]
#  10 FWHM_WORLD             FWHM assuming a gaussian core                              [deg]
#  11 ELONGATION             A_IMAGE/B_IMAGE                                           
#  12 ELLIPTICITY            1 - B_IMAGE/A_IMAGE                                       
         1 -13.3654    207.3180     36.6555   5.0305039795e+01   2.8545133273e+01     1.478377      1.28233  17.06  0.006917118    1.413    0.292
         2 -13.6373    227.4901     19.0777   4.3387301123e+01   2.5736995552e+01    0.9991476    0.8906257  47.42  0.001986807    1.333    0.250
         3 -12.4126      2.8482      4.6704   9.8716213030e+01   7.3588916866e+01    0.6916285    0.4945423 -13.76  0.005211284    1.229    0.187
         4 -10.8149      2.4230     14.2624   1.0309219352e+02   7.2003290756e+01     0.360811    0.1729525 -38.92  0.001564134    1.536    0.349
         5 -12.9020      5.3215     20.1545   1.0384567322e+02   7.0785364394e+01    0.6363093    0.4423841 -50.73  0.002815693    1.268    0.211
         6 -10.6042     48.9786    244.4649   1.2495461524e+02   1.9023863877e+01    0.1652356    0.1162653  79.21 0.0007517358    1.172    0.147
         7 -11.4662    247.6572    248.8872   9.0939520303e+01  -1.1107531551e+01    0.4103707    0.2437825  20.54  0.002715106    1.371    0.270
         8 -12.3511    141.6860    249.1661   1.0932709129e+02   5.0388003917e+00    0.7218862    0.2422369  42.37  0.003339061    2.307    0.567
         9 -15.2247      6.6753    121.5659   1.2374224578e+02   4.8880898590e+01     14.11055     2.133708 -76.50   0.03410523    8.444    0.882
        10 -12.4518     56.2114    211.3288   1.2126566198e+02   2.4220102473e+01     1.084148    0.2707813  57.57  0.003318721    6.053    0.835
        11 -10.3237     54.3976    206.2066   1.2117513580e+02   2.5464597634e+01    0.3001901     0.152618  70.46  0.001524628    1.935    0.483
        12 -12.2193     81.6444    247.6315   1.1969756364e+02   1.4237222851e+01    0.4934442    0.2681542  35.22  0.002884725    2.050    0.512
        13 -12.9903      9.4343    207.0938   1.2948604265e+02   3.0238568946e+01    0.8028527    0.4563071  30.00  0.003821937    2.345    0.574
        14 -11.7148     47.7498    190.1514   1.2106522571e+02   2.9584225784e+01    0.2429406    0.2149992 -88.25 0.0004904226    1.253    0.202
        15 -11.8395     55.4454    182.4881   1.1872713241e+02   3.0277069473e+01    0.2456104    0.2146527 -83.10  0.001676624    1.210    0.173
        16 -11.3549    103.5068    230.0143   1.1416826273e+02   1.4065763512e+01    0.3275327    0.1276675  49.29   0.00156417    2.106    0.525
        17 -14.2876      9.0579    243.0793   1.3121290445e+02   2.3689451666e+01     2.296916     1.110901  45.69   0.01613495    1.732    0.423
        18 -13.3125     33.8591    204.3520   1.2491209103e+02   2.8267996763e+01    0.7882606    0.6325231  66.99  0.003654833    1.171    0.146
        19 -10.7318     67.8522    170.7652   1.1467442065e+02   3.1236429503e+01    0.2353706    0.1976541 -89.69 0.0003548037    1.048    0.046
        20 -13.1051     53.2732    168.1730   1.1764719743e+02   3.3708150132e+01     0.474514    0.2705116 -48.23  0.001633224    2.233    0.552
        21 -11.8089     76.1626    162.8370   1.1170175391e+02   3.1863842674e+01    0.5569785    0.4424779 -51.77   0.00182361    1.427    0.299
        22  -9.8582     36.0430    160.5182   1.2069942658e+02   3.7405577630e+01    0.2887763    0.1408665  71.53  0.001322492    2.285    0.562
        23 -10.2482     91.4677    148.5036   1.0573101082e+02   3.2837842344e+01    0.2846615    0.2585492 -87.83  0.000823667    1.019    0.019
        24  -9.2297     95.0592    144.6729   1.0414569940e+02   3.3144334329e+01    0.1990758    0.1907075 -37.83 0.0003681815    1.228    0.186
        25 -11.8172     79.3628    146.8091   1.0847281561e+02   3.5111033228e+01    0.2946854    0.2287353 -60.49 0.0005344744    1.239    0.193
        26 -11.8458     67.7720    143.4917   1.1086681673e+02   3.7544229419e+01    0.6468225    0.3844804  66.90  0.002464441    1.971    0.493
        27 -10.0029    105.7756    133.9977   9.9312994191e+01   3.3789902416e+01    0.4937461    0.3226056 -32.56  0.001784862    2.064    0.516
        28 -10.3211     92.0127    131.5636   1.0242659159e+02   3.6732677631e+01    0.2493208    0.1965536 -58.76 0.0003733908    1.194    0.162
        29  -8.9002    103.8484    121.9960   9.7216800877e+01   3.6941805198e+01    0.1909418    0.1765618 -66.89  0.001044547    1.020    0.020
        30 -14.6546     20.1050    216.4978   1.2814692494e+02   2.7371040438e+01       0.9312    0.9103252  49.70  0.007888507    1.678    0.404
        31 -10.7369    247.5051    111.0078   6.3648113207e+01   7.7217446221e+00    0.2287969    0.1261857 -33.89 0.0008664764    1.616    0.381
        32 -10.2135    242.5136     93.4895   6.0185883441e+01   1.1578283968e+01    0.1440156    0.1289119 -38.79 0.0008103536    1.021    0.021
        33  -9.4052    162.5032     80.4935   7.1057629884e+01   3.3038402758e+01    0.1562633     0.154097 -55.93 -0.0001104581    1.009    0.009
        34 -11.7452     92.2062    227.5630   1.1601672355e+02   1.6192737173e+01    0.3875383    0.1838978  56.69  0.001190876    1.896    0.472
        35 -11.7293    237.2053    248.0528   9.2531666594e+01  -9.5621598100e+00    0.3512784    0.1876266  17.02  0.002026227    1.926    0.481
        36 -11.5809    106.8430    247.4232   1.1530931902e+02   1.0654399629e+01    0.4154802    0.1651706  57.77  0.001932325    2.687    0.628
        37 -11.0092     69.3524    249.9100   1.2194791673e+02   1.5518090803e+01    0.2803991    0.1276312  41.15  0.001036122    1.925    0.481
        38 -10.9680     55.2255    246.2811   1.2404193005e+02   1.7942586478e+01    0.2119062    0.1231114  85.45  0.001419446    1.598    0.374
