#   1 NUMBER                 Running object number                                     
#   2 MAG_AUTO               Kron-like elliptical aperture magnitude                    [mag]
#   3 X_IMAGE                Object position along x                                    [pixel]
#   4 Y_IMAGE                Object position along y                                    [pixel]
#   5 X_WORLD                Barycenter position along world x axis                     [deg]
#   6 Y_WORLD                Barycenter position along world y axis                     [deg]
#   7 A_WORLD                Profile RMS along major axis (world units)                 [deg]
#   8 B_WORLD                Profile RMS along minor axis (world units)                 [deg]
#   9 THETA_WORLD            Position angle (CCW/world-x)                               [deg]
#  10 FWHM_WORLD             FWHM assuming a gaussian core                              [deg]
#  11 ELONGATION             A_IMAGE/B_IMAGE                                           
#  12 ELLIPTICITY            1 - B_IMAGE/A_IMAGE                                       
         1 -14.9424    161.1242     41.1141   8.2982998620e+01   3.9719839586e+01     1.548445     1.041313 -17.00  0.004071379    1.592    0.372
         2 -14.4672    173.7074      8.2315   6.9415867925e+01   4.0405314938e+01     1.090375     0.999638  17.98  0.003804523    1.107    0.096
         3 -12.3122    133.8407    246.9025   1.2851887470e+02   1.2559088610e+01    0.1515102      0.13392  61.65 0.0005619408    1.276    0.216
         4 -19.5641     86.4299    235.3518   1.3478484637e+02   2.0270146487e+01     6.529098     4.209692  57.98   0.04575342    1.114    0.103
         5 -13.3419    180.1098    192.5423   1.1481624279e+02   1.2142997302e+01    0.3780016    0.3177296  87.90  0.001378824    1.642    0.391
         6 -13.9587    176.7028    188.2538   1.1475706906e+02   1.3269869012e+01    0.6787117    0.3703038 -61.18  0.003247563    3.502    0.714
         7 -14.5160    207.1120    179.5564   1.0829114896e+02   9.1185745539e+00    0.7571296    0.6291298  29.01  0.004189454    1.021    0.021
         8 -13.6780    196.7582    172.4977   1.0882108884e+02   1.1814758917e+01     0.599965    0.3610167 -43.37  0.002774825    2.027    0.507
         9 -10.5345    139.7306    240.9531   1.2708953173e+02   1.2433487552e+01    0.3964126    0.1133165  47.21  0.002019633    2.553    0.608
        10  99.0000     13.7969    239.9497   1.4574250923e+02   2.7573895652e+01    0.2148074   0.05589361 -80.14  0.001276128    3.706    0.730
        11 -12.1118    139.2715    248.6671   1.2786710350e+02   1.1612987288e+01    0.2832027    0.2157355 -81.26  0.002093525    1.773    0.436
        12 -10.8047     30.4767    183.0244   1.4053464203e+02   3.4904266824e+01    0.1660335    0.1388872 -66.00  0.001074341    1.616    0.381
        13 -11.7291     33.5397    182.5055   1.3995459832e+02   3.4683860774e+01    0.1692896    0.1261689  57.51 0.0005785673    1.212    0.175
        14 -10.3569     25.5685    230.4105   1.4370057642e+02   2.7810163923e+01    0.0908106   0.06071868  64.49 5.695927e-05    1.036    0.035
        15 -10.5573     25.2741    225.0368   1.4352219676e+02   2.8631195020e+01    0.1202366   0.08090521  76.38 0.0004917342    1.166    0.143
        16 -13.4868    177.5000    169.9805   1.1173147953e+02   1.5610550323e+01    0.4219074    0.2941019  30.23  0.002501585    1.439    0.305
        17 -12.1350    168.2614    175.6465   1.1429162873e+02   1.6449510943e+01     0.205832    0.1755749  44.10 0.0006546498    1.009    0.009
        18 -13.3138    138.7759    172.4629   1.1918960708e+02   2.2013427413e+01    0.5106831    0.3603278  83.24  0.002525645    1.849    0.459
        19 -12.4126    131.0652    170.9042   1.2041549475e+02   2.3551993659e+01    0.5247694     0.199667  56.34  0.002075113    3.315    0.698
        20 -12.8721    148.0073    173.0097   1.1755553641e+02   2.0359405955e+01    0.3379526    0.2173026  60.69  0.001125957    1.617    0.381
        21 -13.6335    144.5687    168.9149   1.1757317294e+02   2.1591999035e+01    0.5002062    0.3110905  47.85  0.002599028    1.390    0.280
        22 -11.8155     26.1194    173.4744   1.4073370756e+02   3.7029628929e+01    0.2236468    0.1650324  70.59 0.0003349883    1.053    0.051
        23 -10.8037     34.0493    169.5569   1.3898732820e+02   3.6950278492e+01    0.1860452    0.1149036  82.76   0.00131132    1.329    0.247
        24 -13.9317    174.9176    193.6441   1.1584920301e+02   1.2870419066e+01    0.5059795    0.3779464 -63.62  0.002571374    1.896    0.472
        25 -11.9070    123.2702    166.3326   1.2125408926e+02   2.5597144732e+01    0.3396708    0.1979809  67.15  0.001531192    2.091    0.522
        26 -10.9326    230.3187    166.6397   1.0230073414e+02   6.5458413542e+00    0.1088998   0.09762165 -79.93 0.0007043155    1.765    0.433
        27 -11.8790    201.9191    165.6122   1.0674290468e+02   1.1766077259e+01    0.2633342    0.1997003 -62.76  0.001388217    2.022    0.505
        28 -10.8244    219.2174    224.2099   1.1311808217e+02   2.4852278651e+00    0.1313582    0.1062341  44.18 0.0003439772    1.324    0.245
        29 -11.5644    223.7741    163.7746   1.0281022489e+02   8.0335959218e+00    0.2047045    0.1866275  -1.75 0.0005062872    1.188    0.159
        30 -12.2186     17.8695    156.2219   1.4120750899e+02   4.0989091017e+01    0.4170015    0.1877488 -67.17   0.00257958    2.071    0.517
        31 -10.5340     22.5503    221.2184   1.4377398777e+02   2.9470976058e+01   0.09993686   0.07242553 -83.15 0.0003861341    1.492    0.330
        32 -11.1154     22.9833    156.0885   1.4018551362e+02   4.0546856196e+01    0.1615734     0.119775  77.64 0.0005165135    1.010    0.010
        33 -14.3003    134.3027    145.9649   1.1583612605e+02   2.7248276279e+01     1.082228    0.3416846 -54.92  0.003824811    4.100    0.756
        34 -10.0455      6.5321    155.5504   1.4338839307e+02   4.2085944750e+01    0.1016324   0.07435007  80.27 0.0002337841    1.046    0.044
        35 -12.4205    125.1643    243.8038   1.2955112161e+02   1.4107648046e+01    0.2076877    0.1448609 -64.51 0.0005914217    1.899    0.473
        36 -10.9103    150.8587    245.4252   1.2583881585e+02   1.0362960685e+01    0.1373528    0.1092146  55.25 0.0003150692    1.182    0.154
        37 -12.1231    174.4948    148.8040   1.0851251921e+02   1.9277919995e+01    0.2746837    0.2260217  63.65 0.0009737494    1.314    0.239
        38 -14.3790    143.6073    143.1938   1.1345566178e+02   2.6041798676e+01    0.7964408     0.459522 -62.51  0.003794937    2.278    0.561
        39 -13.2957    152.6593    145.5059   1.1207581032e+02   2.3960541702e+01    0.3703311     0.303764  57.04  0.002240494    1.155    0.135
        40 -11.9407     27.3548    145.5895   1.3850112984e+02   4.2162495401e+01    0.2062366    0.1672486 -75.94 0.0008080988    1.298    0.229
        41 -12.0605    168.1023    244.6537   1.2318975549e+02   7.9999467245e+00    0.1451888    0.1250852  59.58 0.0006193541    1.319    0.242
        42 -12.2379      8.4847    137.9283   1.4192406668e+02   4.5319141878e+01    0.2708055    0.1810172 -62.54  0.001638859    1.632    0.387
        43 -12.6412    134.1255    133.1579   1.1353964356e+02   2.9584258198e+01     0.379764    0.2167945  62.92   0.00128993    2.146    0.534
        44 -13.7856    135.5313    122.5571   1.1112988699e+02   3.1275545743e+01     1.127023     0.278996 -51.94  0.003183685    5.359    0.813
        45 -12.6306    148.1272    133.1690   1.1062850299e+02   2.6937054184e+01    0.3401679     0.263652 -27.36  0.001419339    1.568    0.362
        46 -11.1897    119.9840    205.7733   1.2673977947e+02   1.9881468486e+01    0.1998628    0.1754635 -25.01 0.0002725346    1.735    0.424
        47 -12.5168    160.6770    128.2780   1.0708800568e+02   2.5309690120e+01    0.3217882    0.2993632 -63.56  0.001832802    1.160    0.138
        48 -12.2374     30.0877    126.4712   1.3616674116e+02   4.5750783563e+01    0.2044311    0.1685989  -3.99  0.001436981    1.994    0.498
        49 -11.5419     22.0170    244.5850   1.4474832987e+02   2.6147435787e+01    0.1444539   0.08264621  72.20 0.0007785919    1.277    0.217
        50 -12.1263    114.7886    118.0705   1.1484452112e+02   3.5967429948e+01    0.2423053    0.1917405  41.87 0.0004252537    1.320    0.242
        51 -12.7889     53.4605    116.7439   1.2938533217e+02   4.5314352799e+01    0.2733325    0.2029234  21.98  0.001697513    1.898    0.473
        52 -13.0524     11.5871    205.9574   1.4485261767e+02   3.2877984615e+01    0.3556463    0.2316322  34.63  0.002888014    1.913    0.477
        53 -18.5955     72.3242    102.1910   1.2217687136e+02   4.6011751243e+01     16.01269    0.4526363 -58.55   0.01969667   29.318    0.966
        54 -11.3250      3.2801    112.4353   1.4124967556e+02   5.0858023486e+01    0.1618567     0.108962  19.76  0.001135515    2.112    0.526
        55 -10.8332    205.4484    110.1605   9.4592034301e+01   1.8717603542e+01    0.3176405    0.1884172  41.87  0.001021468    1.640    0.390
        56 -12.4096    118.6999    108.3852   1.1189416517e+02   3.7171752340e+01    0.3880351    0.1588669 -46.38  0.001553517    2.472    0.595
        57 -12.0213    139.9093    199.3664   1.2259007728e+02   1.7775393090e+01    0.3787656    0.1687865  50.09  0.002039183    1.877    0.467
        58 -11.2404    157.2043    106.0408   1.0278710738e+02   2.9886784648e+01    0.2434595    0.1996562  60.15  0.001309004    1.250    0.200
        59 -10.8448     41.7082     91.9564   1.2869436972e+02   5.1948387238e+01    0.1705138    0.1321085 -75.47 0.0004463282    1.065    0.061
        60 -11.1781    135.5309    196.4457   1.2299048344e+02   1.8880767457e+01    0.2045966    0.1555505  62.99 0.0006380911    1.224    0.183
        61 -10.5333    143.4594     79.9895   9.8959856525e+01   3.7560556130e+01    0.2215676    0.1418108 -38.97 0.0005993446    1.544    0.352
        62 -10.5917    123.9687     69.1612   1.0040296950e+02   4.3774870565e+01    0.2276033    0.1649519  80.28 0.0007781319    1.894    0.472
        63 -14.2209    149.9150     56.1276   9.0261989843e+01   4.0195247992e+01    0.8766481    0.7502595 -14.60 0.0009488127    1.212    0.175
        64 -14.1738    167.0972    191.1122   1.1681569330e+02   1.4508512913e+01    0.5911275    0.4449698  81.05  0.003749154    1.862    0.463
        65 -12.9428    164.6273     32.8753   7.9506440332e+01   3.9953043678e+01    0.4394597    0.3864137  -7.63 0.0008759057    1.150    0.131
        66 -11.0073     13.5213     59.9363   1.3193524500e+02   6.1379523455e+01    0.1611203     0.136515 -75.48 0.0004729738    1.103    0.093
        67 -11.4633    148.1768     35.2855   8.3483776878e+01   4.3809940867e+01    0.4587978     0.265419  82.19  0.001063427    2.719    0.632
