#   1 NUMBER                 Running object number                                     
#   2 MAG_AUTO               Kron-like elliptical aperture magnitude                    [mag]
#   3 X_IMAGE                Object position along x                                    [pixel]
#   4 Y_IMAGE                Object position along y                                    [pixel]
#   5 X_WORLD                Barycenter position along world x axis                     [deg]
#   6 Y_WORLD                Barycenter position along world y axis                     [deg]
#   7 A_WORLD                Profile RMS along major axis (world units)                 [deg]
#   8 B_WORLD                Profile RMS along minor axis (world units)                 [deg]
#   9 THETA_WORLD            Position angle (CCW/world-x)                               [deg]
#  10 FWHM_WORLD             FWHM assuming a gaussian core                              [deg]
#  11 ELONGATION             A_IMAGE/B_IMAGE                                           
#  12 ELLIPTICITY            1 - B_IMAGE/A_IMAGE                                       
         1 -13.3240     34.1240    197.1817   1.1712145762e+02   2.8727354935e+01     3.573526     1.515877  80.23   0.01434462    3.086    0.676
         2 -11.6870    218.0573     34.8175   3.9238224079e+01   2.6994112138e+01    0.9559799    0.6455417 -69.34  0.005374654    1.397    0.284
         3 -11.1619    223.7693     28.2650   3.7181839685e+01   2.6552551543e+01    0.6105576    0.4045644  51.51  0.001830237    1.848    0.459
         4  -9.8514      1.8420     13.8612   9.3163795501e+01   7.2829568293e+01    0.3243529   0.08685843 -52.14  0.001346366    3.785    0.736
         5 -11.6239    240.7290     12.9989   3.2525599959e+01   2.4738312351e+01     0.672084    0.4724844 -62.81  0.002649482    1.144    0.126
         6  -8.4241      8.6563      4.3334   8.4416984677e+01   7.3717393517e+01   0.09199295   0.08794013  14.61 0.0007050395    1.760    0.432
         7  -8.6794     20.1248    238.3453   1.2286410131e+02   2.1413957111e+01    0.1514002    0.1324042  39.90 0.0006098963    1.453    0.312
         8 -10.6972     72.4747    248.0096   1.1353796047e+02   1.3215047356e+01    0.6748788     0.493816  84.40  0.004394763    1.365    0.267
         9 -10.8728     83.8727    247.2454   1.1120920451e+02   1.1796035641e+01    0.5640922     0.360625  42.24  0.001763477    1.315    0.240
        10 -10.6549     59.7961    247.8855   1.1599808061e+02   1.4903723332e+01    0.4067494    0.3368526  69.30  0.002889782    1.089    0.081
        11  -9.0384     48.5153    250.4987   1.1833954369e+02   1.5818056967e+01    0.1878053    0.1078095  25.68  0.001028995    2.292    0.564
        12  -8.1368     37.4858    249.9656   1.2035366419e+02   1.7232270338e+01    0.1615884   0.07169561  72.77 0.0008075986    2.378    0.579
        13 -10.2708     13.7447    250.1408   1.2461851537e+02   1.9798030091e+01    0.7009135    0.1607861  35.02  0.003109587    3.618    0.724
        14  -8.7308      2.7019    233.2432   1.2578270416e+02   2.4164730187e+01    0.1800205    0.1582283  43.88  0.001328249    1.459    0.315
        15  -9.7111      2.0108    248.2940   1.2655815579e+02   2.1314061762e+01    0.3820183    0.2013527 -81.64  0.002519173    1.703    0.413
        16 -10.5959      2.3202    240.0670   1.2615588586e+02   2.2858740855e+01    0.5945244    0.2691825  86.22  0.003494047    1.902    0.474
        17 -11.1869     84.7135    230.4518   1.0934128742e+02   1.4949747208e+01    0.6185293    0.3927223  84.74  0.002340101    1.847    0.459
        18 -10.2447     87.0402    224.6312   1.0820505834e+02   1.5803052528e+01    0.3151765    0.2396775  84.93  0.001864579    1.359    0.264
        19  -9.7105    140.4076    231.3330   9.7562301877e+01   6.1903751723e+00    0.2901857    0.2057349  49.07  0.001623389    1.362    0.266
        20 -10.0018    128.0169    231.5334   1.0022866913e+02   8.1347979700e+00    0.2392924    0.1813205  31.46  0.001153327    1.227    0.185
        21  -8.4685     59.9157    232.0629   1.1466227080e+02   1.8012638518e+01    0.1937351    0.1541082  64.07 0.0006237474    1.021    0.021
        22 -10.8707    117.4128    230.5845   1.0237266877e+02   9.9903609659e+00    0.3949082    0.2057734  33.03  0.001883082    1.821    0.451
        23 -10.1479      2.4281    226.4025   1.2551201783e+02   2.5568029739e+01    0.3382632    0.2327168 -59.18  0.002298937    1.831    0.454
        24  -9.3484    158.2828    229.7222   9.3550970260e+01   3.5963469821e+00    0.2775165    0.1491692  19.13  0.001182888    2.521    0.603
        25  -9.8437      5.1058    228.2018   1.2510504994e+02   2.4951813277e+01    0.1946835    0.1598537 -75.26 0.0008796101    1.411    0.291
        26  -8.5526    110.3274    224.6656   1.0314094858e+02   1.2263987110e+01    0.1404861   0.09278389  64.89  0.000705172    1.719    0.418
        27  -9.5745     77.7736    221.9006   1.0991151080e+02   1.7705625836e+01    0.3150882    0.1703628  59.39  0.001537694    1.880    0.468
        28 -12.3761      9.5368    207.1179   1.2309671820e+02   2.8978573538e+01    0.9328992    0.8335174  53.57    0.0040621    1.318    0.242
        29  -8.3110     29.5262    246.4829   1.2160259609e+02   1.8804308404e+01    0.1146515   0.08622273  66.80 -9.827829e-06    1.014    0.014
        30 -11.1820     23.2383    207.3838   1.2028937558e+02   2.7581811768e+01    0.3923897    0.3007098 -51.09 0.0009981723    1.686    0.407
        31 -10.0374     53.7361    179.9465   1.1071244914e+02   3.0511545819e+01    0.4039438    0.2877979 -28.58  0.002058185    2.083    0.520
        32 -10.2015     59.8697    174.0864   1.0842638075e+02   3.1159963374e+01    0.3497677    0.2599364 -45.84 0.0005031918    1.541    0.351
        33  -8.0242      2.3292    181.3060   1.2298573124e+02   3.5401765005e+01    0.1148296   0.08037118 -53.59 0.0002432449    1.656    0.396
        34  -9.2837      1.8624    173.2807   1.2254108383e+02   3.7302002544e+01    0.2238686    0.1341981  87.48  0.001308655    1.377    0.274
        35  -7.8989     90.3151    168.3188   9.9622875195e+01   2.8153803176e+01    0.1461627    0.1147263 -25.39  0.000703882    1.653    0.395
        36 -10.2278     56.5184    209.7318   1.1330925522e+02   2.3218006893e+01    0.4830749    0.2262144  55.53  0.002249755    2.078    0.519
        37  -9.8143     70.9635    164.0912   1.0408293597e+02   3.2129489058e+01    0.3366661    0.2626972 -57.96 0.0004271519    1.253    0.202
        38 -11.2268     78.5655    157.6824   1.0097499651e+02   3.2624153390e+01    0.6857761    0.6111754  55.51  0.001928221    1.129    0.114
        39 -11.6293     57.1942    160.5614   1.0726126346e+02   3.4867840253e+01     0.533042    0.3134491 -41.88  0.001582906    2.067    0.516
        40  -8.0097     36.2302    160.7733   1.1288686234e+02   3.7244902208e+01     0.235954    0.1129418  67.28 0.0005637432    2.728    0.633
        41  -8.3355     32.5618    156.7764   1.1338205087e+02   3.8615191161e+01    0.1904435    0.1130134 -85.46 0.0006448666    1.609    0.379
        42  -9.3228      2.2862    186.4769   1.2333233794e+02   3.4219861428e+01    0.3260364   0.06593763 -71.46  0.001228795    3.551    0.718
        43 -11.5424     68.2695    144.4380   1.0156966932e+02   3.7470453212e+01    0.7639802    0.5438671  76.05   0.00296401    1.654    0.395
        44  -7.9580     97.9910    139.8122   9.2079195760e+01   3.3941976655e+01    0.2568105    0.1906143 -19.81  0.001147034    1.796    0.443
        45 -10.3437      8.6030    142.6834   1.1826805009e+02   4.4155037669e+01     0.350239    0.1847603 -44.35  0.001775497    2.132    0.531
        46 -11.3695      2.6038    130.9387   1.1872491835e+02   4.7422337813e+01     1.110754     0.253231 -78.06   0.00351832    4.387    0.772
        47  -9.1614    106.8399    131.5529   8.7710639442e+01   3.4371969893e+01    0.3514771    0.3009431   3.17 0.0008049473    1.381    0.276
        48  -9.0062     94.3907    143.6120   9.3899508722e+01   3.3617862656e+01    0.3148361     0.277111 -24.48  0.001575618    1.288    0.223
        49  -8.0119    239.3284    127.3051   5.7507225562e+01   7.9107510717e+00    0.1354426    0.1026813  -3.33 0.0007036069    1.652    0.395
        50 -10.2324     82.0277    141.9108   9.7106271824e+01   3.6067965724e+01    0.3161582    0.2782632 -44.82 0.0004320642    1.163    0.140
        51  -8.0322     94.2039    127.7741   9.0517549125e+01   3.7586139877e+01    0.2118296    0.1815514 -16.04  0.001057737    1.347    0.258
        52  -8.0505    104.7530    120.0649   8.5554933724e+01   3.7542777874e+01    0.2128837    0.1895615 -44.42 0.0002016891    1.093    0.085
        53 -10.3440      2.0578    110.5068   1.1654524489e+02   5.2413644517e+01    0.5924057    0.1211749 -72.16   0.00197667    3.857    0.741
        54  -8.7654      6.8282    112.3667   1.1527374355e+02   5.1693417626e+01    0.1580654    0.1154104 -14.82  0.000947921    1.703    0.413
        55  -8.0766    205.1891    110.8213   5.9387822485e+01   1.7708912849e+01    0.2025429    0.1772176   5.10  0.001075888    1.344    0.256
        56 -11.3165      2.1280     88.2504   1.1333107520e+02   5.7697496717e+01     1.423657    0.1030513 -68.99  0.003284923    8.372    0.881
        57 -10.4122      1.8431     61.2438   1.0827555715e+02   6.3783345484e+01    0.5676064    0.1094122 -64.58  0.001953413    4.109    0.757
        58  -9.3283     13.0337     60.0272   1.0307586099e+02   6.3415030915e+01    0.1909347    0.1548661 -41.20  0.000589809    1.027    0.026
        59 -11.8338    210.0914     38.8071   4.1049013813e+01   2.8281164555e+01    0.6463714    0.5279077  34.82  0.003767342    1.651    0.394
        60 -10.3074     95.0576    244.7310   1.0870263182e+02   1.0675271517e+01    0.3935526    0.2288393  28.85  0.002075339    1.851    0.460
        61 -10.4080    114.3922    238.3114   1.0398149067e+02   8.9928250371e+00    0.3794124    0.2155809 -47.29  0.001960975    2.136    0.532
        62  -9.9133      2.0822     38.1282   1.0203953905e+02   6.8500873804e+01    0.3340125    0.1344966 -59.60  0.001663536    2.260    0.557
        63  -7.9818    127.3287     35.0218   5.3203621782e+01   4.8815188701e+01     0.181734    0.1758105 -49.52 0.0003824292    1.125    0.111
        64  -9.9923     11.3018    230.9576   1.2409777853e+02   2.3794276528e+01    0.3623782    0.1556213 -57.68  0.001867197    2.917    0.657
        65 -10.2708     13.0698    235.5973   1.2401402160e+02   2.2686571023e+01    0.2723569    0.1534039  74.05  0.000675963    1.448    0.309
