#   1 NUMBER                 Running object number                                     
#   2 MAG_AUTO               Kron-like elliptical aperture magnitude                    [mag]
#   3 X_IMAGE                Object position along x                                    [pixel]
#   4 Y_IMAGE                Object position along y                                    [pixel]
#   5 X_WORLD                Barycenter position along world x axis                     [deg]
#   6 Y_WORLD                Barycenter position along world y axis                     [deg]
#   7 A_WORLD                Profile RMS along major axis (world units)                 [deg]
#   8 B_WORLD                Profile RMS along minor axis (world units)                 [deg]
#   9 THETA_WORLD            Position angle (CCW/world-x)                               [deg]
#  10 FWHM_WORLD             FWHM assuming a gaussian core                              [deg]
#  11 ELONGATION             A_IMAGE/B_IMAGE                                           
#  12 ELLIPTICITY            1 - B_IMAGE/A_IMAGE                                       
         1 -10.7397     13.7535     15.9661   1.0809470210e+02   6.9758199033e+01    0.3285018    0.1641631  24.41   0.00194731    1.999    0.500
         2 -11.2548     40.2494     18.7254   9.7772424983e+01   6.6506975684e+01    0.4699927     0.323426  13.46  0.002639815    1.268    0.211
         3 -10.1744     38.6798      2.2537   9.1134812792e+01   6.8519597647e+01    0.3355329    0.1417283 -23.17  0.001849307    2.323    0.570
         4 -10.8111     22.3316      9.2640   1.0125675899e+02   6.9765692002e+01    0.3447558     0.180726  13.65  0.002092092    1.931    0.482
         5 -11.7876     30.3901      7.3996   9.6890017475e+01   6.9057491015e+01    0.3419318    0.2569812  13.97  0.001225443    1.155    0.134
         6 -12.1782     40.2152      8.5687   9.3384865878e+01   6.7672012904e+01    0.4105645    0.2493393  -0.75  0.001151851    1.591    0.371
         7 -10.6686    100.1569     18.7552   7.8514699228e+01   5.6352637642e+01    0.3480299     0.231408 -55.24  0.001851892    2.262    0.558
         8 -11.5111     92.3336      8.7875   7.6838509882e+01   5.8855181804e+01    0.3805687    0.3089196   3.08  0.002565118    1.258    0.205
         9 -10.5004     87.5252     11.8596   7.9234152040e+01   5.9522283544e+01    0.2932025    0.2268027  40.34  0.001267601    1.106    0.095
        10 -11.3775    156.0369     13.6938   6.6007490324e+01   4.4344242594e+01    0.4088321    0.2614192  35.10  0.002173559    1.882    0.469
        11 -10.4072    119.1561     12.0372   7.1935200061e+01   5.2949702978e+01    0.2100582    0.1550512  53.55 0.0002872088    1.150    0.130
        12 -10.9265     90.1779     16.0844   8.0112880376e+01   5.8608057317e+01    0.2760561    0.1986217  -2.72  0.000431298    1.468    0.319
        13 -11.7752    150.9349      7.2929   6.4976457703e+01   4.6136549343e+01     0.381114     0.291418  28.97  0.002326468    1.544    0.352
        14 -12.3648     56.1771      5.7248   8.6244914976e+01   6.5607656434e+01    0.5278992    0.3829601   1.96  0.002500499    1.225    0.184
        15  -9.9184     50.0134      1.9951   8.6764110116e+01   6.6904858787e+01    0.2339613    0.1274684  36.45  0.001097191    1.551    0.355
        16 -11.5928     11.2133      7.1398   1.0547039738e+02   7.1129200202e+01    0.4773544    0.3699757  26.30   0.00375017    1.662    0.398
        17 -10.1066     10.2018      1.5843   1.0340354850e+02   7.1887423514e+01    0.1704241   0.09971164   5.84 0.0006714293    1.507    0.336
        18 -10.1160      2.5510      2.7067   1.0773370274e+02   7.2421951352e+01    0.1906284    0.1239472   6.06 0.0009975313    1.314    0.239
        19 -11.2309      4.2866      9.8608   1.1003889675e+02   7.1368437905e+01    0.1958958    0.1476751 -12.12 0.0002625584    1.112    0.101
        20 -10.8044      2.5098      6.4673   1.0944550302e+02   7.1950924230e+01    0.1909016    0.1329301  -1.41 0.0005808921    1.182    0.154
        21 -11.1986     70.5739      7.0509   8.2162840645e+01   6.3081012324e+01    0.7931911    0.2296678  50.32  0.003399639    2.999    0.667
        22 -10.9099    210.1483      7.6432   5.8044084149e+01   3.2282553442e+01    0.2103311    0.1458769 -56.73 0.0008912588    1.356    0.263
        23  -8.9720    124.4839      8.5155   6.9756855247e+01   5.2079299018e+01    0.1273017    0.1050325  49.84 6.039749e-05    1.047    0.045
        24 -11.7648    193.4706      5.2444   5.9158975739e+01   3.6362761306e+01    0.4339933    0.2718764  49.81  0.002444769    1.797    0.444
        25 -11.1010    160.2897      2.7318   6.2418667843e+01   4.4351500958e+01    0.2912417    0.2147121 -73.82  0.001773787    1.425    0.298
        26 -11.1855    130.1558      3.5004   6.7165333852e+01   5.1223982948e+01    0.2509561    0.1826361  61.08  0.001068002    1.148    0.129
        27 -10.3006    120.9708      4.0559   6.8981084418e+01   5.3225102945e+01    0.1846959    0.1539083  50.97   0.00040025    1.020    0.020
        28 -10.1997     16.5561      3.4742   1.0125525767e+02   7.1045919420e+01    0.1755149    0.1065886 -28.41 5.425482e-05    1.482    0.325
        29 -10.6268     19.5627      2.5179   9.9414904800e+01   7.0836192405e+01    0.2150904    0.1390196   6.73 0.0007924284    1.268    0.211
        30  -9.6681    230.3121      3.3278   5.5404097311e+01   2.8259955843e+01    0.1091102   0.08604002  52.81 0.0003846187    1.667    0.400
        31 -11.0220    172.5574      3.0577   6.0964023687e+01   4.1452145094e+01    0.3030691    0.1560375  82.18 0.0005836847    1.878    0.468
        32 -11.8179     80.3371      1.9351   7.7329677618e+01   6.1733129647e+01    0.3454003    0.1688953  51.87  0.001534456    1.745    0.427
        33  -9.5583    100.1729      1.6252   7.2380643812e+01   5.7848850716e+01    0.1516494    0.1427329  33.50 0.0005388113    1.161    0.139
        34 -10.0481    235.5886      4.2607   5.5176891357e+01   2.7020563965e+01    0.1429742    0.1137344 -30.66 0.0009527419    1.666    0.400
        35  -9.3193     67.4397      1.4797   8.0814320070e+01   6.4102321283e+01    0.1170298   0.08979288  24.53 0.0001632264    1.041    0.039
        36 -11.5535     35.2543     12.9239   9.7312642280e+01   6.7833351317e+01    0.3127422    0.2375295 -19.83  0.001155324    1.264    0.209
        37 -10.1184     21.8973    143.3372   1.3639050761e+02   4.3548405714e+01    0.2334327    0.1477902 -79.81  0.001310755    1.383    0.277
        38 -12.7641     17.5121    249.1516   1.4687191311e+02   2.0435783927e+01    0.7328674    0.3964113  23.76  0.003740488    3.818    0.738
        39 -12.7936      9.6611    245.2333   1.4793262200e+02   2.2054448475e+01    0.4985864    0.3967985  26.96  0.003649347    2.029    0.507
        40 -13.3729     10.0581    230.2701   1.4696595162e+02   2.5011071197e+01     0.744994    0.3657501 -86.92  0.003572224    1.663    0.399
        41 -11.9431      4.1654    232.4898   1.4810952430e+02   2.5159255218e+01     0.393039    0.2060005  78.82  0.000347605    1.514    0.340
        42 -11.2855      3.0581    138.4200   1.4057130888e+02   4.6172981882e+01    0.2669809    0.1686502  38.76  0.001651487    1.883    0.469
        43 -11.0107     12.4566    130.2493   1.3710026980e+02   4.7402079408e+01    0.3963729    0.2075656  64.33  0.001792052    2.591    0.614
        44  -9.1805     35.4562    130.5054   1.3083016369e+02   4.5341234392e+01    0.1344043    0.1080502 -57.48 8.126874e-05    1.100    0.091
        45 -11.6787     23.4501    121.1646   1.3268806641e+02   4.8653209712e+01    0.5471452    0.2787636 -89.02 0.0008851757    2.837    0.647
        46 -10.5152      3.3917    118.8922   1.3801348764e+02   5.0641764853e+01    0.1933972    0.1693208 -34.58 0.0006448774    1.329    0.247
        47  -9.5466     86.6665    117.6929   1.1337095496e+02   4.1653439713e+01    0.1495444    0.1126566 -19.72 0.0004795172    1.668    0.401
        48  -9.3528      2.2971    114.2872   1.3767525823e+02   5.1753498294e+01    0.1204441   0.07006426 -47.16 0.0001956114    1.551    0.355
        49  -9.5939      5.5099    113.4376   1.3663461256e+02   5.1748481399e+01    0.1398131    0.1119423  40.31 5.668264e-05    1.554    0.356
        50 -10.6926     65.6813    110.9627   1.1803172109e+02   4.6399173858e+01    0.3908918    0.1795412 -51.26  0.001662075    1.902    0.474
        51 -10.2952    249.2800    111.9725   7.6231868511e+01   8.0718201577e+00    0.2050134    0.1650676 -47.22  0.001168081    1.073    0.068
        52 -11.3219     57.9304    108.1834   1.1977145318e+02   4.8064787619e+01    0.3573866    0.2375317 -16.39  0.001723339    2.067    0.516
        53 -11.2388      3.8159    108.8730   1.3644054905e+02   5.2881789926e+01    0.3164898    0.1769362  18.72   0.00184806    2.293    0.564
        54  -9.5313     79.1778    106.8436   1.1292435011e+02   4.5355694254e+01     0.197897    0.1616766 -24.50 0.0004578752    1.315    0.239
        55  -9.5635     34.4388    107.5029   1.2692431833e+02   5.0830831009e+01    0.1306549    0.1082803 -56.63 5.952469e-05    1.017    0.017
        56 -10.0303     89.4821    105.4762   1.0948045411e+02   4.3975126368e+01    0.1457042    0.1368963 -45.63 0.0001692195    1.018    0.018
        57  -9.8554    113.5171    102.5302   1.0178072904e+02   4.0142152635e+01    0.1499634    0.1456119 -35.55 0.0001185227    1.008    0.008
        58 -10.8591     57.2618    101.5413   1.1841967206e+02   4.9656268587e+01    0.2961451     0.251335  46.23  0.001306124    1.370    0.270
        59  -9.7255     62.3868     99.1176   1.1619511867e+02   4.9528873724e+01    0.1971468    0.1230017 -63.19 0.0008007226    1.722    0.419
        60 -11.4455     18.7698     95.3435   1.2946077943e+02   5.4889859944e+01    0.4229325    0.2428045 -88.93  0.002012363    2.707    0.631
        61  -9.3140    129.4970     97.5125   9.6112137464e+01   3.7847162303e+01    0.1508441    0.1491922 -55.30 -7.594609e-06    1.003    0.003
        62  -9.3897    101.0881     95.9723   1.0348672649e+02   4.3959285317e+01    0.3214343    0.2020142 -72.12  0.001241251    2.715    0.632
        63 -10.5607     78.9411     94.9729   1.0988699405e+02   4.8013669690e+01    0.2113363    0.1898765 -31.77 0.0003173945    1.039    0.038
        64 -11.0415     27.3119     91.2179   1.2579028571e+02   5.5106642357e+01    0.4548306    0.2885182  51.91  0.002475548    2.221    0.550
        65  -9.7982     25.6365     85.2610   1.2501454196e+02   5.6526884893e+01    0.2163109    0.1349027 -67.48 0.0007305765    1.655    0.396
        66 -10.7487      1.8361     90.0508   1.3394472166e+02   5.7130285113e+01    0.2600269    0.1248308 -63.63 0.0002362924    1.607    0.378
        67 -10.2374     17.7373     88.4600   1.2839450609e+02   5.6461615702e+01      0.44353    0.2261441 -16.28  0.002131129    2.838    0.648
        68  -9.9600     10.6683     90.6952   1.3118837205e+02   5.6466660006e+01    0.2047556    0.1670694 -42.77  0.000721358    1.123    0.109
        69 -11.3187     11.2613     86.3847   1.3013742470e+02   5.7352770938e+01    0.3835155    0.2080714 -79.05  0.001936313    2.357    0.576
        70  -9.5917    118.6659     90.3361   9.6940716343e+01   4.1621677470e+01    0.1536951    0.1201913 -85.34 0.0007052065    1.741    0.426
        71 -11.7903     76.4547     89.3132   1.0910486655e+02   4.9604724546e+01     0.265534    0.2385643 -34.25 0.0003888555    1.020    0.019
        72 -11.2562     98.7194     89.3894   1.0230499556e+02   4.5770024678e+01    0.2687564    0.1877303  29.59  0.001293687    1.566    0.362
        73  -9.3984     43.9576     89.4836   1.1981106040e+02   5.3867358302e+01    0.1800063    0.1278166  28.03  0.001029132    1.600    0.375
        74 -10.3505    107.9752     89.0000   9.9515844836e+01   4.4069140335e+01    0.2396305   0.08374761  44.10 0.0007993061    2.921    0.658
        75  -9.5173    124.1503     86.8199   9.4459522727e+01   4.1150781172e+01    0.2082843    0.1792557   1.26   0.00077258    1.326    0.246
        76 -10.6152     54.4350     84.8125   1.1507266336e+02   5.3635545536e+01     0.358536    0.2014374 -50.43 0.0008734857    1.585    0.369
        77  -9.0985     40.3286     87.1433   1.2045387753e+02   5.4752992580e+01    0.1687093    0.1081349 -65.05 -0.000275831    1.668    0.401
        78  -9.7307     72.0206     84.5067   1.0916437236e+02   5.1278977454e+01    0.3287877    0.1525047 -33.73  0.001293044    2.548    0.607
        79 -10.6087     77.6037     83.3738   1.0703893180e+02   5.0644964152e+01    0.2703127    0.2104402  34.46 0.0005345018    1.358    0.263
        80  -9.3346    129.4183     83.5995   9.2157581771e+01   4.0619335071e+01    0.1453331    0.1425757  26.81 3.958713e-05    1.016    0.016
        81 -10.2459      4.0932     82.7002   1.3181725120e+02   5.8566553318e+01    0.2641254    0.1527672 -68.99  0.001313863    1.586    0.369
        82  -9.7833    100.4994     82.0213   9.9610586054e+01   4.6903449920e+01    0.2307398    0.1380269 -42.08  0.001006415    1.632    0.387
        83 -11.3510     63.9791     80.0164   1.1052041249e+02   5.3357544942e+01    0.5703889    0.3422511 -47.52  0.002892331    1.533    0.348
        84 -11.8027     56.3335     75.4093   1.1177816032e+02   5.5304694118e+01    0.4708404    0.2839402  21.44   0.00141988    1.891    0.471
        85  -9.9680    250.3838     80.8274   6.9421857483e+01   1.3205868734e+01    0.1838126    0.1185766 -34.28 0.0005883143    1.638    0.389
        86 -10.0919     89.2738     80.3067   1.0246590559e+02   4.9297187049e+01    0.2701792    0.1875945 -52.91 0.0007778644    1.560    0.359
        87  -9.5697    124.3907     79.1337   9.2133003857e+01   4.2559298840e+01    0.2017342    0.1353096 -52.32 0.0003762948    1.649    0.394
        88 -10.8093     58.6446     91.2622   1.1539061405e+02   5.1735766519e+01    0.3041544    0.2145621 -29.39   0.00026622    1.443    0.307
        89 -10.2595    176.6194     77.3329   7.9934887534e+01   3.0663086625e+01    0.3501965    0.2527235  41.17  0.001670144    1.564    0.361
        90 -10.0606     75.0169     75.9089   1.0564933279e+02   5.2528814539e+01    0.1966696    0.1787405 -18.41 0.0002798872    1.012    0.012
        91 -10.3137     15.3256     75.8414   1.2643547528e+02   5.9282825972e+01    0.1763506    0.1602812  27.08  0.000894681    1.387    0.279
        92 -11.1535     35.3269     72.7815   1.1846101215e+02   5.8219352821e+01     0.442863    0.3379804  18.29  0.001799824    1.453    0.312
        93  -9.3390    224.1650     74.3349   7.1429190176e+01   1.9939871892e+01    0.1838569    0.1237188  78.27 0.0003592354    1.580    0.367
        94  -9.5904    136.4905     74.5125   8.7734774669e+01   4.0693799946e+01    0.1460266    0.1426534  49.48 0.0001062525    1.002    0.002
        95 -10.9295      4.4194     73.6596   1.2983470055e+02   6.0417814895e+01    0.3432195    0.1700372  24.37   0.00197489    2.427    0.588
        96  -9.4335     92.5040     72.4623   9.9065261987e+01   5.0203548768e+01    0.2354417    0.1354757  42.24  0.001041072    1.769    0.435
        97 -10.4742    105.8290     71.5101   9.4848194580e+01   4.7826340640e+01     0.255015    0.2126329 -12.36 0.0005489779    1.266    0.210
        98  -9.3528     80.9883     72.4815   1.0266323374e+02   5.2212989740e+01    0.1779442     0.120598  63.91 0.0006882423    2.387    0.581
        99  -9.2411     45.9940     68.5797   1.1340934893e+02   5.7900200671e+01    0.2587234    0.1756172  88.26  0.001088635    3.909    0.744
       100  -8.9883    122.3001     68.6773   8.9504769859e+01   4.4878386217e+01    0.1428108    0.1149235 -78.32 0.0003620787    1.628    0.386
       101 -10.4859    114.2762     66.7509   9.1018240116e+01   4.6924722321e+01    0.2354862     0.208059  80.52 0.0003039179    1.358    0.264
       102 -11.1492     34.3638     64.9064   1.1658930753e+02   5.9849701960e+01    0.6921093    0.2944029 -27.76 0.0006229117    3.278    0.695
       103 -11.2793     39.1901     62.5845   1.1409903655e+02   5.9790878958e+01    0.7177334    0.2665674 -31.80   0.00267449    3.658    0.727
       104 -10.4757    131.6346     64.5561   8.5915557803e+01   4.3494810119e+01    0.3753277    0.2732205  57.82   0.00188214    1.380    0.275
       105 -10.2014     14.8550     63.9605   1.2367571300e+02   6.1685660158e+01    0.2779556    0.2363898  44.11  0.001976833    1.614    0.381
       106 -10.0285     72.7965     63.7671   1.0255608339e+02   5.5127603177e+01    0.1720866    0.1555687 -56.08 0.0005843346    1.354    0.262
       107 -11.2258      3.9825     61.5092   1.2719095409e+02   6.2853345416e+01    0.4070398    0.2654564  67.95  0.001662016    3.064    0.674
       108 -11.0615      9.6906     60.3740   1.2471353395e+02   6.2725986524e+01    0.3005176     0.179408 -34.53 0.0001332175    1.398    0.285
       109 -10.5875     62.4965     61.9980   1.0548857726e+02   5.6988554104e+01    0.2664289    0.2076869 -26.39  0.001207604    1.153    0.133
       110 -10.1557     60.4805     58.0253   1.0488650133e+02   5.7972356855e+01    0.2272196    0.2166881 -27.11  0.000861973    1.246    0.197
       111  -9.4443    101.1750     61.9965   9.3145435314e+01   5.0390123851e+01    0.2186521    0.1602601 -65.33 0.0008322523    1.985    0.496
       112 -11.3748      4.4982     52.3599   1.2462287172e+02   6.4551642818e+01    0.5664119    0.1829934 -32.90  0.001622046    3.237    0.691
       113 -10.4306     25.4778     57.8758   1.1789758482e+02   6.1998471033e+01    0.3126293    0.1714157 -51.00  0.001120447    1.616    0.381
       114 -11.7381     15.1349     46.2678   1.1849826737e+02   6.4930552147e+01    0.6646255    0.3935879   3.60  0.004132509    1.833    0.455
       115 -12.7114     20.6043     57.1000   1.1956739093e+02   6.2552217061e+01    0.4221455    0.2700742 -59.48  0.001465929    1.695    0.410
       116 -10.3149     20.2670     51.2434   1.1795095688e+02   6.3646151173e+01    0.3087452    0.1539262 -37.35 0.0008034596    1.642    0.391
       117  -9.3413     67.0090     60.5510   1.0345520782e+02   5.6583090344e+01    0.1823212    0.1234861  31.93 0.0004155832    1.508    0.337
       118 -10.9155     54.9621     58.7931   1.0710751950e+02   5.8592702107e+01    0.4839523    0.2791584 -55.49  0.002387141    2.235    0.553
       119  -9.8023     51.3219     57.6808   1.0806212936e+02   5.9260986073e+01    0.1782145    0.1650274  -9.85 0.0004896158    1.177    0.150
       120 -10.4786     83.6206     56.9652   9.6775530788e+01   5.4485240617e+01    0.2022478    0.1980533 -88.60  0.001282633    1.297    0.229
       121 -12.0400     88.0491     53.7776   9.4312745123e+01   5.4205547191e+01    0.4720626    0.3057596  41.46  0.001472775    1.515    0.340
       122 -11.7179    114.4617     53.9211   8.6868819902e+01   4.8947974413e+01    0.3538203    0.2647752  39.54 0.0008474199    1.275    0.216
       123  -9.1771    165.2672     54.3641   7.5815783979e+01   3.7134580134e+01    0.1993652    0.1291014  70.51  0.000590101    1.578    0.366
       124 -12.2073     66.0377     52.6106   1.0110356234e+02   5.8070310819e+01     0.490381    0.2160709  33.63  0.001299831    2.360    0.576
       125  -9.9035     34.3508     53.4475   1.1308005022e+02   6.1956175208e+01    0.2645036    0.1485973 -19.83  0.001221564    1.974    0.493
       126 -10.1830    106.0079     52.9604   8.8813571721e+01   5.0856818471e+01    0.2092237    0.1958595  30.87  0.000646873    1.057    0.054
       127  -9.3556    169.5806     52.5636   7.4541755531e+01   3.6352739741e+01    0.1408025    0.1292312  83.48  2.90162e-05    1.012    0.012
       128 -10.4593    225.0966     55.0584   6.6930222982e+01   2.2771934303e+01    0.3457544    0.2727348   4.11  0.001818932    2.146    0.534
       129  -9.9216     76.4236     49.2265   9.6423778189e+01   5.6948743705e+01    0.3803242    0.2291018  -0.87  0.001737952    2.427    0.588
       130 -10.0432     78.5716     45.6794   9.4471048788e+01   5.7119433500e+01    0.2944678     0.117478  41.56 0.0006385763    2.431    0.589
       131  -9.7700     38.0719     49.1249   1.1020599344e+02   6.2308798660e+01    0.1810902    0.1311871 -18.25 0.0004846671    1.219    0.179
       132  -8.9604    211.7352     48.7450   6.7175357591e+01   2.6778003750e+01    0.1185557    0.1035955  43.43 0.0006804087    1.443    0.307
       133 -10.4723    102.9289     47.5226   8.7838089287e+01   5.2284779586e+01    0.3343895    0.1637766  35.75 0.0008449511    2.207    0.547
       134 -10.5190     99.8233     56.1710   9.1618293296e+01   5.1599334024e+01    0.1887452    0.1811202 -26.77 0.0004459019    1.137    0.121
       135  -9.7223     53.4170     48.3413   1.0411758087e+02   6.0565984044e+01    0.1946321    0.1298884  -8.79 0.0005822683    1.591    0.371
       136  -9.5752     65.0308     46.2223   9.9202889109e+01   5.9235919257e+01    0.1690772    0.1444893  15.02 0.0003024958    1.113    0.102
       137 -10.8799     20.2882     31.5527   1.1128965664e+02   6.6922240135e+01     0.509474     0.239524   5.03  0.002516045    2.952    0.661
       138 -10.2470     30.8780     45.5415   1.1183464932e+02   6.3668638757e+01    0.2106868       0.1926 -47.90 0.0009671422    1.446    0.309
       139 -10.9029     25.9312     44.0139   1.1332133589e+02   6.4403385975e+01    0.2814217    0.2212354 -50.67  0.001389869    1.490    0.329
       140 -10.5608     22.7399     38.5983   1.1278050565e+02   6.5589147642e+01    0.2132277    0.1753298  25.65  0.000892906    1.505    0.335
       141 -11.3394     26.5001     35.3952   1.1005455371e+02   6.5742622557e+01    0.5085912    0.2326611 -24.61  0.002542969    2.408    0.585
       142  -9.4137     91.1871     44.7669   9.0247687645e+01   5.4974230775e+01    0.1784052    0.1402997   8.97 0.0004658429    1.285    0.222
       143 -10.3961     69.9182     41.8688   9.5949328988e+01   5.9119660086e+01    0.2637312    0.2088586 -17.75  0.001400813    1.171    0.146
       144  -9.4862      2.7978     42.3440   1.2246512965e+02   6.6449590561e+01    0.1877927   0.09489204 -21.34  0.001099998    1.968    0.492
       145  -9.6750      5.8157     39.2128   1.2020849687e+02   6.6801422366e+01    0.1911558    0.0909197 -35.90            0    1.646    0.392
       146  -9.8905    181.5137     40.8045   6.9449710775e+01   3.5098893174e+01    0.2672575    0.1838691  78.29 0.0006803722    1.407    0.289
       147 -11.0098    139.0885     40.3681   7.6838866752e+01   4.5326665216e+01    0.2995553    0.2241596  75.30  0.001599619    1.437    0.304
       148 -10.1332     36.0419     41.2670   1.0827183540e+02   6.3823898951e+01    0.2140626    0.1423727   1.12  0.001317438    1.513    0.339
       149  -9.4046    159.8148     40.3965   7.2889029922e+01   4.0402451548e+01    0.1916215    0.1162027  53.19 0.0002487812    1.528    0.346
       150 -10.5531    131.0182     37.5147   7.7656322976e+01   4.7551382774e+01    0.5570689    0.4046244 -85.93  0.002851634    1.860    0.462
       151 -11.2382    134.1304     34.0798   7.5924505066e+01   4.7261362254e+01    0.2121513    0.1836459  37.08  0.000290913    1.139    0.122
       152  -9.5386     42.9905     40.5492   1.0527041271e+02   6.3131708090e+01    0.1622266    0.1079736  23.60 0.0004606369    1.492    0.330
       153 -10.3372     12.6002     38.2653   1.1697810312e+02   6.6485419560e+01    0.3284631   0.09520636 -51.90  0.001431867    3.235    0.691
       154 -12.1564    121.8265     36.8210   7.9484236045e+01   4.9705359699e+01    0.4955929    0.4207838  52.33  0.002108737    1.094    0.086
       155  -9.3854    101.5391     39.4624   8.5457322734e+01   5.3675310959e+01    0.1334922     0.116686  23.47 8.932885e-05    1.043    0.041
       156  -9.5565    236.7151     37.9398   6.1905814657e+01   2.2633608956e+01    0.1765796    0.1409039 -65.33  0.000388861    1.074    0.069
       157 -10.1258     70.3553     35.6100   9.3482910012e+01   5.9924671239e+01    0.3780833    0.1941385  -9.68  0.001559401    3.230    0.690
       158 -10.8752      1.8425     35.8637   1.2087290374e+02   6.7614874332e+01     0.247238    0.1357854 -36.82  0.001495265    1.359    0.264
       159  -9.5973     99.1384     35.6702   8.4787455520e+01   5.4647094361e+01    0.1898739     0.101553  40.28 0.0009142248    1.743    0.426
       160  -9.5509     54.5492     34.4974   9.8613614799e+01   6.2501529718e+01    0.1723356    0.1018612  22.49 0.0005922742    1.705    0.413
       161 -10.3644     50.3870     33.8471   9.9916007554e+01   6.3171797535e+01    0.2171148    0.1822685  37.22 0.0009968928    1.476    0.322
       162 -10.4545    145.0276     32.9821   7.3438518143e+01   4.4855623279e+01    0.1954257    0.1759588  61.93  0.001189348    1.003    0.003
       163 -10.0022    205.3337     30.6458   6.3745330118e+01   3.0728180529e+01    0.2214997     0.134748 -70.63  0.001119613    1.712    0.416
       164  -9.5230    166.4605     31.0722   6.9189017825e+01   3.9969854839e+01    0.1829288    0.1336115 -34.05 0.0003888527    1.517    0.341
       165 -10.1368    127.7039     30.4564   7.6130007195e+01   4.9154702329e+01    0.3929458    0.1391018  49.13  0.001561277    2.457    0.593
       166 -11.6663     43.7996     29.0123   1.0056450309e+02   6.4715412742e+01    0.4548472    0.3060115 -16.28  0.001912639    1.326    0.246
       167  -9.3581     96.5622     29.2240   8.3199815561e+01   5.5943934326e+01    0.1811417    0.1163575  -6.54 0.0009452617    1.847    0.459
       168 -10.3970     69.6758     28.2018   9.0883860494e+01   6.0993327274e+01    0.2983852    0.1807384 -40.54  0.001654448    1.949    0.487
       169 -10.2670      7.1050     27.9144   1.1581383607e+02   6.8553283950e+01    0.2202015    0.1633586  26.58  0.001372668    1.706    0.414
       170  -9.9474    140.4356     27.0365   7.2518221485e+01   4.6618664742e+01    0.2171554    0.1594733  61.13 0.0004941456    1.212    0.175
       171 -11.9084     76.6910     25.5229   8.7598129776e+01   6.0110194879e+01    0.2835119    0.2159369  30.79 0.0004569424    1.154    0.133
       172 -11.6192     76.2714     21.3991   8.6135996935e+01   6.0650598081e+01    0.4746867    0.2651119  42.58  0.002308175    1.598    0.374
       173 -10.1044    154.4807     25.9006   6.9693982803e+01   4.3436844866e+01    0.3767855    0.1811453  76.98  0.001548237    2.532    0.605
       174 -10.0988    113.9240     25.1605   7.7442495927e+01   5.2792908226e+01    0.2082558    0.1890105 -13.78 0.0008708826    1.200    0.167
       175 -10.2425    100.8792     25.5484   8.0751187769e+01   5.5491104978e+01     0.214614    0.1703552 -45.37 0.0008316286    1.547    0.353
       176  -9.0290     17.3569     25.9057   1.1044412742e+02   6.8034095613e+01    0.2047244    0.1169441  35.12  0.001267797    2.232    0.552
       177 -10.1646     59.1262     24.3632   9.2981560256e+01   6.3151423574e+01    0.2242559    0.1445824  -8.67  0.001080907    1.562    0.360
       178 -10.0415    150.2746     29.7556   7.1528443200e+01   4.3996305740e+01    0.3183162    0.1801815  68.19  0.001530693    1.693    0.409
       179 -10.3420    171.3349     23.6629   6.6461757263e+01   3.9659268976e+01    0.2191896    0.1446728 -73.13  0.001134714    1.706    0.414
       180 -10.4671      2.0602     22.2206   1.1606263059e+02   6.9775651113e+01    0.2611149    0.1220538 -44.41 0.0008629824    1.754    0.430
       181  -9.5903     89.2853     22.9549   8.2912949149e+01   5.8072868590e+01    0.1746086    0.1481805   9.30 0.0008077341    1.110    0.099
       182  -9.5459     22.7530     21.5591   1.0632749584e+02   6.8143704959e+01    0.1707511   0.09706435 -12.61 0.0006098295    1.727    0.421
       183 -10.7360     19.8980     16.7603   1.0561372680e+02   6.9074749186e+01    0.1868524    0.1390482   6.64 0.0004301737    1.195    0.163
       184 -11.3868     13.2400     20.5055   1.1018701743e+02   6.9174144107e+01     0.232263     0.192266 -29.89 0.0008271993    1.370    0.270
       185  -9.4247    229.5092    247.9890   1.0675514247e+02  -1.1603999295e+01    0.1676942    0.1117329 -32.20  0.001019371    1.554    0.356
       186  -9.8401     85.1666     20.9340   8.3318942223e+01   5.9073573126e+01    0.2458112    0.1248523  31.00 0.0009033422    2.047    0.512
       187  -9.6593    224.6175    246.7632   1.0744728592e+02  -1.0714076408e+01    0.1508166    0.1121183 -39.26 0.0005441432    1.559    0.358
       188 -12.3150      2.2907    220.0765   1.4768368378e+02   2.7897665467e+01    0.8215781    0.1273828 -74.69  0.002868001    4.882    0.795
       189  -9.3298    136.3071    245.6691   1.2444564777e+02   3.9305437527e+00    0.1329355   0.09214618  68.85 0.0004576591    1.662    0.398
       190 -10.9983      1.7043    248.7451   1.4940602077e+02   2.2202380144e+01    0.3695857     0.211233  81.16  0.002552738    1.288    0.223
       191  -9.3420    202.4534    240.3253   1.1055057446e+02  -6.3153142792e+00    0.2126169    0.1208622 -35.16 0.0009687047    1.916    0.478
       192 -10.8193     31.0043     20.4197   1.0229145694e+02   6.7414579160e+01    0.2269873    0.1358286 -31.27 0.0005841905    1.498    0.332
       193  -9.9716    175.4860     20.5027   6.5053020157e+01   3.9016854623e+01    0.1319283     0.112978  80.55 0.0008105249    1.000    0.000
       194  -9.7413    132.1308     20.1446   7.1978089790e+01   4.9267691250e+01    0.2078062     0.155432  38.11 0.0007852139    1.321    0.243
       195 -12.7696     25.5979    235.9032   1.4462453509e+02   2.2160492720e+01    0.4173476    0.3428162  53.03  0.002344123    1.392    0.282
       196  -9.7556    148.3834     18.6960   6.8638402569e+01   4.5647649563e+01    0.1940451    0.1390018 -75.71 0.0006176449    1.643    0.391
       197 -10.0277     58.4441     19.2393   9.1145512227e+01   6.3859273021e+01    0.2284333   0.09696481 -37.90 0.0008815537    2.667    0.625
       198 -10.3751    199.9520     17.2225   6.1241445579e+01   3.3588823503e+01    0.2016081    0.1699993 -66.18  0.000437915    1.148    0.129
       199  -9.2029     54.2994    236.3074   1.3942303394e+02   1.8509224617e+01    0.1049099   0.09400403 -54.10 0.0004752914    1.595    0.373
       200  -9.1573    210.6954    235.6979   1.0818629964e+02  -6.9240856109e+00    0.1293144     0.090374   4.58 0.0002768931    1.595    0.373
       201 -10.2568     26.3308     16.3055   1.0256635396e+02   6.8466003456e+01    0.2109351    0.1699612   5.01 0.0008138122    1.194    0.162
       202  -9.5900     49.4834     16.0774   9.3078427923e+01   6.5557547469e+01    0.1652547    0.1010889 -26.58  0.001023922    1.578    0.366
       203  -9.3954     60.6649    241.1547   1.3866875608e+02   1.6653436657e+01    0.2294804   0.07181465  41.18 0.0009766854    2.794    0.642
       204 -10.4551    190.6388     13.8914   6.1507311786e+01   3.6136209009e+01    0.2181805    0.1523798  66.46 0.0006290835    1.279    0.218
       205  -9.7127    174.8094     14.6180   6.3627286034e+01   3.9803771854e+01    0.1917935    0.1081538  81.37 0.0009498848    1.735    0.423
       206  -9.9337     68.8740     13.7040   8.5395559857e+01   6.2747334314e+01    0.1949944    0.1493102  54.15 0.0007538885    1.569    0.363
       207  -9.7619    249.1903    234.1196   1.0082673967e+02  -1.2490555938e+01    0.1807245    0.1358539   0.57 0.0004532573    1.159    0.137
       208  -9.4693    140.2550    227.3896   1.2102289118e+02   6.6991336278e+00     0.203004    0.1130494  50.21 0.0009446823    1.693    0.409
       209  -9.4089    109.7145    226.6497   1.2730213371e+02   1.2132486541e+01    0.1241402    0.1076099 -19.12 0.0007020623    1.658    0.397
       210 -10.3802     32.9760    225.0217   1.4245854334e+02   2.3568901265e+01    0.2892867    0.1345689  49.09  0.001562817    1.890    0.471
       211 -10.1779     25.6025    225.1792   1.4383826939e+02   2.4388413772e+01    0.1631525   0.08955153 -68.09 0.0009492002    1.703    0.413
       212 -11.9806      7.9705    217.5799   1.4650884435e+02   2.7869205042e+01    0.3459997    0.2345546  83.48  0.001933934    1.089    0.082
       213 -12.2543      5.5977    240.7665   1.4834638589e+02   2.3357787926e+01    0.4568993    0.2338806  56.59  0.002938654    1.573    0.364
       214 -11.0538     15.6291    212.4408   1.4473135188e+02   2.8195844450e+01    0.2599553    0.2107529 -52.70  0.001801646    1.700    0.412
       215  -9.3637    209.5032    211.5098   1.0408055486e+02  -2.7430956935e+00    0.1347653     0.122598   6.86  0.000810574    1.013    0.012
       216  -9.9590     20.5771    209.6964   1.4357630943e+02   2.8276125670e+01    0.2009562     0.108022  61.80 0.0005679454    1.673    0.402
       217  -9.8477    246.8502    207.1464   9.6285508543e+01  -8.1392860130e+00    0.1875916    0.1615597 -29.45  0.000771078    1.199    0.166
       218  -9.6601    197.2503    203.9949   1.0510056907e+02   7.8655019112e-01    0.1765126    0.1175461 -41.36 0.0004852958    1.534    0.348
       219 -11.6401      9.1616    203.4404   1.4528451394e+02   3.0804099862e+01    0.2396704    0.1889857  67.96 0.0009333575    1.205    0.170
       220  -9.6198    180.7769    199.3126   1.0761050667e+02   4.7576718127e+00    0.3094119    0.1207867  48.13   0.00110168    2.740    0.635
       221  -9.4853     23.0174    197.5103   1.4206137959e+02   3.0734291286e+01     0.164843    0.1140845  42.99 0.0006655618    1.578    0.366
       222 -10.4516      6.8823    192.0423   1.4485237064e+02   3.3544467620e+01    0.3318062    0.1440772  72.59   0.00140793    2.456    0.593
       223  -9.8813     15.3598    185.1560   1.4253214639e+02   3.4316439569e+01    0.1790789   0.09130538 -86.36  0.000936447    1.703    0.413
       224  -9.4688      1.3032    183.1699   1.4527228574e+02   3.6022296420e+01    0.1681892   0.08277351 -84.79 0.0004963996    1.634    0.388
       225 -10.0037    249.3963    169.1920   8.8321908852e+01  -2.2086620280e+00    0.1987578    0.1138909 -46.49 0.0007187247    1.706    0.414
       226 -11.0620      4.6188    167.5493   1.4322560126e+02   3.9310660787e+01    0.3416925    0.2004907  56.36    0.0017118    1.755    0.430
       227  -9.8150     14.3266    164.3342   1.4072475436e+02   3.9243943719e+01    0.1243727   0.07873069 -50.19 0.0007051561    1.717    0.418
       228  -8.8403     41.7010    158.3379   1.3342544929e+02   3.7950236375e+01    0.1383238   0.09026122  77.76 0.0007034101    1.660    0.398
       229  -8.9699    247.4732    155.5123   8.5804517648e+01   5.5443518513e-01    0.1384547    0.1207693 -31.51 5.855409e-05    1.018    0.017
       230 -10.4253      2.5018    153.6879   1.4236048008e+02   4.2675921243e+01    0.2687675    0.0815581  33.65  0.001225416    3.453    0.710
       231 -10.2672     23.9412    150.7003   1.3683640460e+02   4.1609023303e+01    0.1689991    0.1491774  89.55 0.0004708586    1.132    0.116
