#   1 NUMBER                 Running object number                                     
#   2 MAG_AUTO               Kron-like elliptical aperture magnitude                    [mag]
#   3 X_IMAGE                Object position along x                                    [pixel]
#   4 Y_IMAGE                Object position along y                                    [pixel]
#   5 X_WORLD                Barycenter position along world x axis                     [deg]
#   6 Y_WORLD                Barycenter position along world y axis                     [deg]
#   7 A_WORLD                Profile RMS along major axis (world units)                 [deg]
#   8 B_WORLD                Profile RMS along minor axis (world units)                 [deg]
#   9 THETA_WORLD            Position angle (CCW/world-x)                               [deg]
#  10 FWHM_WORLD             FWHM assuming a gaussian core                              [deg]
#  11 ELONGATION             A_IMAGE/B_IMAGE                                           
#  12 ELLIPTICITY            1 - B_IMAGE/A_IMAGE                                       
         1 -14.7439      5.2203     75.4830   6.4448179060e+01   6.2766129095e+01     2.352326     1.883507  59.18   0.01311965    1.365    0.267
         2 -15.0121     10.8663     24.5692   4.6170832670e+01   7.4594303726e+01     3.231242     1.458043 -39.38   0.01473747    2.210    0.547
         3 -15.9609     53.9487     42.3094   2.7058062528e+01   6.4689139277e+01     5.611379     2.992882  25.94   0.02098638    2.663    0.624
         4 -12.2785     66.8185     20.8449   1.1263200240e+01   6.5420801150e+01     1.079167    0.8188372  48.87  0.006041568    1.208    0.172
         5 -14.6186     88.9766      7.0427   3.5839875851e+02   6.1664869380e+01     2.987807    0.8777019  63.37   0.01133822    2.712    0.631
         6 -11.8754    134.5079     32.5139   3.5984988781e+02   4.7563308448e+01    0.6831149    0.5458527 -44.73  0.002901502    1.241    0.194
         7 -13.1039    119.4121     10.2588   3.5446797934e+02   5.3814075750e+01     1.120039    0.5002584  68.09  0.005108064    1.961    0.490
         8 -10.9010    233.2359     21.2455   3.4758984089e+02   2.7908352103e+01    0.1722523    0.1229796  89.71 0.0007359914    1.460    0.315
         9 -10.9046    174.7823     13.4806   3.4959858081e+02   4.0397835386e+01    0.2638468    0.1902891 -71.30 0.0007474365    1.166    0.143
        10 -12.1299    185.2337     10.3814   3.4803140942e+02   3.8452936086e+01    0.6601971    0.3768023 -66.39  0.002762081    1.511    0.338
        11  -9.8086    178.7833      8.3940   3.4796988594e+02   4.0047310631e+01    0.2522697    0.1528884  84.54 0.0008458221    1.540    0.350
        12 -10.3304    155.6542     10.7624   3.5048151620e+02   4.5023722919e+01    0.3421456    0.1350224 -44.78  0.001457647    2.165    0.538
        13 -10.2907    202.0688     11.4318   3.4721480106e+02   3.4855614784e+01    0.1708693    0.1423684 -48.56 0.0004494971    1.206    0.171
        14 -11.9631    148.7147      6.7933   3.4994318253e+02   4.7044159815e+01    0.4932255    0.2757846 -68.05  0.001218149    1.683    0.406
        15 -11.7998    137.7640      4.6355   3.5033050776e+02   4.9860524656e+01    0.3534265    0.2398458 -69.16 0.0005713399    1.330    0.248
        16 -10.6735    186.0883      3.7636   3.4632563695e+02   3.8937375220e+01    0.2640994     0.191429 -28.90  0.001468291    1.525    0.344
        17 -10.4043    215.7444      2.3855   3.4448150925e+02   3.3104416405e+01    0.1887507    0.1151825 -57.96 0.0003858915    1.217    0.178
        18 -10.6404    164.0797      2.2696   3.4737185318e+02   4.3914407651e+01      0.29577    0.1775172 -72.95  0.001687441    1.456    0.313
        19 -13.5847     95.0119    101.0885   3.1252061830e+01   4.3812420677e+01     1.363045     1.283692  55.74  0.006240316    1.067    0.062
        20 -10.0695     54.4653     95.5425   4.4774312646e+01   5.2329318001e+01    0.2653685     0.231386  44.24 0.0007892086    1.164    0.141
        21 -10.1064    203.9132     93.0885   5.8660156894e+00   2.3451704052e+01    0.2986184    0.1729459 -89.85  0.001279836    3.373    0.704
        22 -11.5574    144.5120     91.5034   1.5527819792e+01   3.5507783772e+01    0.3597573    0.2616128  56.64  0.001800119    1.454    0.312
        23 -11.0320    245.4917    250.0000   2.7378653672e+01  -4.6827574486e+00    0.1887911   0.04657852  26.12 0.0009388069    3.968    0.748
        24 -12.8393    188.4458    248.9129   3.6486863043e+01   3.6126230186e-01    0.4444072    0.2426908  33.23  0.002779167    1.968    0.492
        25 -10.7698    250.0000    243.9962   2.5908552593e+01  -4.3465510440e+00    0.1542572   0.04299774 -37.75 0.0008080598    2.982    0.665
        26 -10.1375    151.9754     77.0000   1.0110965085e+01   3.6575925816e+01    0.2265873   0.08108429  56.33 0.0008037655    2.952    0.661
        27 -10.5314    250.2232     74.2781   3.5699933360e+02   1.8549499204e+01    0.1856992    0.1199799 -35.77 0.0005304714    1.282    0.220
        28 -10.6039    200.7685    236.3915   3.2611368072e+01   8.7825504500e-01    0.1537523    0.0855969  11.48 0.0006919013    1.666    0.400
        29 -10.3722    134.5181     61.0645   8.9059136674e+00   4.3293591875e+01    0.4925367    0.3142062 -81.03  0.002155404    2.092    0.522
        30 -11.6923    214.6891     60.7613   3.5743738231e+02   2.6333861242e+01    0.3515344    0.2667087  86.23   0.00136633    1.451    0.311
        31  -8.9755    169.6850     61.6920   3.0450655651e+00   3.5232833990e+01    0.1254689    0.1079039  16.92 0.0007028571    1.629    0.386
        32 -11.9248    125.2337     57.5418   9.7532965011e+00   4.6065803675e+01    0.3674439    0.3257612 -77.59 0.0005622279    1.075    0.070
        33  -9.5492    124.0037    205.9940   4.3764338918e+01   1.4814507568e+01    0.1481959    0.1334189   7.65 0.0009163849    1.014    0.013
        34 -10.0284    232.4986     54.5512   3.5451749416e+02   2.4012070179e+01    0.1186171   0.08765561 -51.75 5.769739e-05    1.025    0.025
        35 -10.5560    209.9797     54.1381   3.5641434006e+02   2.8121866513e+01    0.2154369    0.1665876  73.76 0.0008715881    1.460    0.315
        36  -9.8213    170.6663     52.8582   5.6222684355e-01   3.6346799165e+01    0.1874878     0.149127 -46.79   0.00109517    1.150    0.130
        37  -9.6890    133.8000     52.2083   6.2975540583e+00   4.4903540635e+01    0.1762147    0.1591275  48.41 0.0002426584    1.256    0.204
        38  -9.7084    213.7698     50.2161   3.5518164347e+02   2.7935318845e+01    0.1434997    0.1307952 -41.98 0.0003452366    1.271    0.213
        39 -12.1498    120.9907     43.8799   6.1257018355e+00   4.9253852392e+01    0.3679345    0.3180336  55.64  0.001530229    1.206    0.171
        40  -9.1465    203.3465     43.2777   3.5454297648e+02   3.0849353658e+01    0.1072664    0.0953696  30.06 0.0004027848    1.633    0.388
        41 -11.0055    156.9902     42.6839   3.5961429981e+02   4.0872994161e+01    0.2633206    0.2104071  82.90 0.0005267959    1.208    0.172
        42 -10.3551    247.0784     42.4812   3.5102945716e+02   2.3093274137e+01    0.1359599    0.1012964  87.40 0.0005213691    1.522    0.343
        43  -9.5811    180.3805     42.2503   3.5659513808e+02   3.5718750664e+01    0.1936838   0.09802502 -44.80 0.0008307719    1.666    0.400
        44 -11.2707    229.0511     40.4738   3.5184333192e+02   2.6397011924e+01    0.2149947    0.1941237 -82.58 0.0006238526    1.307    0.235
        45 -13.2528    213.3430     39.2198   3.5276191222e+02   2.9433376683e+01    0.2907542    0.2363693 -76.16 0.0006522093    1.183    0.155
        46 -10.7539    172.1560     40.9931   3.5720292481e+02   3.7679888598e+01    0.2728247    0.1825427  69.20  0.001516731    1.532    0.347
        47  -9.8204    128.4892     82.0898   1.6510850836e+01   4.0839670153e+01    0.2250552    0.1970845  62.29 0.0006103237    1.161    0.138
        48 -10.3305    197.3904     40.1980   3.5436329858e+02   3.2437441853e+01    0.2547003    0.1497254  52.68  0.001084254    2.187    0.543
        49 -11.6257    130.3308     36.9300   1.9996494500e+00   4.7986034079e+01    0.4641815    0.3378305 -89.25 0.0005611508    1.381    0.276
        50 -10.1682    100.9941    175.9937   4.5042672066e+01   2.4498845232e+01    0.1966268     0.187748  27.02  0.001130348    1.010    0.010
        51 -10.5658    160.0716     35.6965   3.5720824791e+02   4.1104220426e+01     0.225384    0.1793177 -39.72  0.000393587    1.265    0.210
        52 -11.9787    240.9085     34.5373   3.4984088183e+02   2.5062292915e+01    0.2184451    0.1809132 -73.10   0.00034822    1.244    0.196
        53 -11.7042    234.9559     75.7509   3.5865826899e+02   2.0741510025e+01    0.2442581    0.2188523 -57.47 0.0008637424    1.196    0.164
        54 -10.6644    175.8368     29.4594   3.5373347798e+02   3.8343410067e+01    0.3949314    0.1903923 -48.79  0.001963156    1.766    0.434
        55 -11.4910    151.1024     31.2415   3.5705613234e+02   4.3761045296e+01    0.3871602    0.2042846  66.10  0.001088901    1.829    0.453
        56 -10.5635    249.0428     31.3257   3.4873624829e+02   2.4086501239e+01    0.1518644    0.1090911 -62.44  0.001140141    1.162    0.140
        57 -10.2392    179.9246     29.8281   3.5343064043e+02   3.7405336089e+01    0.1813579    0.1695572  83.49 0.0009684924    1.261    0.207
        58  -9.5437    212.9875     76.6937   1.1307349009e+00   2.4354741642e+01    0.1626854    0.1373883 -55.57 0.0002706829    1.073    0.068
        59 -11.0189     48.4583    166.6827   5.9129446809e+01   3.3827699845e+01    0.2554899    0.1816057  -9.13  0.001200222    1.814    0.449
        60 -11.0915    168.8935     27.1432   3.5381413696e+02   4.0168289505e+01    0.3231919    0.2006555  76.59  0.001262946    1.570    0.363
        61  -9.4765    216.4524     27.4011   3.4990975027e+02   3.0273317065e+01     0.116405   0.08946614 -57.93 0.0001194144    1.026    0.025
        62 -10.3344    207.1187     75.9034   1.6295013655e+00   2.5537852654e+01    0.2057458    0.1431963 -58.24  0.000877451    1.315    0.240
        63 -11.7544    241.8837     23.2793   3.4754206806e+02   2.6186850041e+01    0.4059782    0.1510547 -54.98  0.002020308    2.087    0.521
        64 -10.4920    154.8717     25.2138   3.5480360050e+02   4.3614930985e+01    0.3422205    0.1702624  69.23  0.001095777    1.916    0.478
        65 -10.3436    143.1943     25.3138   3.5628329915e+02   4.6366945143e+01    0.2836726    0.1686169  68.29  0.001451065    1.593    0.372
        66 -10.4367    180.0826     22.9905   3.5164513284e+02   3.8182615085e+01    0.2581343    0.1557206 -45.78  0.001377794    1.400    0.286
        67 -11.7122     58.7070    144.3969   5.2798716571e+01   3.8534027668e+01    0.6689314    0.4000214  47.20  0.002522266    1.687    0.407
        68 -10.5105    249.4524     85.6962   3.5927110190e+02   1.7121041745e+01    0.2281509   0.07811595 -40.87  0.001129227    2.067    0.516
        69 -10.6977    208.1576     16.8816   3.4809555654e+02   3.3061492196e+01    0.2080255    0.1616877 -82.59 0.0006797094    1.227    0.185
        70  -9.3584    139.3940     16.5440   3.5398700060e+02   4.8277528420e+01     0.130604    0.1123088 -75.62 0.0001154532    1.019    0.019
        71 -10.6204    244.5642     14.2442   3.4563712904e+02   2.6716189805e+01    0.1362374    0.0869671 -32.53 0.0004021792    1.527    0.345
        72 -12.3158     51.6027    142.9790   5.5006692402e+01   3.9827525096e+01    0.4684112    0.3910659  75.83  0.001529986    1.212    0.175
        73 -12.6206      3.1142    139.1627   7.1774022866e+01   4.5338773413e+01    0.8032969    0.3617928 -82.42  0.003363852    2.037    0.509
        74 -12.4766      9.6390    128.7717   6.8612323226e+01   4.7814125312e+01    0.5471155    0.2401385  23.94  0.002252822    2.260    0.557
        75 -11.8861    139.4715    126.5536   2.5383470144e+01   2.9307456813e+01     0.386212    0.3416992  81.76  0.001219222    1.298    0.230
        76 -12.1719     20.4343    123.6219   6.3920289236e+01   4.8463871590e+01    0.4169269     0.294898   7.28  0.002041449    1.603    0.376
        77 -13.0435    106.8859    104.2375   2.8451754114e+01   4.0711479766e+01    0.7013427    0.6482584  63.59  0.003710455    1.098    0.089
        78 -13.1217      4.2251    114.4518   6.9507717048e+01   5.2136374661e+01    0.7329631     0.527104 -30.66  0.003781731    1.545    0.353
        79 -10.3182    175.0280     80.6707   7.1189402417e+00   3.1037538927e+01    0.3103654    0.1763383 -39.42  0.000958825    1.591    0.372
        80 -12.9881     13.1559    119.2256   6.6330534195e+01   5.0248588449e+01    0.6235057    0.2875336 -74.61  0.002554685    1.973    0.493
        81 -10.7744    126.8085    113.0169   2.5255121958e+01   3.4720609835e+01    0.2613758    0.2282172  45.43 0.0008043601    1.191    0.160
        82 -13.3399     76.8417    106.2282   3.8760333711e+01   4.5925561932e+01     1.607569     0.910195  26.58  0.006152461    2.064    0.515
