#   1 NUMBER                 Running object number                                     
#   2 MAG_AUTO               Kron-like elliptical aperture magnitude                    [mag]
#   3 X_IMAGE                Object position along x                                    [pixel]
#   4 Y_IMAGE                Object position along y                                    [pixel]
#   5 X_WORLD                Barycenter position along world x axis                     [deg]
#   6 Y_WORLD                Barycenter position along world y axis                     [deg]
#   7 A_WORLD                Profile RMS along major axis (world units)                 [deg]
#   8 B_WORLD                Profile RMS along minor axis (world units)                 [deg]
#   9 THETA_WORLD            Position angle (CCW/world-x)                               [deg]
#  10 FWHM_WORLD             FWHM assuming a gaussian core                              [deg]
#  11 ELONGATION             A_IMAGE/B_IMAGE                                           
#  12 ELLIPTICITY            1 - B_IMAGE/A_IMAGE                                       
         1 -14.8661    164.6194     47.6540   7.3602762242e+01   3.8009131152e+01     1.121867     1.045537 -36.86  0.003754844    1.204    0.169
         2 -15.2520    179.5574     17.5640   6.3356060226e+01   3.8039136424e+01     1.770754     1.010586  68.74   0.00716546    1.479    0.324
         3 -13.5565    189.6163     14.6412   6.1385038090e+01   3.5942065704e+01    0.4737317    0.3053193  69.17  0.001718356    1.310    0.236
         4 -10.8741    162.8486    245.2961   1.1863042658e+02  -6.0954563909e-01    0.3131401    0.1790267  37.24 0.0005317727    1.510    0.338
         5 -20.1934     72.0457    174.7987   1.2839453780e+02   3.0090018877e+01     17.86167     6.978967 -64.47   0.06873264    2.473    0.596
         6 -12.6127    164.8002    187.2307   1.0813970218e+02   1.0269663847e+01    0.3607919    0.2545665  56.70 0.0005728031    1.551    0.355
         7 -12.6376    169.2819    183.5800   1.0639542810e+02   1.0140207904e+01    0.3668685    0.2975563  -6.83  0.001414276    1.503    0.335
         8 -10.4170    136.8826    185.3138   1.1427384099e+02   1.6261389368e+01    0.2080715    0.1849049  43.41 0.0003627351    1.095    0.087
         9 -12.1891    163.0016    181.6773   1.0744087249e+02   1.1825970021e+01    0.3592722     0.228673 -48.27  0.001592285    1.631    0.387
        10 -13.6846    188.2198    175.1461   1.0046163141e+02   8.0407775895e+00     1.087748    0.5434597 -56.02   0.00373384    2.632    0.620
        11 -10.6259    139.9225    241.4945   1.2280248287e+02   4.0473789325e+00    0.2162884    0.1371803 -51.38  0.001131972    1.832    0.454
        12 -12.8930    207.2789    227.7495   1.0669275376e+02  -5.2891633248e+00    0.3882292    0.1755644 -38.00  0.001731296    2.359    0.576
        13 -11.3574    127.6045    228.0486   1.2347763336e+02   8.7976483731e+00    0.3827361    0.2549557  25.54   0.00187723    1.823    0.451
        14 -12.0906    194.7238    172.3561   9.8480049227e+01   7.2843687035e+00    0.4244288    0.2692015 -54.38   0.00152967    1.798    0.444
        15 -12.1682     26.2189    172.9155   1.3920552241e+02   3.6156088873e+01    0.3172076    0.2646176  71.21  0.001135768    1.166    0.142
        16 -11.3506     17.9422    173.6436   1.4117528117e+02   3.6778478636e+01    0.1958821    0.1659674 -48.69 0.0007371618    1.432    0.302
        17 -10.8085    207.6514    171.2583   9.5571327252e+01   4.9046895599e+00    0.3488344    0.2092703 -59.68  0.001278662    2.319    0.569
        18 -12.4164    176.8798    169.2474   1.0169815843e+02   1.1627260061e+01    0.3592328    0.2213627 -60.15  0.001462866    2.032    0.508
        19 -10.6684    127.4474    222.7478   1.2273242858e+02   9.9013839040e+00    0.2178217    0.1888939 -82.37 0.0007076525    1.235    0.190
        20 -12.8087    134.5917    239.0992   1.2357407320e+02   5.4212634522e+00    0.3386914    0.2473786 -55.42 0.0008327393    1.575    0.365
        21 -10.7181     25.2729    165.1751   1.3856379435e+02   3.8074670531e+01     0.209043    0.1768389  -5.84  0.000865678    1.670    0.401
        22 -10.7695    217.6512    217.8235   1.0283702276e+02  -5.3961183590e+00    0.1804513    0.1212922 -46.29 0.0008532346    1.718    0.418
        23 -11.1746     22.9849    156.1062   1.3805610223e+02   4.0436642854e+01    0.2180091    0.1744489  46.57 0.0004540693    1.399    0.285
        24 -11.1455     17.6898    158.7237   1.3965418697e+02   4.0290120673e+01    0.2366733    0.2213167  -3.59 0.0008993443    1.429    0.300
        25 -11.5757     18.1945    155.0472   1.3911243594e+02   4.1111311283e+01    0.3052093    0.2075429 -76.52 0.0009021346    1.198    0.166
        26 -12.2975    188.3367    154.3213   9.5893728225e+01   1.2355251605e+01    0.6912966    0.4510815  44.54  0.002751361    1.549    0.354
        27 -10.1932    177.9712    156.2328   9.8595865433e+01   1.4189516742e+01    0.2075547    0.1979732  44.07 0.0002128761    1.048    0.046
        28 -12.7772    164.4422    152.6620   1.0088091784e+02   1.7918572302e+01    0.3937958    0.3817791  65.01  0.001209092    1.031    0.030
        29 -10.4164     23.9745    216.5852   1.4371896730e+02   2.6498987203e+01    0.1454446    0.1148004  69.52 0.0009980811    1.124    0.110
        30 -10.3386      7.3056    149.8092   1.4119429544e+02   4.3206739860e+01    0.2739516    0.1306566 -39.47  0.001312043    2.801    0.643
        31 -11.6895    174.4563    148.7336   9.7680900866e+01   1.6581676836e+01    0.3636672    0.2987504 -81.44  0.001163019    1.471    0.320
        32 -13.2755     12.0630    205.9960   1.4521225017e+02   3.0030339686e+01    0.4879345    0.2906003  25.58  0.002876134    2.330    0.571
        33  -9.9813    140.2261    202.4155   1.1658939797e+02   1.1830862518e+01    0.1434165    0.1117456 -22.99 0.0006873714    1.683    0.406
        34 -12.7680    160.4955    127.7523   9.5902139242e+01   2.4312936026e+01    0.5136098    0.3736338 -61.95  0.001476421    1.549    0.354
        35 -11.7601    219.9574    197.4657   9.8489435003e+01  -2.3039654952e+00    0.2491656    0.1898518 -51.32 0.0006183675    1.547    0.354
        36 -10.5142    134.5118    197.4347   1.1703629525e+02   1.4004417157e+01    0.2776338    0.1471158 -53.16 0.0006954228    1.994    0.499
        37 -10.8975    151.2486    236.2598   1.1967007775e+02   3.0255141029e+00    0.2376121    0.1959863  44.52 0.0007906134    1.058    0.054
        38 -11.0738    231.2456    113.7931   7.8513596688e+01   1.1122110535e+01    0.2422341    0.2338109  72.02 0.0007711148    1.126    0.112
        39 -10.9401    167.9719    112.9783   9.0459153772e+01   2.5716844381e+01    0.3841413    0.2577781 -83.73  0.001402046    2.379    0.580
        40 -10.8827    120.7827    196.9595   1.2016048070e+02   1.6680460341e+01    0.2392871    0.1938929  50.63 0.0005033234    1.153    0.133
        41 -10.9284    205.3437    110.2405   8.2159672480e+01   1.7504686801e+01    0.3118957    0.2105858  49.05 0.0009580761    1.548    0.354
        42  -9.9907    125.4120    236.5087   1.2513563367e+02   7.5082240908e+00    0.1362981    0.1148848  58.73  0.000803139    1.065    0.061
        43 -11.5931     97.8768    250.5148   1.3247037639e+02   9.3665162877e+00    0.1721708     0.118775  43.07 0.0008924999    1.306    0.234
        44 -11.5154     13.5092    100.8550   1.3265521932e+02   5.3986547378e+01    0.3910424    0.1863615  15.77  0.002020733    2.625    0.619
        45 -10.4042    145.4976     82.4603   8.7449716684e+01   3.7043422737e+01    0.1514514    0.1451688  52.68 8.689524e-05    1.009    0.009
        46 -10.7454     98.5458     80.8221   9.9689570414e+01   4.7488639832e+01     0.241298    0.1920647  37.62 0.0004408094    1.247    0.198
        47 -13.3373    174.5066    184.9478   1.0549964595e+02   8.7948283122e+00    0.7498837    0.3099349 -53.94  0.002538296    3.047    0.672
        48 -12.9079    168.7300    177.6590   1.0531086797e+02   1.1518672498e+01    0.6181799    0.2934235  57.58  0.002032928    3.128    0.680
        49 -14.4243    152.7229     62.1662   8.0024745198e+01   3.8769297962e+01     1.388191     1.008491  31.50 0.0009313319    1.611    0.379
        50 -10.3510    155.9147    247.3583   1.2035286303e+02   2.3044614902e-01    0.1782701    0.1389401  38.68 0.0003193891    1.089    0.082
        51 -13.4780    169.4141     39.4091   7.0527273124e+01   3.7937396307e+01    0.4694595    0.4208505  56.02 0.0008935043    1.131    0.116
        52 -11.2707     13.6035     59.9442   1.2374584341e+02   6.2450379578e+01    0.1826484    0.1603901   1.93  0.000450549    1.294    0.227
        53 -10.6261    127.7367    247.2754   1.2609518129e+02   5.0721122202e+00    0.1418491    0.1375889 -28.67 0.0003036107    1.288    0.223
