#   1 NUMBER                 Running object number                                     
#   2 MAG_AUTO               Kron-like elliptical aperture magnitude                    [mag]
#   3 X_IMAGE                Object position along x                                    [pixel]
#   4 Y_IMAGE                Object position along y                                    [pixel]
#   5 X_WORLD                Barycenter position along world x axis                     [deg]
#   6 Y_WORLD                Barycenter position along world y axis                     [deg]
#   7 A_WORLD                Profile RMS along major axis (world units)                 [deg]
#   8 B_WORLD                Profile RMS along minor axis (world units)                 [deg]
#   9 THETA_WORLD            Position angle (CCW/world-x)                               [deg]
#  10 FWHM_WORLD             FWHM assuming a gaussian core                              [deg]
#  11 ELONGATION             A_IMAGE/B_IMAGE                                           
#  12 ELLIPTICITY            1 - B_IMAGE/A_IMAGE                                       
         1 -11.2688      1.9660     21.7175   9.4650174584e+01   7.0596068558e+01     0.448899    0.2134414 -53.79  0.002255491    2.093    0.522
         2 -10.3837    113.8707     25.9444   5.2528402941e+01   5.2500815610e+01    0.2619785     0.183341 -32.30   0.00142143    1.548    0.354
         3 -11.0089     74.0373     18.5319   6.0725752801e+01   6.1626559936e+01    0.4689182    0.2662096  45.35  0.002481657    1.614    0.380
         4 -11.1547     37.2509     18.9708   7.5400597778e+01   6.7540133123e+01    0.3808874    0.2788636  47.46  0.001961743    2.069    0.517
         5 -11.2766     34.4768     12.6783   7.3719934141e+01   6.8751942975e+01    0.3136832    0.2431446 -20.15  0.001101487    1.251    0.201
         6 -11.0918     38.3570      7.2114   6.9238909348e+01   6.8883214338e+01    0.3754412    0.2810127  24.12  0.002184569    1.221    0.181
         7 -11.9240     30.5383      7.4743   7.3025820061e+01   6.9928000023e+01    0.4503924    0.4174596  -8.10  0.003350252    1.547    0.354
         8 -10.9652     13.5744     15.7600   8.5794314560e+01   7.0667346896e+01    0.3200005    0.2349328 -26.59  0.001540064    1.159    0.137
         9 -10.9737     14.8766      7.8729   8.1341011877e+01   7.1695235697e+01    0.3510608    0.2708012   3.32  0.002121724    1.176    0.150
        10 -11.7477    234.8228     15.0342   3.2662982140e+01   2.6063351478e+01    0.2211383     0.176861 -66.73 0.0002774795    1.027    0.026
        11  -9.9186     89.5686     13.6863   5.4033116715e+01   5.9053954793e+01    0.1937641    0.1729285  36.20 0.0003189296    1.105    0.095
        12  -9.9870     85.6930     12.6211   5.4677256856e+01   5.9956145694e+01    0.2251433    0.1622252   5.35  0.001015713    1.418    0.295
        13 -11.9933     66.2053     13.7203   6.1278303099e+01   6.3607364973e+01    0.2587665    0.2502005 -69.11 0.0008727504    1.535    0.348
        14 -11.4550    135.4860     10.6917   4.3013608424e+01   4.9052868630e+01     0.336419    0.2122201  37.67  0.001789402    1.649    0.393
        15 -10.5257    126.0433     11.0369   4.4797234996e+01   5.1223879181e+01    0.1921071    0.1648192  50.24  0.001203228    1.029    0.028
        16 -10.1132      3.9242     10.7692   8.8926065202e+01   7.2244571483e+01     0.145002    0.1085555  -6.80 0.0003705635    1.143    0.125
        17  -9.9578     45.8548     10.1246   6.7408519379e+01   6.7427795264e+01    0.1683601    0.1425968   6.05 0.0003542051    1.168    0.144
        18 -10.1798     22.4582      9.5650   7.8130706026e+01   7.0648347295e+01    0.3265845    0.1619253  13.15  0.001709003    2.238    0.553
        19 -10.5958     56.9026      8.1884   6.2094103349e+01   6.5836053621e+01    0.2268857    0.1986741   1.10 0.0007705971    1.209    0.173
        20 -11.2650     57.4521      2.6965   5.9280065493e+01   6.6280251119e+01    0.4196857    0.2608957   8.23 0.0009198223    1.596    0.374
        21 -11.4215    187.9560      6.9380   3.5028451459e+01   3.7106009504e+01    0.4384896    0.2284279  49.08  0.001831664    2.129    0.530
        22 -10.2000    204.2910      6.9547   3.3464064875e+01   3.3426937775e+01    0.1625096    0.1419617 -64.13  0.000303143    1.107    0.096
        23 -10.3306     66.0086      7.0095   5.8317667156e+01   6.4329697106e+01    0.2337407    0.1470859  44.68  0.001358994    1.429    0.300
        24 -10.6988    151.3681      6.2034   3.9199583793e+01   4.5709934654e+01    0.1650649    0.1124486 -39.50 0.0002737015    1.597    0.374
        25  -9.6871    135.6767      4.3360   4.0956016375e+01   4.9554973737e+01    0.1293743   0.09115799 -68.34 0.0007050837    1.713    0.416
        26 -10.3877    119.9664      3.6239   4.3394926023e+01   5.3251922665e+01    0.2283103    0.2028608 -78.22  0.001485463    1.295    0.228
        27  -9.1419    104.4773      4.4841   4.6795491155e+01   5.6672392090e+01    0.1771132    0.1126619 -34.04 0.0002277175    1.814    0.449
        28 -10.2229    102.4211      1.5523   4.6135937421e+01   5.7356319555e+01    0.3357312    0.1566344  56.07  0.001429187    1.755    0.430
        29 -10.2232     83.7017      4.2919   5.1767609205e+01   6.1121144099e+01    0.2192373    0.1691631  53.76 0.0002268158    1.264    0.209
        30 -11.4415     80.4852      1.4317   5.1434683096e+01   6.2011581620e+01    0.2885599    0.1511978  54.64 0.0006054616    1.698    0.411
        31 -10.9103     20.8450      2.0803   7.5135175512e+01   7.1795655634e+01    0.2927825    0.1611692  18.02  0.001304874    1.666    0.400
        32  -9.3017      1.0000      2.8954   8.6900853630e+01   7.3644177142e+01    0.1694411   0.05115084 -44.00 0.0007961461    2.899    0.655
        33  -9.7711    176.2151      2.6093   3.5165276584e+01   4.0206256737e+01    0.1779825   0.09675385  61.82 0.0004655121    1.630    0.386
        34  -9.9898      2.7401      6.5920   8.7663689236e+01   7.2967803106e+01    0.2013533    0.1131065  21.23 0.0007368958    1.809    0.447
        35  -9.5755     71.7827      1.8016   5.4113289713e+01   6.3706075818e+01    0.1449232     0.136947  -6.22 0.0003920406    1.300    0.231
        36 -10.6487     11.6831      1.7872   8.0013746697e+01   7.2838199862e+01    0.1792614    0.1358414  18.46 0.0006125612    1.413    0.292
        37  -9.5379     19.9959    204.0063   1.1958511602e+02   2.8200540508e+01    0.1432343    0.1133275  83.67            0    1.034    0.033
        38 -10.4737     30.7862    250.6615   1.2059818440e+02   1.7638433682e+01    0.2139588   0.08963938  37.44 0.0006202426    2.082    0.520
        39 -12.0118     17.9852    248.9522   1.2276234333e+02   1.9281474700e+01    0.2992557    0.2614341  -5.34  0.002288843    1.887    0.470
        40 -11.9844      4.8361    240.6679   1.2463881004e+02   2.2107737852e+01    0.4585156    0.1843673  47.59  0.002698688    1.948    0.487
        41 -11.2228      9.1936    237.6233   1.2372332969e+02   2.2287651113e+01    0.1639073    0.1552947  47.65 0.0007997759    1.436    0.304
        42 -10.3325      5.9918    250.0074   1.2487219769e+02   2.0248824011e+01     0.198553    0.1727025  82.43  0.001267052    1.293    0.227
        43 -10.9384      1.8883    248.3457   1.2548938631e+02   2.0936129285e+01    0.3565554    0.1467136 -83.51  0.002090565    2.178    0.541
        44  -9.4562    193.4113    202.2048   8.0747701161e+01   3.3796203880e+00    0.1757759    0.1273834 -47.65 0.0005801605    1.607    0.378
        45 -10.1393     23.7926    196.5814   1.1820953706e+02   2.9482133554e+01     0.241567    0.1781136 -47.43  0.001504949    1.672    0.402
        46 -10.4279     13.8456    192.5078   1.2003746040e+02   3.1311850586e+01    0.2189969    0.1394664  70.61 0.0004784008    1.412    0.292
        47 -10.3073      1.4383    191.4683   1.2259144913e+02   3.2575562518e+01    0.2582527    0.1089379 -89.93 0.0007317567    2.171    0.539
        48 -10.8101      6.0110    191.9500   1.2166451792e+02   3.2101622178e+01    0.2215806    0.1683957 -60.09  0.001496825    1.432    0.302
        49  -9.4262     22.0466    180.0163   1.1719009938e+02   3.3437768106e+01    0.1480999    0.1269949  81.83 0.0004955917    1.059    0.056
        50  -9.1664     13.3310    180.6793   1.1923659014e+02   3.4048835265e+01    0.1304662   0.07487942  66.68 0.0005238662    1.695    0.410
        51 -10.5145      4.9446    167.7391   1.2012009129e+02   3.7719966846e+01    0.2669718     0.161054  55.07  0.001563571    1.657    0.396
        52  -9.6273    226.4594    164.0065   6.6713680876e+01   4.6131141898e+00    0.2087353    0.1205733 -35.58  0.000624753    1.538    0.350
        53  -9.2409    247.4753    155.4721   6.1351785319e+01   2.6269208100e+00     0.133441    0.1102371 -24.79 0.0002492304    1.024    0.024
        54 -10.8528      3.7248    153.6146   1.1921960194e+02   4.1142188193e+01    0.3528646    0.1329686  26.02  0.001665389    2.977    0.664
        55 -10.9113     22.2082    146.9316   1.1373770561e+02   4.1367817076e+01    0.2571039    0.2121121   2.78 0.0009865074    1.550    0.355
        56  -9.2853     24.6768    138.6867   1.1203210054e+02   4.3189968527e+01    0.1357235   0.08530539 -43.44 0.0007040519    1.659    0.397
        57 -10.1628    212.5359    133.9375   6.2669924893e+01   1.2525928761e+01    0.2404778    0.2074018  74.39 0.0007218453    1.503    0.335
        58 -10.7469      4.3116    134.3335   1.1718611687e+02   4.5734728710e+01    0.1771467     0.136387  87.09  0.001123037    1.209    0.173
        59  -9.3227     96.0028    133.7536   9.0362893734e+01   3.5474564207e+01    0.1902037    0.1300144  35.02 0.0005856522    1.534    0.348
        60 -10.6087     12.1122    129.8270   1.1447907214e+02   4.6321640461e+01    0.1993528    0.1531865  84.00   0.00107155    1.293    0.226
        61  -9.9683     28.5253    128.1017   1.0943299337e+02   4.5479678647e+01    0.1988948    0.1129706 -66.43 0.0003793499    1.482    0.325
        62  -9.2804     48.3687    127.7135   1.0336679860e+02   4.3626405366e+01    0.1412019    0.1014669  67.17 0.0003226235    1.704    0.413
        63 -11.3205     23.9890    121.5916   1.0982344918e+02   4.7462554449e+01    0.3344927    0.2331081  71.11  0.001574886    1.701    0.412
        64 -11.2647     18.4013    120.8626   1.1142376506e+02   4.8069007464e+01    0.4608963    0.1520845 -52.42 0.0006970679    2.423    0.587
        65 -10.8546      9.4952    122.4814   1.1432135430e+02   4.8282980586e+01     0.242747     0.170069  60.18  0.001421687    1.642    0.391
        66  -9.8177     69.1506    116.8605   9.4701011905e+01   4.3722055067e+01    0.1995685    0.1587571 -32.34 0.0002709936    1.273    0.215
        67  -9.9986      1.7515    114.0597   1.1557988570e+02   5.0767999101e+01    0.1776213    0.1285208 -66.87 0.0002873761    1.084    0.078
        68  -9.1118    139.2523    112.0291   7.3098689534e+01   3.2201806463e+01    0.1962494    0.1309632 -41.49 0.0002324126    1.457    0.314
        69 -10.4276     65.0458    109.9464   9.4445298478e+01   4.5958460493e+01     0.217541    0.1995483 -51.34 0.0003676574    1.051    0.048
        70 -10.5533      2.6130    109.1765   1.1468151252e+02   5.1891499775e+01     0.168493    0.1450702 -78.62 0.0009045979    1.133    0.117
        71 -11.1103     57.7664    107.7274   9.6329372159e+01   4.7436847698e+01    0.2663207    0.1998328 -21.38 0.0007512206    1.478    0.323
        72  -9.7483     27.6219    106.7376   1.0618794947e+02   5.0796982720e+01    0.2542375    0.1390519 -22.21  0.001157872    2.431    0.589
        73 -10.3011     17.0961    104.7171   1.0933485589e+02   5.2083057791e+01    0.1693897    0.1483663 -36.85 0.0003656113    1.176    0.150
        74 -11.1342      2.5820    104.3273   1.1402748509e+02   5.3049282456e+01    0.3004054    0.2014428  14.55  0.001351608    1.849    0.459
        75  -9.0113    133.3050    104.2508   7.2533464219e+01   3.5116780344e+01    0.1511081    0.1201446   6.05 0.0001434344    1.505    0.335
        76  -9.5436    186.7269    102.9998   6.0081696084e+01   2.3624891345e+01    0.2103739    0.1851751 -41.23 0.0006500094    1.076    0.071
        77  -9.5105    246.6786    101.6750   5.0018764308e+01   1.1655308836e+01    0.1289433   0.09954054  -3.53 0.0004257291    1.682    0.405
        78 -10.9121     11.4103     93.1746   1.0929356549e+02   5.5195660146e+01    0.4450104    0.2282072 -71.77  0.002222795    1.801    0.445
        79 -11.2129     11.0668     85.7955   1.0806216090e+02   5.6935573250e+01    0.3913587    0.2138235 -80.45  0.001915268    2.150    0.535
        80 -12.1871     20.5978     93.0539   1.0602370081e+02   5.4611912280e+01    0.4230077    0.2486481 -29.85 0.0005751235    1.801    0.445
        81 -10.5192     24.1707     88.1886   1.0374074501e+02   5.5480173667e+01    0.3302434    0.1878441 -53.66 0.0008653956    1.409    0.290
        82  -9.7674      3.4841     95.4902   1.1241975400e+02   5.5092659484e+01    0.1273966   0.09876392 -58.14 8.210315e-05    1.019    0.018
        83 -11.9043    125.2484     93.2932   7.1587840206e+01   3.9102389937e+01    0.2672512    0.2566144 -23.96 0.0002129942    1.028    0.027
        84  -9.5196     78.7581     93.9818   8.5855608890e+01   4.7676656827e+01    0.1988161    0.1757772 -30.04  0.000290445    1.039    0.037
        85 -11.7219     58.0079     91.5404   9.2304561548e+01   5.1215267637e+01     0.336374    0.2576418 -26.37 0.0004187805    1.290    0.225
        86  -9.9802     28.3938     92.2700   1.0307610437e+02   5.4185615224e+01    0.2729303    0.1804514   8.21   0.00135961    1.785    0.440
        87 -10.1427     50.8265     91.6275   9.4872513412e+01   5.2079440142e+01    0.1855011    0.1253931  38.75 0.0009424798    1.708    0.414
        88 -10.5931     44.1686     89.5518   9.6749686125e+01   5.3308853431e+01    0.3383269    0.2220585  50.49 0.0009504883    2.054    0.513
        89 -10.2624      6.9953     91.0889   1.1048297157e+02   5.5938464756e+01    0.1862623    0.1426833 -52.77 0.0003289533    1.054    0.051
        90  -8.9174     85.2538     88.2652   8.2084890465e+01   4.7869094354e+01    0.1414619    0.1076803 -15.08            0    1.442    0.307
        91 -10.1301     67.1060     92.0604   8.9270981266e+01   4.9864205354e+01    0.2634663    0.1761105  55.64  0.001207477    2.104    0.525
        92  -9.5734     19.4415     86.9382   1.0521452244e+02   5.6123206917e+01    0.1948962    0.1105778 -65.05  0.001003132    1.568    0.362
        93  -9.4223    124.4678     86.4742   6.9799181641e+01   4.0638261968e+01    0.1526715    0.1446301  -4.30   0.00016724    1.023    0.023
        94 -11.1215    146.2221     83.0363   6.3297725430e+01   3.6480856479e+01    0.3439046    0.2573619 -13.58 0.0004318085    1.600    0.375
        95  -9.8833    139.1755     82.8337   6.4930177705e+01   3.8110335826e+01    0.2044014    0.1737258  13.19 0.0002337659    1.292    0.226
        96 -10.5269      3.1108     81.2595   1.1015014140e+02   5.8408244870e+01     0.338066    0.1240309 -60.12  0.001586865    1.956    0.489
        97 -12.0471     55.3970     85.8082   9.1711859681e+01   5.2847233079e+01    0.2619649    0.2369067   9.00 0.0002762594    1.174    0.148
        98  -9.2138     42.7277     81.6367   9.5269839639e+01   5.5263190188e+01    0.1462669   0.08676829 -32.66 0.0007001086    1.659    0.397
        99  -9.1822    250.3552     80.7251   4.5040496888e+01   1.4253742120e+01    0.1300501    0.0876395 -65.87 0.0007004863    1.647    0.393
       100  -9.7256     88.5872     79.7378   7.8425120675e+01   4.9082991882e+01    0.3586956     0.238608  76.43  0.001303758    3.572    0.720
       101  -9.2291    124.4658     79.4713   6.7688774461e+01   4.1991110813e+01    0.1485068    0.1452794  -8.73 0.0001213859    1.047    0.045
       102  -9.0590     80.5832     79.5204   8.1018094799e+01   5.0509457079e+01    0.1436175    0.1327804 -26.33 7.140955e-05    1.067    0.063
       103  -9.3404     48.0006     79.0156   9.2577833256e+01   5.5254288973e+01    0.1623195    0.1386704 -33.07  0.000357966    1.000    0.000
       104  -9.2574     24.6784     78.6905   1.0141701898e+02   5.7613524884e+01    0.1393984   0.07972651 -34.17  0.000433017    1.647    0.393
       105 -10.9877      7.5318     76.8947   1.0763936133e+02   5.9169092495e+01    0.3341292    0.2103135  52.83  0.001466224    2.301    0.565
       106 -10.2937    176.8298     77.0635   5.5168459849e+01   3.0478306686e+01    0.2329428    0.1979659 -68.84  0.001231293    1.270    0.213
       107  -9.6993    159.8184     77.1384   5.8573837475e+01   3.4410714385e+01    0.1997578    0.1743355  11.30 0.0003644827    1.286    0.222
       108  -9.9577     28.1233     77.1106   9.9699952473e+01   5.7683307909e+01    0.1925304    0.1430782 -34.83 0.0003052648    1.174    0.148
       109 -10.8575     54.9685     75.4724   8.8942003496e+01   5.5166010536e+01     0.315497    0.2367252  -9.51 0.0003452387    1.397    0.284
       110 -11.1727     15.3790     75.2406   1.0423724186e+02   5.9066428005e+01    0.3552674    0.2264191  18.05  0.001198498    1.815    0.449
       111 -10.5303     37.0434     75.0119   9.5680010050e+01   5.7320717083e+01    0.2785223    0.2146038 -56.95 0.0004570585    1.286    0.222
       112 -10.3719     33.7768     73.3426   9.6511035786e+01   5.8005034474e+01    0.2590753     0.187802   1.55 0.0009682269    1.493    0.330
       113  -9.3397     41.6018     74.6827   9.3816860613e+01   5.6919066501e+01    0.1488741   0.08771523 -24.16 0.0001142235    1.873    0.466
       114  -9.2409    217.0000     72.0191   4.7364714815e+01   2.2295600272e+01    0.2107641   0.07175403 -35.73 0.0003234605    2.713    0.631
       115 -12.1658    106.0758     71.0982   7.0225283419e+01   4.7426083960e+01    0.3137795    0.2971367  83.94 0.0004172404    1.280    0.219
       116  -9.8987     20.5853     71.7176   1.0134301082e+02   5.9481729787e+01    0.2559455    0.0946107 -54.79  0.001130326    2.082    0.520
       117 -10.9692     10.4338     69.2107   1.0483758765e+02   6.0713600476e+01    0.3521514    0.1590738 -52.39  0.001316341    1.652    0.395
       118  -9.4643    100.0239     70.4807   7.1847212666e+01   4.8751050777e+01    0.1963327    0.1419754  41.63 -1.401603e-05    1.398    0.285
       119 -10.3591     77.3218     68.2412   7.8542832162e+01   5.3323060709e+01    0.4501357    0.1985171 -34.87  0.001755596    2.378    0.580
       120 -10.1762     80.6024     67.1905   7.7061586620e+01   5.2967634501e+01    0.3119871    0.2058501 -11.26  0.001357429    1.886    0.470
       121 -10.4511     45.7190     69.5565   9.0727527838e+01   5.7554556466e+01    0.2517852    0.1969549   4.60 0.0008565506    1.315    0.239
       122 -11.0998      5.1418     68.4712   1.0681329905e+02   6.1170643127e+01    0.2368686     0.153193 -83.61  0.001316976    1.948    0.487
       123  -9.0583    120.2778     68.7094   6.5449656013e+01   4.4866353891e+01    0.1392048    0.1182857 -76.59 0.0001544965    1.522    0.343
       124 -10.3302     51.7171     66.1519   8.7330878513e+01   5.7527295820e+01    0.2616762    0.1844561 -15.13 0.0003803203    1.461    0.315
       125 -11.0165     14.8842     63.7611   1.0168331341e+02   6.1613290846e+01    0.3533822    0.2603729 -38.81  0.001204202    1.087    0.080
       126 -13.2165     20.5114     57.9249   9.7700490338e+01   6.2431872388e+01    0.4092728     0.248074 -55.93 0.0009709973    1.516    0.340
       127 -10.2819     96.7599     64.0771   7.0731228426e+01   5.0563408746e+01    0.2651964     0.197162  30.36            0    1.336    0.251
       128 -10.4856     62.5204     62.3356   8.1933870034e+01   5.6798246325e+01    0.2634526    0.1748328 -40.85  0.001217651    1.403    0.287
       129  -9.6128     38.5044     61.4988   9.1164611045e+01   6.0028345784e+01    0.1820827     0.118608   3.73 0.0007598076    1.693    0.409
       130  -9.6113     41.4219     58.7144   8.9073681820e+01   6.0265634652e+01    0.1885921    0.1035625 -38.33 0.0005837655    1.583    0.368
       131 -10.6973     83.5204     56.5216   7.2400279372e+01   5.4397444851e+01    0.3312281    0.2436809 -63.02  0.001581858    2.078    0.519
       132 -11.6354     87.2130     53.9941   7.0275069453e+01   5.4145413208e+01    0.4677249    0.3143387  17.49   0.00145293    1.682    0.405
       133 -10.8084     10.0434     58.2101   1.0231401351e+02   6.3100947555e+01    0.2915214     0.269228 -78.40  0.002059809    1.390    0.280
       134  -9.9665     49.1600     58.2509   8.5763396006e+01   5.9424359457e+01    0.2404259    0.1583508  20.89 0.0009674703    1.576    0.365
       135 -11.1348      4.9379     57.4988   1.0434660143e+02   6.3541990914e+01    0.1870555    0.1312903 -48.52 0.0004265397    1.106    0.096
       136 -10.2304     71.7125     56.6311   7.6559404499e+01   5.6427256787e+01     0.242956    0.1599251 -36.80 0.0009313028    1.446    0.308
       137 -10.6200     32.9344     55.6949   9.1666616514e+01   6.1774721059e+01    0.4591008    0.1734567 -31.38  0.001582705    3.299    0.697
       138 -10.2528     96.2649     55.9263   6.8083221776e+01   5.2070918872e+01    0.2381708    0.1955961  30.39 0.0005379972    1.164    0.141
       139 -10.6965    114.5826     53.7738   6.2065534519e+01   4.8593635422e+01     0.304593    0.2558276  -0.09   0.00092064    1.238    0.192
       140 -11.7429     66.0379     52.7213   7.7243576360e+01   5.8040511311e+01    0.4219009    0.2115506  36.41  0.001706202    2.021    0.505
       141  -9.0681    168.4676     52.5178   4.9898666058e+01   3.6285913292e+01    0.1383681    0.1337206  52.19   3.5254e-06    1.062    0.058
       142  -9.8067    149.0775     52.4547   5.3549461946e+01   4.0893630094e+01    0.2149056    0.1352579  56.25 0.0005024955    1.530    0.347
       143 -11.2306    106.3916     50.4130   6.3161434909e+01   5.0875434982e+01    0.4502225    0.2684112  -7.42  0.001364692    2.484    0.597
       144  -9.2978    121.6930     51.3038   5.9389307012e+01   4.7399751426e+01     0.138191    0.1137451 -75.88 0.0004073783    1.603    0.376
       145  -9.8139      4.1846     50.7937   1.0294914342e+02   6.4973642834e+01    0.1764292    0.1043807 -37.52 0.0005414122    1.333    0.250
       146  -9.7210     76.4628     49.5358   7.2293713755e+01   5.6845815453e+01    0.1380543    0.1214567  -0.13 0.0001221931    1.014    0.014
       147 -10.1092     37.6581     48.9070   8.7348526778e+01   6.2583299510e+01    0.2557658    0.1571969   3.29  0.001344097    1.814    0.449
       148 -10.1818    101.9600     48.2957   6.3682306126e+01   5.2129682690e+01    0.1974868    0.1645671  35.99 0.0004437679    1.134    0.118
       149  -9.3924    154.5147     47.4962   5.0987517434e+01   4.0311662355e+01    0.2208916    0.1380077 -33.28 9.972283e-05    1.653    0.395
       150  -9.8649    152.1179     44.5730   5.0566380714e+01   4.1282732073e+01    0.2025134    0.1797893 -72.85 0.0002654508    1.212    0.175
       151  -9.8543    135.9280     46.4866   5.4467578300e+01   4.4838015093e+01    0.2139081    0.1343324  56.85 0.0008623154    1.536    0.349
       152 -10.9042     78.9567     45.7416   7.0012492877e+01   5.7016346355e+01     0.223726    0.1839789 -29.68 0.0002552764    1.233    0.189
       153  -9.6689     65.9666     47.0000   7.5153007988e+01   5.9037216342e+01    0.2044887   0.07301568  38.79 0.0007833453    2.812    0.644
       154  -9.2440     31.2364     45.9717   8.9141559288e+01   6.3821857719e+01    0.1599532   0.09211188 -45.13 0.0004290536    1.540    0.351
       155 -11.1362     10.3938     47.0219   9.9028412228e+01   6.5364974903e+01     0.364335    0.3443269   7.59   0.00249702    1.362    0.266
       156 -10.6672     25.4127     43.6749   9.0977897617e+01   6.4821409968e+01    0.2909203    0.2104409 -68.54  0.001219287    2.126    0.530
       157 -10.9042     17.4137     44.2323   9.4878632074e+01   6.5404328421e+01    0.4022588    0.2400475  36.54  0.002166952    2.213    0.548
       158 -10.5356     59.3241     41.6152   7.5632750980e+01   6.0972566592e+01    0.2384841    0.1776543  34.68 0.0005174482    1.408    0.290
       159 -10.5429     36.0950     41.6763   8.5409150254e+01   6.4078913647e+01    0.2266167    0.1582141 -32.02 0.0005263432    1.218    0.179
       160 -10.0475    139.9076     40.4082   5.1687339175e+01   4.4729225988e+01    0.2878989    0.2037525  80.13  0.001422614    1.710    0.415
       161 -10.6986    128.0639     38.6865   5.3664077150e+01   4.7717766530e+01    0.2486673    0.1974272 -36.90 0.0004625329    1.347    0.258
       162  -9.5885     43.0667     40.5430   8.1916517395e+01   6.3437052801e+01    0.1816915    0.1168238  24.18  0.001015389    1.551    0.355
       163  -9.5175    168.4770     38.9861   4.6077528577e+01   3.8120903162e+01    0.1947937    0.1331355 -33.63 0.0005073174    1.518    0.341
       164  -9.8948    152.1587     39.1659   4.8928857085e+01   4.1986395106e+01    0.2110363    0.1797922  36.99 0.0006462919    1.213    0.176
       165 -11.9138    121.2280     37.2971   5.4765201147e+01   4.9463945145e+01    0.4134606    0.3647644  26.56  0.001419276    1.091    0.083
       166 -10.1504     22.0930     38.1912   9.0574018073e+01   6.6136161170e+01    0.2071255      0.14696 -36.23 0.0006166005    1.176    0.149
       167  -9.7927     69.1203     42.1109   7.2111698037e+01   5.9311788744e+01     0.201851    0.1590551   1.62 -0.0006383859    1.177    0.150
       168 -10.7795     96.9727     37.7087   6.1274166452e+01   5.4694106435e+01    0.2419509    0.1949071 -20.57  0.001378907    1.257    0.204
       169 -12.8773     39.8922     32.4781   8.0091263629e+01   6.5177011000e+01    0.3780335    0.2558117 -25.00 0.0005119588    1.282    0.220
       170  -9.6183     35.0598     28.9827   8.0828995131e+01   6.6331627821e+01    0.1704864    0.1167085 -11.66            0    1.301    0.232
       171 -10.4736     45.8167     33.3607   7.7860621821e+01   6.4255934920e+01    0.5107724    0.2518097 -46.47  0.002428159    2.392    0.582
       172 -10.6453     44.7697     26.6291   7.5464424579e+01   6.5424355947e+01    0.3613983    0.1748591  24.92   0.00170592    2.164    0.538
       173 -10.7063     27.2143     34.7813   8.6857273965e+01   6.6246468462e+01    0.3317441     0.172264 -21.66    0.0012665    2.022    0.506
       174  -9.0407    141.7317     35.6135   4.9807415888e+01   4.4910540938e+01    0.1418934    0.1009837  22.23 0.0006987912    1.704    0.413
       175 -10.3790     91.0947     33.8932   6.1569920927e+01   5.6408968302e+01    0.4157126    0.2403865   8.17  0.001776385    2.558    0.609
       176  -9.5688    241.8133     33.1708   3.5849322723e+01   2.2520560305e+01    0.1420676    0.1346984 -45.87 0.0003480251    1.267    0.211
       177  -9.7914     55.3215     33.0730   7.3786606781e+01   6.2923769977e+01    0.1735015    0.1370759 -17.55 0.0002200973    1.138    0.121
       178 -10.5600     17.7779     32.4900   9.0548992390e+01   6.7536100035e+01    0.3462293    0.1689871  -1.60  0.001244725    2.610    0.617
       179 -10.3314      7.4294     34.1519   9.6324539051e+01   6.8025245095e+01    0.1934048     0.158396  12.41 0.0008486304    1.411    0.292
       180 -10.3808    127.6934     30.5047   5.1013220876e+01   4.8818523042e+01    0.3017338    0.2178307  74.61  0.000810853    1.569    0.362
       181 -11.7253     10.4570     29.8137   9.3230794026e+01   6.8597012284e+01    0.4375938    0.2343728  37.83  0.001407327    2.720    0.632
       182 -10.3492    225.1118    247.7818   8.2530424306e+01  -8.1703350476e+00    0.2444367    0.1451179 -25.93  0.001484373    1.616    0.381
       183  -8.9784      6.6870     20.9557   9.1769796904e+01   7.0400642205e+01    0.3004284    0.1846417 -32.49  0.001945695    1.246    0.198
       184 -11.0913     69.2369     27.3111   6.6091346832e+01   6.1432737733e+01    0.3420433    0.2933593  87.50  0.001839132    2.006    0.502
       185 -10.0312    229.8585    247.9552   8.1700281101e+01  -8.7954553380e+00    0.1748777     0.133939   3.16  0.000471044    1.037    0.036
       186  -9.4707     20.0378     17.5588   8.3184759041e+01   6.9768671458e+01    0.2612625    0.1230643 -32.34  0.001198086    1.821    0.451
       187 -10.2034     35.6390     23.0913   7.8010054395e+01   6.7159614682e+01    0.2597391     0.169487  10.30  0.001312897    1.440    0.305
       188 -10.4092    229.6075     21.5985   3.4475956906e+01   2.6401508903e+01    0.2722096    0.1333025 -63.43  0.001107199    2.138    0.532
       189  -9.8820    127.1879     22.6292   4.8474746009e+01   4.9819866364e+01      0.19064    0.1067814  50.32 0.0003451246    1.578    0.366
       190  -9.5632     97.2565     22.0124   5.5234606258e+01   5.6571849648e+01      0.17437    0.1527049  16.17 0.0003093577    1.074    0.069
       191  -9.3445    170.6243    247.1658   9.2840209267e+01  -5.5937114841e-01    0.1618379    0.1085203 -26.68 0.0009104382    1.681    0.405
       192  -9.8708     70.6808     17.3330   6.1331097014e+01   6.2388857125e+01    0.2396936    0.1376888 -38.23  0.001194402    2.073    0.518
       193  -9.3039     54.5020     22.0092   6.9367214224e+01   6.4610484454e+01    0.1653571   0.09449415  -3.96 0.0003532106    2.134    0.531
       194 -10.5434     30.3944     21.1351   7.9617958353e+01   6.8091053382e+01    0.2470789    0.1654224  20.74  0.001136478    1.413    0.292
       195 -10.1417    181.5006     21.0058   3.9339309243e+01   3.7165096416e+01    0.1797371     0.127499 -29.14 0.0005570826    1.542    0.351
       196 -10.0040     74.6749     22.2986   6.2110296210e+01   6.1068591254e+01    0.2509318    0.1885079 -43.72 0.0006187879    1.729    0.422
       197  -9.4083     84.1738     21.3398   5.8694901765e+01   5.9341809287e+01    0.1777505    0.1153988  56.28 0.0009361249    1.673    0.402
       198  -9.5559     31.4468     16.4250   7.6947933055e+01   6.8639451547e+01    0.1698873    0.1258617  -3.14 0.0001585975    1.076    0.071
       199  -9.5352    116.1397    246.7476   1.0377847948e+02   7.4932820019e+00    0.1567327    0.1374947   7.83  0.001039706    1.299    0.230
       200  -9.1883     58.2835    247.6714   1.1531147626e+02   1.5061452098e+01    0.1209682   0.07118537  64.36  0.000299129    1.607    0.378
       201 -12.3848     10.0790    245.8946   1.2398070926e+02   2.0626810267e+01    0.4597028     0.276114  63.99  0.003197847    1.299    0.230
       202  -9.5873    202.4559    240.4686   8.5583878132e+01  -4.1206943383e+00    0.1254159   0.09925862   8.21 9.586514e-05    1.023    0.023
       203  -9.2720    131.6872     20.7181   4.6954166308e+01   4.8972259881e+01    0.1371052   0.09055874  35.79 0.0003796509    1.572    0.364
       204 -10.7316    140.8751     18.1314   4.4456366459e+01   4.7075204902e+01    0.2564263    0.2088822  78.74 0.0008625445    1.228    0.186
       205 -10.0214     58.9805     19.1515   6.6343694487e+01   6.4241273008e+01    0.2139113    0.1620118  38.82  0.001094083    1.358    0.263
       206 -10.7151     14.5051     22.2161   8.8113820608e+01   6.9562300233e+01    0.4022713     0.251222   8.54  0.001988246    1.534    0.348
       207 -10.2181    125.1700     17.1812   4.7038933139e+01   5.0846533651e+01    0.1966757     0.157238  38.43 0.0003501182    1.183    0.155
       208  -9.1825     60.9079    241.0000   1.1425810964e+02   1.6010503681e+01    0.1810063   0.05919682  34.46 0.0004395608    2.780    0.640
       209  -9.7574     35.9679    240.4808   1.1900080071e+02   1.9010882750e+01    0.1639775   0.09700161  39.84 0.0005294334    1.545    0.353
       210 -11.5346     14.3056    239.1485   1.2289098418e+02   2.1504616928e+01    0.2517302    0.1194309  72.28   0.00133219    1.933    0.483
       211  -9.9074    117.4891    239.5175   1.0263017394e+02   8.5933137952e+00    0.1259803    0.1092203  40.10 8.050915e-06    1.008    0.008
       212 -10.1473     82.8003     15.8052   5.6832152930e+01   6.0218880011e+01    0.2246152    0.1717519  16.77 0.0003690955    1.212    0.175
       213  -9.5289    148.7614    237.9576   9.5940989405e+01   4.1927655946e+00    0.1560161    0.1080389 -45.85 0.0008894348    1.644    0.392
       214  -9.2880     44.2810     16.3439   7.1040239988e+01   6.6907911027e+01    0.1276415   0.07946865   1.26 0.0006544286    1.634    0.388
       215  -9.4925    190.3113     20.7039   3.8206363882e+01   3.5155079028e+01    0.1326246   0.08677079 -68.09  0.000208892    1.596    0.373
       216 -10.3926    156.0170     15.3707   4.1218659056e+01   4.3760936530e+01    0.3182486    0.1111346  65.75  0.001267538    2.539    0.606
       217 -10.0555     91.0898    237.2896   1.0782984125e+02   1.2778160743e+01    0.1826773    0.1634436 -54.34 0.0004255007    1.309    0.236
       218 -10.7651    221.9960     13.7429   3.3435391655e+01   2.8879470892e+01    0.1692797    0.1376959 -82.39 0.0004295358    1.068    0.064
       219 -10.9017    208.0860     12.9982   3.4506152440e+01   3.1971695734e+01    0.1846614    0.1593991 -76.19 0.0004475735    1.025    0.025
       220 -11.5817     25.4542    236.1848   1.2068420073e+02   2.0966979064e+01    0.2231198    0.1598126  52.97 0.0007193857    1.198    0.165
       221  -9.7380    249.3245    233.9041   7.5927851814e+01  -9.3875894476e+00    0.1631298    0.1176675  -8.64 0.0004511553    1.080    0.074
       222 -11.1793      1.5561    225.1568   1.2446887559e+02   2.5439541051e+01    0.3179028    0.1522967  79.56   0.00116011    1.836    0.455
       223 -11.1038      2.4336    220.6331   1.2407592775e+02   2.6278745307e+01    0.3279378    0.1279656 -89.55  0.001666848    2.379    0.580
       224 -11.9960      3.9722    232.5932   1.2440183871e+02   2.3748767932e+01    0.2588293    0.1855465  71.59  0.001915628    1.055    0.052
       225 -11.6707      9.2377    231.7865   1.2341216605e+02   2.3425300471e+01    0.2140792    0.1768368 -39.31  0.001484249    1.853    0.460
       226 -12.4573      9.4612    227.5664   1.2314418531e+02   2.4245132101e+01    0.3732779    0.3191055  66.13  0.002853688    1.189    0.159
       227  -9.0827    243.4810    230.4706   7.6353562089e+01  -8.2097540261e+00    0.1214576     0.091718  -2.27 0.0002569837    1.001    0.001
       228  -8.9596     38.5127    230.4446   1.1780310845e+02   2.0717127684e+01    0.1191254   0.09251095  67.50 0.0008073743    1.052    0.050
       229  -9.8184    209.4948    229.5213   8.2425458654e+01  -3.5020375924e+00    0.1278126    0.1025592   4.76 -3.933264e-05    1.009    0.009
       230 -10.7408    140.4133    228.2859   9.6297413228e+01   7.1835322572e+00    0.2821427    0.2112893 -69.02   0.00158744    1.755    0.430
       231  -9.2301     47.6990    229.7336   1.1593412107e+02   1.9820990175e+01    0.1008276   0.09213013 -31.77 0.0006929074    1.522    0.343
       232 -10.0926    223.1417    226.5860   7.9349481436e+01  -4.9825287272e+00    0.2060275    0.1420196  -7.73 0.0005623305    1.321    0.243
       233  -9.1017    167.3199    221.6942   8.9582946801e+01   4.1426059792e+00    0.1257801    0.1029253  61.43  0.000463214    1.635    0.388
       234 -10.3753      8.3893    218.1237   1.2281612905e+02   2.6267718311e+01    0.2509328    0.2033413  21.56  0.001812259    1.663    0.399
       235  -9.2657     37.3363    216.7380   1.1698047253e+02   2.3684641827e+01    0.1255737   0.07307285  61.37 0.0002793326    1.582    0.368
       236 -10.0285    205.6795    212.5951   8.0201208769e+01  -3.0142233511e-01     0.225206     0.142109 -24.85 0.0007172421    1.563    0.360
       237  -9.8631     15.8471    213.4640   1.2108036796e+02   2.6557231735e+01    0.1609599    0.1026926  39.53  0.001019104    1.561    0.359
       238  -9.0362    249.3425    211.3258   7.1935264979e+01  -6.3114415613e+00    0.1312353   0.07852127  -3.70 0.0007051018    1.737    0.424
       239  -9.6550    209.5166    211.4910   7.9253277829e+01  -7.0467604156e-01    0.1323162     0.110453   0.21 7.182569e-05    1.010    0.010
       240  -9.8568     20.1938    209.8835   1.1996605323e+02   2.6907571340e+01    0.1888542    0.1244223  66.47 0.0006072583    1.315    0.240
       241 -10.9572      3.4403    206.0931   1.2307811761e+02   2.9229278108e+01    0.2140255    0.1431773 -67.79  0.001416325    1.469    0.319
