#   1 NUMBER                 Running object number                                     
#   2 MAG_AUTO               Kron-like elliptical aperture magnitude                    [mag]
#   3 X_IMAGE                Object position along x                                    [pixel]
#   4 Y_IMAGE                Object position along y                                    [pixel]
#   5 X_WORLD                Barycenter position along world x axis                     [deg]
#   6 Y_WORLD                Barycenter position along world y axis                     [deg]
#   7 A_WORLD                Profile RMS along major axis (world units)                 [deg]
#   8 B_WORLD                Profile RMS along minor axis (world units)                 [deg]
#   9 THETA_WORLD            Position angle (CCW/world-x)                               [deg]
#  10 FWHM_WORLD             FWHM assuming a gaussian core                              [deg]
#  11 ELONGATION             A_IMAGE/B_IMAGE                                           
#  12 ELLIPTICITY            1 - B_IMAGE/A_IMAGE                                       
         1 -14.9468    206.9398    117.4606   1.3289283824e+01   1.7431951888e+01     4.831008     2.242389 -36.46   0.02206042    1.917    0.478
         2 -15.0260    181.1717    170.1390   2.8707513301e+01   1.3444080677e+01     3.758223     2.890057 -59.39   0.02151325    1.847    0.459
         3 -14.7653    243.7846     88.7247   1.9564692680e+00   1.4993513932e+01     4.757751     2.084162 -53.77      0.01988    3.308    0.698
         4 -10.9309    214.7038     24.5096   3.4953128862e+02   2.8733623159e+01    0.4923322    0.3557181  28.01  0.001265415    2.023    0.506
         5 -11.7414    215.2073     32.9034   3.5161848341e+02   2.7665476302e+01    0.9872886    0.5517851 -73.98  0.004920355    2.042    0.510
         6 -11.1731    179.3375     23.7170   3.5245980582e+02   3.7000879459e+01    0.6504941    0.4497203 -69.24  0.002982665    1.412    0.292
         7 -10.5028    247.3312     24.6333   3.4736499204e+02   2.2112142122e+01    0.5343915    0.2928062  27.93  0.002298993    4.391    0.772
         8 -10.2559    249.9123     15.6719   3.4524053695e+02   2.2564306525e+01     0.310154    0.1290469 -29.98  0.001609067    1.942    0.485
         9 -10.8047    210.1586     18.8572   3.4842454965e+02   3.0347552770e+01     0.294847    0.2710787 -30.58 0.0006448815    1.218    0.179
        10 -10.5775    247.4519      2.8783   3.4254749217e+02   2.4290847011e+01    0.6098343     0.276262  87.10  0.003333391    2.405    0.584
        11 -11.9213    228.0531     10.7354   3.4526817183e+02   2.7365635196e+01     1.079128    0.3265728  52.57  0.003456315    5.240    0.809
        12 -12.0811    226.8490      6.4000   3.4429865745e+02   2.8044671869e+01     1.135647     0.309106  57.59  0.004287983    4.645    0.785
        13  -9.5098    120.2648      9.1026   3.5494231478e+02   5.3849429311e+01    0.3183385    0.2671081 -27.97  0.001183869    1.268    0.211
        14  -9.5372    210.8589      6.1804   3.4512182566e+02   3.1491303797e+01     0.154046    0.1505892  50.56   0.00106456    1.307    0.235
        15  -9.4078     16.8988      5.8388   3.4691639677e+01   7.7146959568e+01     0.191343    0.1519135 -13.79 0.0004322331    1.183    0.155
        16 -10.7814    183.2128      4.2814   3.4640591822e+02   3.8082246640e+01    0.3903779    0.2064499 -85.58  0.001874732    1.897    0.473
        17  -9.5896    217.3346      1.9927   3.4371561909e+02   3.0480045253e+01     0.179283    0.1381988 -43.28  0.001156298    1.118    0.105
        18  -8.9046    171.2461      2.3942   3.4674638228e+02   4.1200570184e+01    0.1927855    0.1125406 -82.36 0.0009437468    1.666    0.400
        19  -9.2096    175.6667    213.1805   3.6829456328e+01   7.7500193681e+00    0.1552926    0.1520934 -34.96 0.0006850384    1.453    0.312
        20 -10.7286    248.8898    247.3253   2.9572665104e+01  -4.5864114132e+00    0.4384378    0.2362317 -22.93   0.00331954    1.667    0.400
        21 -10.4938    242.8589    244.8628   3.0119914926e+01  -3.7709839731e+00    0.2667102    0.1521927 -18.80  0.001380419    1.532    0.347
        22  -9.8863    238.7929    242.6104   3.0416730912e+01  -3.1492807169e+00    0.1959893   0.09846634  35.47  0.001165291    2.128    0.530
        23  -8.8188    250.6317    210.8259   2.4029785791e+01  -1.1565974994e+00    0.1725115   0.07985616 -26.88  0.000648556    1.877    0.467
        24 -11.3122    241.7706    206.4460   2.4644812420e+01   3.0101609439e-01    0.3876164    0.2309788  39.23  0.002003186    2.058    0.514
        25  -8.6549    234.0817    208.4765   2.6127649802e+01   9.5732176770e-01    0.1965445    0.1205659  12.19  0.000825033    1.435    0.303
        26 -10.6736     11.0624    206.7824   7.2363180067e+01   2.9533594090e+01    0.3134772    0.2059386  42.01  0.002060076    1.224    0.183
        27  -9.3682    213.8707    205.8503   2.8943315002e+01   3.7183002709e+00    0.2495326    0.1806678  44.49   0.00126945    1.904    0.475
        28 -12.6267    226.3847     95.8323   5.6117309054e+00   1.7092180251e+01     1.527397    0.9146109 -20.82  0.004342989    1.725    0.420
        29 -13.0072    191.2146    192.2113   3.0676962793e+01   8.5772200816e+00     1.663408     1.198669  69.82  0.008276842    3.387    0.705
        30 -12.1520    218.6778     91.1007   5.5289534914e+00   1.9200292875e+01     1.325822    0.6844269 -13.86  0.004541368    3.141    0.682
        31 -12.8087    191.8028    118.4858   1.6039097192e+01   2.0099083389e+01     1.264274    0.9904158  58.07  0.007065555    1.499    0.333
        32  -9.6245    250.4388    198.6280   2.2128718468e+01   1.8372132370e-01    0.1738685    0.1082178 -23.87 0.0002465564    1.365    0.267
        33 -10.4373    242.9057    197.7680   2.3086879385e+01   1.1473860285e+00    0.4495934    0.2363307  34.71  0.002852831    1.948    0.487
        34  -8.1438    190.4462    244.4217   3.8444579171e+01   1.9146705467e+00     0.107902   0.07860228  14.35 6.067748e-05    1.010    0.010
        35 -14.8597    205.8622    178.5405   2.5732829633e+01   8.4246785592e+00     2.962481     2.319055  49.72   0.01884782    1.740    0.425
        36  -9.0056    229.5088    197.7589   2.5122901659e+01   2.7581608484e+00    0.2056509    0.1370969   8.54 0.0008555255    1.315    0.240
        37 -11.6747     18.0106    194.9295   7.0275530499e+01   3.1369733460e+01    0.5749364    0.3494771  32.24  0.002541561    1.485    0.327
        38  -9.7169    182.7317    200.6850   3.3610505617e+01   8.5564237192e+00    0.2021339    0.1870479  -9.09 0.0002822025    1.263    0.208
        39  -8.8726     82.0132    189.4554   5.4059477304e+01   2.5210149211e+01    0.2322348    0.1777836 -41.04  0.001026694    1.623    0.384
        40  -8.9871    245.1370    193.7812   2.2106169849e+01   1.3413640332e+00    0.1544212    0.1274202  -6.28 0.0006039634    1.235    0.190
        41 -10.1924    173.1698    189.3921   3.3615018698e+01   1.1630024401e+01    0.2409691    0.2024548  27.21 0.0009902213    1.138    0.121
        42 -10.6714    129.0258    168.9379   3.9659032525e+01   2.2252654070e+01    0.4488868    0.1867471 -51.04  0.001829709    2.609    0.617
        43 -10.3019    117.1480    169.0752   4.2537938828e+01   2.4175699726e+01     0.308442    0.2028043 -53.83 0.0009506993    1.660    0.398
        44 -15.7709    243.6354    139.3921   1.2506772882e+01   8.2783591159e+00     2.404864     1.811756  16.97   0.01087153    1.394    0.283
        45 -14.2726    239.6408    122.0173   9.5464849556e+00   1.1205524044e+01     1.364052    0.8409852 -30.59   0.00302384    1.339    0.253
        46 -12.4020    133.9527    146.8329   3.4399167299e+01   2.5849000152e+01      1.78951    0.4541722 -53.78   0.00460722    5.850    0.829
        47 -11.8093    144.7964    145.8005   3.1634148926e+01   2.4069524307e+01    0.6981351    0.4711449 -77.37  0.001493152    2.597    0.615
        48 -11.2577    142.3456    135.8576   3.0111457182e+01   2.6511389519e+01    0.4871943     0.438177  14.03  0.001829656    1.148    0.129
        49 -11.2725    133.1963    120.0180   2.8728155765e+01   3.1583689181e+01    0.6299952    0.3503903  44.75  0.002671045    1.789    0.441
        50 -10.9702    136.7506    136.2715   3.1533556539e+01   2.7496807403e+01    0.6962584    0.2592809 -51.12  0.002420382    2.971    0.663
        51 -12.2290    137.3814    128.4308   2.9651610179e+01   2.8992134884e+01    0.9151195    0.7271682  -9.23   0.00456671    1.557    0.358
        52 -10.8474    134.8339    109.0677   2.5620299573e+01   3.3533965365e+01     1.205505    0.2396146 -45.08   0.00301866    5.012    0.800
        53  -8.4000    250.0273    202.7557   2.2849855687e+01  -2.2327428732e-01    0.1517622    0.1086907   3.80  0.001155902    1.093    0.085
        54  -9.6319      4.8325    202.3710   7.3636411791e+01   3.0960469922e+01    0.1837497    0.1630925  83.82 0.0003493004    1.270    0.213
        55  -8.9667    226.0022    200.9882   2.6198899232e+01   2.8013842935e+00    0.2069892    0.1682829 -60.97 0.0008523755    2.606    0.616
        56 -10.6804     67.8247    143.9476   5.1996378634e+01   3.7544063100e+01    0.7186003    0.3793408  59.25  0.002966538    2.216    0.549
        57  -8.9093     90.9119    141.5321   4.4779924685e+01   3.4585747959e+01    0.3450082    0.2036062 -63.44 0.0009622472    1.806    0.446
        58 -10.8532    150.9552    140.1558   2.9057511478e+01   2.4026174526e+01    0.3355391    0.2128588 -46.69 0.0008751207    1.623    0.384
        59 -10.1001    125.0511    126.7972   3.2371521588e+01   3.1758400333e+01    0.3656863    0.2263133 -51.28  0.001575424    1.664    0.399
        60 -12.8698    172.9065    112.1808   1.8030294424e+01   2.4927808302e+01     2.652564     1.080752 -47.98   0.00183809    2.726    0.633
        61  -8.7694     75.0290    126.0186   4.6739805334e+01   4.0913599992e+01    0.2232734    0.2043089  69.21            0    1.042    0.040
        62 -11.7281    157.1780    115.1886   2.1985130703e+01   2.7616718104e+01    0.8101164    0.5859702   5.18  0.003717672    1.952    0.488
        63 -11.1273    156.4289    110.2659   2.0931444833e+01   2.8712565786e+01    0.6244777     0.347412 -34.44 0.0002319007    1.877    0.467
        64 -10.5469    148.7023    114.0402   2.3580145407e+01   2.9603758877e+01    0.4125015     0.332019  30.12  0.001472009    1.338    0.253
        65 -11.3813     39.2029    103.0507   5.5205909039e+01   5.1731524125e+01    0.5333268    0.3466429  34.06 0.0009816854    1.569    0.362
        66 -11.4857     55.7631    108.4423   4.9949974396e+01   4.8243498632e+01    0.5228772    0.5064017 -63.04  0.001142979    1.095    0.087
        67 -13.0513     48.9530    103.7978   5.1590044944e+01   5.0359223040e+01     2.429852    0.9175215  31.32  0.005538558    2.629    0.620
        68 -10.5447    141.0938    107.1770   2.3617660893e+01   3.2586365255e+01    0.4246044    0.3370702  86.67   0.00099001    1.612    0.380
        69  -9.1531    129.2474    242.4212   4.9519556803e+01   9.6361275284e+00    0.2640692    0.1798826 -84.22  0.001580666    2.734    0.634
        70 -11.0887    124.5120    107.0260   2.7733840069e+01   3.6148302586e+01     0.620169    0.3210092 -51.39  0.002445984    2.013    0.503
        71 -11.2186    122.9972    102.7513   2.7015279754e+01   3.7389317415e+01    0.7782387    0.3537523  49.55  0.002870965    2.274    0.560
        72 -12.4955      8.6824    100.6298   6.6960209447e+01   5.5033650537e+01    0.9382535    0.7605926 -79.21  0.003968972    1.092    0.084
        73  -9.5286    181.2840    203.3069   3.4290501149e+01   8.3820527335e+00    0.2287094    0.1675097  31.28 0.0002461473    1.259    0.206
        74  -8.5570    159.5707    100.7217   1.7827290592e+01   2.9836224496e+01    0.2074812    0.1347807 -48.64 0.0006902401    1.556    0.357
        75  -9.6784    127.9743     98.9914   2.4696504342e+01   3.7113709164e+01    0.4131637    0.1886926 -44.63  0.001537104    2.174    0.540
        76  -9.6003    166.4447     96.1758   1.5249993953e+01   2.9163588340e+01    0.5263404    0.3285715 -62.82  0.001861067    2.188    0.543
        77  -9.0621    133.4482     96.4396   2.2611581753e+01   3.6437155014e+01    0.4703716    0.2826097 -21.45  0.001321688    2.624    0.619
        78  -7.7758    104.2451     97.6842   3.0972825339e+01   4.2447957386e+01    0.1507094    0.1194944 -85.34 0.0002022168    1.516    0.340
        79  -9.2757    111.4826     95.9604   2.8362571915e+01   4.1323575521e+01    0.4160913    0.2251597  46.27  0.001671416    1.852    0.460
        80  -8.1645    154.4591     94.4826   1.7243275140e+01   3.2127516270e+01     0.148188    0.1423495 -52.15 7.423055e-05    1.017    0.016
        81  -9.3100    125.9458     93.9024   2.3813167468e+01   3.8624231709e+01    0.2579362    0.2157304 -43.35 0.0003621671    1.192    0.161
        82  -8.8554    200.6344     92.3642   8.3839990006e+00   2.2555573580e+01    0.2488641    0.1826745 -15.43 0.0003689165    1.502    0.334
        83  -8.8612    171.2694     92.2901   1.3303670693e+01   2.8790591541e+01    0.2388679    0.1923052 -44.22 0.0005277024    1.182    0.154
        84 -13.1200    245.1384    179.1255   1.9630085112e+01   3.0607188137e+00     1.001308    0.6787861  -6.23  0.004391685    1.258    0.205
        85  -8.4909    107.0821     88.4843   2.7517944587e+01   4.3912430090e+01    0.2291508    0.1960963 -48.74  0.001146046    1.163    0.140
        86  -8.3373    167.8369     88.2716   1.2875171331e+01   3.0252762726e+01    0.1932665     0.162976 -13.85 0.0007199682    1.318    0.242
        87  -8.2801    145.5261     87.0630   1.7126497018e+01   3.5551969474e+01    0.2296526    0.1452951 -41.69  0.001011139    1.536    0.349
        88  -9.8201    177.0334     72.0047   6.7855470862e+00   3.0878849704e+01     0.772473    0.4247524  29.75  0.002847295    3.241    0.691
        89  -9.3561    177.0009     67.0687   5.4104152866e+00   3.1662879202e+01     0.267252    0.1950558 -30.42 0.0003102036    1.348    0.258
        90  -9.1946    173.1398     84.3958   1.0851639792e+01   2.9729436910e+01    0.3114428    0.1924995 -29.91  0.000505959    1.646    0.393
        91  -8.9071    170.5001     80.9935   1.0396606010e+01   3.0900335126e+01    0.2586203    0.2196207  12.03 0.0007266407    1.417    0.294
        92  -9.9111    174.4431     79.6261   9.3242651209e+00   3.0233132586e+01    0.2645491    0.2485862 -33.90 0.0004961003    1.055    0.052
        93 -10.5790    183.3599     78.4285   7.5106117389e+00   2.8425556693e+01    0.5067909    0.4291246 -44.99  0.001996059    1.091    0.084
        94  -8.3299    150.5352     81.9801   1.4576084227e+01   3.5337624238e+01    0.2159235    0.1356174 -12.15 0.0008094179    2.636    0.621
        95 -13.8101    227.9515    167.3291   2.0097368100e+01   6.8190966255e+00     1.918946    0.9270352  41.02  0.008555407    2.247    0.555
        96 -10.3493    245.9925    234.1461   2.8167244198e+01  -3.0498509062e+00    0.2137309    0.1403245 -11.30  0.001695348    1.221    0.181
        97 -10.0355    199.0737     74.7221   4.1826792603e+00   2.5568623165e+01    0.4352809    0.3194799 -73.15  0.001293279    1.632    0.387
        98  -8.7101    132.2448     76.1290   1.6958401563e+01   4.0737702889e+01     0.223573    0.2055322  -2.19 0.0006041342    1.237    0.192
        99  -8.1926    169.6308     70.2206   7.5240565490e+00   3.2883396668e+01     0.200673    0.1356183 -23.23 0.0004721335    1.646    0.393
       100  -7.7404    122.2922     69.7112   1.7398103337e+01   4.4330512775e+01    0.1535724    0.1192819 -78.19 0.0002172349    1.545    0.353
       101 -10.1520    201.8022     65.5810   1.4584746447e+00   2.6315881019e+01    0.6106103    0.3470937 -14.19  0.002624451    2.457    0.593
       102  -9.3687    152.6429     66.9706   9.6792099726e+00   3.7477814165e+01    0.2318836    0.2025719  45.88 0.0003007168    1.225    0.184
       103  -7.9123    173.3003     65.3000   5.5021674345e+00   3.2803655654e+01    0.1399468     0.113127  17.82 0.0002251721    1.582    0.368
       104 -13.7257    249.7755    115.0257   6.8294262879e+00   1.0558053070e+01     1.247542    0.3692362 -33.99 0.0008165936    2.652    0.623
       105  -9.2168    175.0487     60.5011   3.8464904048e+00   3.3128798034e+01     0.347403     0.141387  61.73   0.00109069    2.578    0.612
       106  -9.3604    144.4222     59.5158   8.9745319910e+00   4.0743906938e+01    0.2933415    0.2435159 -64.03 0.0005937727    1.229    0.186
       107  -9.2601    247.3350     56.9964   3.5459437884e+02   1.8400117513e+01    0.2509763    0.1845703  24.52  0.001524616    1.948    0.487
       108 -10.1560    188.4709     57.2488   9.8861286222e-01   3.0476876962e+01    0.2669167     0.229827 -13.55 0.0005737198    1.303    0.233
       109  -8.2396    112.5487     58.2089   1.6040267443e+01   4.8830937478e+01     0.213776    0.1496332 -23.36 0.0009394755    1.717    0.418
       110  -9.5179    231.1910     52.6118   3.5502172600e+02   2.1980796191e+01    0.3091217    0.1883219  -4.25  0.001475865    2.565    0.610
       111  -9.6638    237.1140     49.8989   3.5385880256e+02   2.1166813445e+01     0.316828    0.2127412 -32.19  0.001868981    1.264    0.209
       112  -9.7101     59.5131    230.6537   6.2894797466e+01   2.0037664522e+01    0.1902956     0.183321   2.77 0.0006798264    1.356    0.263
       113  -9.4509    227.7837     40.0430   3.5232269087e+02   2.4194531340e+01    0.2323629     0.206419  37.51  0.001202675    1.441    0.306
       114  -9.6696    228.0259     48.5102   3.5433545593e+02   2.3117480143e+01    0.3878355    0.2985134 -36.12  0.001664105    1.116    0.104
       115  -9.9842    239.5080    228.6873   2.8346828287e+01  -1.8308740140e+00    0.2740678    0.1412933  34.75  0.001821855    1.999    0.500
       116 -10.3372    223.3256     43.9605   3.5365943608e+02   2.4630844511e+01    0.3981928    0.3407169  74.50  0.001882075    1.326    0.246
       117  -9.7106    222.5181     40.4864   3.5287979517e+02   2.5219738590e+01    0.3017327    0.2050494 -53.77 0.0009850942    1.306    0.234
       118  -8.6286    162.1584     45.3656   1.2979631829e+00   3.8492500536e+01    0.2319944    0.1986483 -17.33 0.0009016937    1.307    0.235
       119  -9.1387    208.4787     28.7825   3.5113239790e+02   2.9613666436e+01    0.2360492    0.1811182 -67.82 0.0003430589    1.218    0.179
       120  -9.5905    232.8681     42.8487   3.5256893572e+02   2.2843272601e+01    0.2796035    0.1839768  -6.53  0.001276207    2.070    0.517
       121  -8.2042    206.6693     42.6843   3.5492991088e+02   2.8334594127e+01    0.1273655     0.101539  23.30 0.0006225774    1.682    0.405
       122  -8.2053    249.4805     34.4281   3.4940824699e+02   2.0640818304e+01    0.1181515   0.09480733 -42.95 0.0002335935    1.048    0.045
       123  -8.2022     98.1666     32.1716   9.7112114646e+00   5.6732887265e+01    0.1955467    0.1658456 -66.05 0.0002658101    1.279    0.218
       124  -7.6388    125.2711     31.3183   2.9167049017e+00   4.9925988789e+01    0.1447529    0.1126314  27.00 0.0002298844    1.562    0.360
       125  -8.3675     82.0887     30.6662   1.4001527950e+01   6.0835505595e+01     0.195008     0.181889  48.18  0.000344145    1.045    0.043
       126  -9.3094    231.9409    224.5746   2.8899556143e+01  -5.8119894866e-01    0.2215704    0.1527909  43.11  0.001107179    2.245    0.555
       127  -8.8479    152.9484    225.2704   4.2854465084e+01   9.0628888732e+00     0.164718    0.1224974  26.17 0.0003528099    1.080    0.074
       128 -10.3799    248.6486    221.7064   2.5969098577e+01  -2.0770165812e+00     0.217342    0.1891338   3.47  0.000894831    1.568    0.362
       129 -10.6296    193.1776     21.7098   3.5055683395e+02   3.3908572807e+01    0.4176496    0.2460134  34.08  0.001896131    2.641    0.621
       130  -9.5423    241.6896     21.9590   3.4709786916e+02   2.3474423437e+01    0.1729187    0.1513331 -33.18 0.0008726658    1.214    0.176
       131 -10.4881    236.9903     20.3942   3.4702017172e+02   2.4560115032e+01     0.262646    0.2501365  11.26   0.00132701    1.383    0.277
       132  -9.7209    239.5792    221.4986   2.7280203660e+01  -1.0886644783e+00    0.2202239    0.1741184  25.43  0.001011996    1.534    0.348
       133 -10.8893    202.6537     18.3582   3.4885815640e+02   3.2084798386e+01    0.3589685    0.2493844  74.07  0.002057321    1.503    0.335
       134  -9.0285    234.2474    217.1445   2.7436560496e+01  -3.0285991511e-02    0.2634858    0.1642943  45.68  0.001260935    2.644    0.622
       135  -8.8047    204.4044    221.2024   3.2867702448e+01   3.0056296602e+00     0.189232    0.1417958  29.45 0.0005789881    1.358    0.264
       136  -9.9992    200.5393    220.3248   3.3400341592e+01   3.5882518216e+00    0.2171965    0.1636343  20.51 0.0005025381    1.150    0.131
       137  -8.4166    150.5366     14.0548   3.5259164394e+02   4.5359943251e+01    0.2046402    0.1355831 -27.51 0.0005359226    1.550    0.355
       138 -10.1124    203.8817     12.9368   3.4732687711e+02   3.2376499556e+01    0.2064605     0.171958 -85.27 0.0003136163    1.183    0.155
       139 -10.3165    196.4835     13.5208   3.4802355922e+02   3.4015112172e+01    0.2648166    0.1223686  77.33     0.001219    2.196    0.545
       140  -9.4222    178.4185    221.1987   3.7466985871e+01   6.2846686659e+00    0.1352381    0.1102745 -46.84 0.0009409936    1.687    0.407
       141  -7.7711     97.5468     15.5348   2.2949638921e+00   5.9104645776e+01    0.1416799    0.1336839  87.77 3.454255e-07    1.058    0.055
       142  -8.9486    211.4502    209.2328   2.9875601506e+01   3.6025716851e+00    0.1795086    0.1327596 -50.29 0.0009868336    2.216    0.549
       143  -9.0650    225.3465    218.7227   2.9062306140e+01   8.0792192558e-01    0.1854564    0.1530195  34.69 0.0009603593    1.695    0.410
       144  -9.9254    220.9299    216.1515   2.9380301917e+01   1.6183775815e+00    0.2286911    0.2073319  17.88  0.000802588    1.547    0.354
       145 -10.1107    215.9175    212.6890   2.9668262464e+01   2.6290157251e+00    0.2760721    0.2152529  50.55 0.0009676432    2.181    0.542
