#   1 NUMBER                 Running object number                                     
#   2 MAG_AUTO               Kron-like elliptical aperture magnitude                    [mag]
#   3 X_IMAGE                Object position along x                                    [pixel]
#   4 Y_IMAGE                Object position along y                                    [pixel]
#   5 X_WORLD                Barycenter position along world x axis                     [deg]
#   6 Y_WORLD                Barycenter position along world y axis                     [deg]
#   7 A_WORLD                Profile RMS along major axis (world units)                 [deg]
#   8 B_WORLD                Profile RMS along minor axis (world units)                 [deg]
#   9 THETA_WORLD            Position angle (CCW/world-x)                               [deg]
#  10 FWHM_WORLD             FWHM assuming a gaussian core                              [deg]
#  11 ELONGATION             A_IMAGE/B_IMAGE                                           
#  12 ELLIPTICITY            1 - B_IMAGE/A_IMAGE                                       
         1 -15.0940    136.0132    104.6321   7.8328534393e+01   3.4677494177e+01     3.861618     1.851604 -40.87   0.01429227    2.058    0.514
         2 -15.6802    191.6706     77.7509   5.8251296815e+01   2.6727711290e+01     5.693046     1.875113  38.98   0.01234973    7.600    0.868
         3 -16.2970    136.5738     26.9883   5.3143995942e+01   4.7851346937e+01     8.638449     5.021776 -38.38   0.04043828    1.852    0.460
         4 -13.5964    159.5773    116.4277   7.5637550594e+01   2.6920985295e+01    0.9659991    0.6440391 -75.62    0.0035857    2.638    0.621
         5 -14.6950    244.4922     93.9618   5.3970564897e+01   1.2188685212e+01      9.80038     3.276347 -34.54   0.03597842    2.653    0.623
         6 -11.1865    202.9197     12.6220   3.8999068979e+01   3.2914495586e+01    0.2418291    0.1446458  19.05   0.00105605    2.986    0.665
         7 -11.1768    172.3271    149.8388   8.0884694062e+01   1.7180210244e+01     0.242174    0.1983405 -61.25 0.0007527683    1.441    0.306
         8 -11.2601     95.2156    220.9725   1.1054461169e+02   1.6228196817e+01      0.23711    0.1552196  51.19 0.0005918259    1.329    0.247
         9 -13.8391    161.6407     79.8372   6.4862519054e+01   3.3669073545e+01    0.5759056    0.4663966 -28.68  0.001492892    1.251    0.201
        10 -12.3267    182.0382    207.2597   9.0324945086e+01   4.4730475842e+00    0.5747618    0.2738951  18.98  0.001907886    4.127    0.758
        11 -13.1849    215.7741    148.1414   7.1468669713e+01   8.6761435652e+00     0.715073    0.4968979  61.41  0.003361483    2.003    0.501
        12 -11.8052    181.1467    148.6124   7.8648406907e+01   1.5601072005e+01    0.2603284    0.2117365 -57.02 0.0005706931    1.422    0.297
        13 -11.2554    143.6193    147.2945   8.7079296001e+01   2.3619094420e+01     0.437385    0.3148549 -68.01  0.001945407    1.755    0.430
        14 -12.2560    196.6237    143.0696   7.4081901597e+01   1.3474201139e+01    0.4593747     0.333138  74.61 0.0008333412    2.201    0.546
        15 -12.2877    215.4818    141.8528   7.0083714713e+01   9.8617641056e+00    0.4919226    0.3782134 -79.99   0.00176699    2.135    0.532
        16 -13.3675    174.5414    139.1027   7.7878488563e+01   1.8915807003e+01    0.6554684     0.482151 -72.71  0.002843597    2.003    0.501
        17 -13.3861    176.9690    132.9846   7.5856524105e+01   1.9642433131e+01    0.6385622    0.4624548  43.22  0.002976175    1.406    0.289
        18 -13.8432    187.9523    136.4339   7.4314817697e+01   1.6585814716e+01    0.9617442    0.6495394 -28.35            0    1.529    0.346
        19 -11.3908    199.4343    134.9548   7.1587981871e+01   1.4433501797e+01    0.4255498    0.2507328  71.46   0.00141285    3.778    0.735
        20 -14.7641    161.4114    128.0781   7.8197678440e+01   2.4056256497e+01     1.731236     1.200331  43.78  0.006792265    1.463    0.317
        21 -13.9500    192.9029    195.3377   8.5926844673e+01   4.6051644147e+00     1.115862    0.6273337 -63.33  0.003812437    4.717    0.788
        22 -11.0908    193.0044    126.4967   7.0833232832e+01   1.7434999839e+01    0.2752363    0.2083228 -52.52 0.0006327032    1.446    0.309
        23 -15.3797     27.5319    165.5754   1.1952260683e+02   3.6766100874e+01     2.642189     1.245662  37.74  0.009245594    2.164    0.538
        24 -13.3304    184.8635    121.3129   7.1229774729e+01   2.0243208911e+01    0.7089118    0.5447387 -20.55  0.001249191    1.391    0.281
        25 -10.5068    202.0359    248.2921   9.3098878723e+01  -4.8314029656e+00    0.1690034    0.1236558  26.13 0.0002594309    1.085    0.079
        26 -12.0816    191.8179    153.1470   7.7398443567e+01   1.2526370944e+01    0.4551392    0.2182945 -45.47  0.001610401    2.176    0.540
        27 -10.0744    196.0780    111.7100   6.6482745627e+01   1.9577077779e+01    0.2116398    0.1985373  28.17 0.0004443662    1.104    0.094
        28 -10.6109    191.9635    111.7922   6.7322152169e+01   2.0491122927e+01    0.3813283    0.2173394 -18.36 0.0009030738    2.566    0.610
        29 -12.1442    189.8235    106.5993   6.6398840778e+01   2.1965153284e+01    0.7195827     0.502626  24.30  0.003154541    1.804    0.446
        30 -12.2783    186.6042     99.0705   6.5043027099e+01   2.4128861908e+01    0.8204713    0.4159605 -34.74  0.003187571    1.946    0.486
        31 -10.6805    187.3751     89.8233   6.2378544004e+01   2.5645790964e+01    0.4653793    0.2504563 -18.48  0.001608602    2.866    0.651
        32  -9.9090    177.9113    110.1328   6.9814507215e+01   2.4023925132e+01      0.21033    0.1808362   2.68 0.0003853828    1.286    0.222
        33 -10.0700    147.8280    193.5693   9.5234103574e+01   1.3027813266e+01    0.1968445     0.121917  50.35 0.0007765949    1.661    0.398
        34 -11.4990    166.3120    101.9527   7.0161783490e+01   2.8334347073e+01    0.4854667    0.3531398 -42.14 0.0008809526    1.349    0.259
        35  -9.6984     72.3066    105.2571   9.7319802662e+01   4.6285275124e+01    0.1406066    0.1061689 -23.52  0.000213783    1.517    0.341
        36 -11.8113    189.1881    148.3019   7.6847650911e+01   1.4000487412e+01    0.3530127    0.2575816 -64.57 0.0009491777    1.913    0.477
        37 -10.3494    205.5768    101.8241   6.2142603544e+01   1.9248610644e+01    0.3015471    0.1814633 -47.88  0.001207608    1.696    0.411
        38 -10.0214    202.6308     99.2512   6.2014978488e+01   2.0380491996e+01    0.2217099    0.1409098  83.22 0.0008001196    2.744    0.636
        39 -12.9278    196.8032     96.6117   6.2404092483e+01   2.2199742556e+01    0.4917768    0.4221352  -9.54  0.002523872    1.263    0.208
        40 -12.1467    113.5591     94.8836   8.1772057113e+01   4.1528307029e+01    0.3701396    0.2838806 -26.94  0.001138231    1.369    0.269
        41 -12.1854    222.7900     92.0742   5.6747504822e+01   1.7093162272e+01    0.4366709    0.2738975 -37.31 0.0009338722    1.448    0.309
        42 -11.0981    203.0846     88.2841   5.9060119431e+01   2.2211014133e+01    0.3689829    0.2038425  54.22  0.001559909    1.897    0.473
        43 -10.3922     86.9637     85.2887   8.7176925491e+01   4.8596204096e+01    0.1992228    0.1843659   6.82 0.0003377344    1.106    0.096
        44  -9.3866    197.4094     84.4149   5.9035180942e+01   2.4214416222e+01    0.1494583    0.1397359 -53.21 0.0001500628    1.052    0.049
        45 -13.1927    167.7486    113.9133   7.3071862777e+01   2.5592559415e+01    0.7608377    0.7256747  42.49  0.002822665    1.080    0.074
        46 -11.2188    168.9466     77.3864   6.2567564979e+01   3.2328688327e+01    0.3452435    0.2717039  -2.05  0.001472141    1.549    0.354
        47 -14.4307     19.4662    178.8026   1.2249240630e+02   3.4493576387e+01     1.530456    0.6709968  63.86  0.007478473    2.362    0.577
        48 -12.3806    200.1279    164.1796   7.8121155655e+01   8.8122839604e+00    0.7354264    0.4109206 -65.79   0.00193436    6.800    0.853
        49 -10.5939    175.9925     53.8995   5.4250799301e+01   3.4409231927e+01    0.4560507    0.2006809 -36.48  0.001248499    2.207    0.547
        50 -13.7419     54.8431    153.5533   1.1136583450e+02   3.6727210658e+01     0.465579    0.3939702 -60.87 0.0009990035    1.167    0.143
        51 -12.2379    191.7379     46.7768   4.9609080288e+01   3.1507818496e+01    0.2703473    0.2225783 -60.39 0.0008575262    1.220    0.180
        52 -10.3463    205.4927     42.7345   4.6558080285e+01   2.8692950937e+01    0.2693604    0.1791039  74.31  0.001342993    1.538    0.350
        53 -10.7038    209.4558     38.9857   4.5064758553e+01   2.8236069209e+01     0.231326    0.1856295  78.35 0.0008116538    1.223    0.182
        54 -11.1080    205.5374     38.4839   4.5430335083e+01   2.9244619955e+01    0.2294709    0.1813507   2.83  0.001216553    1.671    0.402
        55 -10.4001    191.7921     41.0565   4.8004722148e+01   3.2273137350e+01    0.2707081    0.1844765 -23.06 0.0008706439    1.632    0.387
        56 -10.0039    190.7581     36.3207   4.6832433203e+01   3.3147620373e+01    0.3916371    0.2166421 -72.01  0.001572017    2.566    0.610
        57 -10.2916    182.0852     41.5826   4.9619695056e+01   3.4623053758e+01    0.1823967    0.1333932  61.29 0.0001848796    1.318    0.242
        58 -16.1688    209.4259     55.9748   4.9507414064e+01   2.5888484064e+01     4.403326    0.2169413  54.39  0.009616835    7.972    0.875
        59 -10.8436    214.7802     29.9202   4.2118884727e+01   2.8116043471e+01    0.2466633     0.180929 -42.23  0.001378217    1.297    0.229
        60 -11.5303    204.0908     29.1147   4.3147327931e+01   3.0771969219e+01     0.254963     0.217683  -9.38  0.001479808    1.415    0.293
        61 -15.6563     65.8707    146.7872   1.0743263989e+02   3.6997552275e+01     1.806408     1.373201 -11.89  0.003880121    1.878    0.468
        62 -10.2886    217.5772     23.6956   4.0270794835e+01   2.8203454990e+01    0.1364278   0.09278218  39.88 0.0005534193    1.908    0.476
        63 -12.7714    187.8967    153.2470   7.8249797157e+01   1.3302113500e+01    0.5747766    0.3401923 -64.72  0.002022679    3.320    0.699
        64 -10.8736     79.6983     20.8953   6.5748630653e+01   6.1216265461e+01    0.3432635    0.2588116 -77.79  0.001125799    2.754    0.637
        65 -11.6530    133.8347    146.5980   8.9365836212e+01   2.5723726722e+01    0.8618394    0.2539589 -54.43   0.00229296    4.456    0.776
        66 -10.3331     48.2751     14.6390   7.4884307032e+01   6.7360373201e+01    0.1093072   0.09558465 -42.02 0.0003863414    1.660    0.398
        67 -14.6901    159.1061     93.4190   6.9408015370e+01   3.1710237825e+01     2.473169     1.330405  43.51  0.009699397    1.920    0.479
        68 -11.0330    132.2875    138.7979   8.8003915575e+01   2.7806540315e+01    0.4297699    0.2307507 -57.08  0.001288561    2.117    0.528
