#   1 NUMBER                 Running object number                                     
#   2 MAG_AUTO               Kron-like elliptical aperture magnitude                    [mag]
#   3 X_IMAGE                Object position along x                                    [pixel]
#   4 Y_IMAGE                Object position along y                                    [pixel]
#   5 X_WORLD                Barycenter position along world x axis                     [deg]
#   6 Y_WORLD                Barycenter position along world y axis                     [deg]
#   7 A_WORLD                Profile RMS along major axis (world units)                 [deg]
#   8 B_WORLD                Profile RMS along minor axis (world units)                 [deg]
#   9 THETA_WORLD            Position angle (CCW/world-x)                               [deg]
#  10 FWHM_WORLD             FWHM assuming a gaussian core                              [deg]
#  11 ELONGATION             A_IMAGE/B_IMAGE                                           
#  12 ELLIPTICITY            1 - B_IMAGE/A_IMAGE                                       
         1 -13.2552    186.6441     23.1973   7.2113318720e+01   3.5226840830e+01     1.562483      1.29085   7.37  0.006543682    1.380    0.275
         2 -13.1515    192.1622     16.2972   6.9334997058e+01   3.4549680069e+01     1.197485    0.8927367 -77.30  0.004703352    1.442    0.307
         3 -13.2142    199.1113      9.0167   6.6420963928e+01   3.3507941189e+01     1.327951    0.7909528  51.21   0.00133291    1.684    0.406
         4  -8.9679    233.0804    216.4862   1.1110856847e+02  -3.3701673972e+00    0.1767989   0.09920209  38.37 0.0003548735    1.516    0.340
         5 -11.4906    146.1523    240.5678   1.2964059547e+02   7.6944160814e+00    0.3902911    0.2883721  27.77 0.0004987727    1.484    0.326
         6 -12.3032    135.3632    227.2917   1.2992716432e+02   1.1365598087e+01    0.7038226    0.4596394  37.28   0.00433318    1.432    0.302
         7 -11.2678    142.8244    249.5555   1.3123976482e+02   6.9686892867e+00    0.4436407    0.2693309  46.49  0.002898814    1.265    0.209
         8 -11.0575    135.6205    241.0875   1.3150943029e+02   9.2647848645e+00    0.3954558    0.2047436  41.52  0.001372795    1.583    0.368
         9 -12.3989    134.5641    235.8265   1.3108838386e+02   1.0199645923e+01    0.8296543    0.3615406  56.39  0.003980844    2.526    0.604
        10 -10.8749    125.6868    248.7658   1.3401938437e+02   9.6742020072e+00     0.420305    0.2430166  47.82  0.002711992    1.327    0.247
        11  -9.9048    121.5103    244.5042   1.3427976402e+02   1.0915002072e+01    0.2622191    0.1301413  58.13 0.0009821376    1.982    0.496
        12 -11.8256    126.1227    240.5023   1.3307176344e+02   1.0809284892e+01    0.4470842    0.4046861 -81.67  0.002697852    1.308    0.235
        13 -12.0555    117.7796    237.4604   1.3417807140e+02   1.2531045075e+01    0.8067491    0.5964739 -16.34  0.003603383    2.750    0.636
        14 -12.4507     95.8576    239.4169   1.3810740883e+02   1.5424446373e+01    0.7564919    0.4138809  43.68  0.004480819    1.543    0.352
        15 -11.7642     84.3960    237.5117   1.3986199609e+02   1.7315965946e+01    0.5432977    0.2949597  34.84  0.002784285    2.127    0.530
        16 -11.4573     99.7038    247.5388   1.3820673153e+02   1.3629799601e+01    0.4873226      0.41294  59.67  0.003898779    1.172    0.147
        17 -11.9889    109.0068    248.2532   1.3673898445e+02   1.2198139491e+01    0.8814816    0.4316384  51.76  0.005321074    1.611    0.379
        18 -11.6464     87.5274    248.9184   1.4031047698e+02   1.5100547341e+01    0.6291292    0.3462175 -86.32  0.003552454    2.223    0.550
        19 -11.0953     81.5705    246.8543   1.4110556816e+02   1.6217204247e+01    0.4917801    0.2700805 -72.19  0.002832061    2.025    0.506
        20 -12.4357     52.1563    228.4001   1.4451554950e+02   2.2965198800e+01    0.4818602    0.4194108 -67.02  0.002844279    1.574    0.365
        21 -16.3155     59.9824    215.9474   1.4221206623e+02   2.4193019773e+01     25.32388      8.53771 -83.75   0.08138981    7.101    0.859
        22 -10.6369    101.2107    212.3541   1.3438667570e+02   1.9161714752e+01    0.4194607    0.2879177  60.58  0.002658432    1.273    0.214
        23  -9.4262    183.2330    213.9462   1.1939264046e+02   5.3292201095e+00    0.2167191    0.1584269  58.80 0.0009623214    1.579    0.367
        24  -9.2043    151.8468    212.5165   1.2494850072e+02   1.0952183920e+01    0.2688968     0.203262 -23.65 0.0008877265    1.814    0.449
        25  -9.6532    141.5600    212.7555   1.2690081582e+02   1.2653312532e+01    0.2654586    0.1435892  50.44 0.0008743742    1.638    0.389
        26  -9.1960     32.9875    211.4672   1.4655638924e+02   2.8144199472e+01    0.1563002     0.111624  84.86 0.0004746026    1.124    0.110
        27  -7.8470    158.3180    241.3380   1.2764493323e+02   5.6631515620e+00     0.112207   0.08149882  18.56  0.000389782    1.705    0.413
        28  -9.6726    134.5584    208.1355   1.2758175788e+02   1.4589614297e+01     0.270096     0.204332 -27.06  0.001598082    1.905    0.475
        29  -9.8477     93.7786    204.6806   1.3490744513e+02   2.1646650430e+01    0.3145435    0.2894737 -78.66  0.002272022    1.256    0.204
        30  -9.1343     89.0077    204.7399   1.3581905420e+02   2.2331730366e+01    0.2262846    0.1367291  64.18   0.00118025    1.590    0.371
        31  -9.0458    173.2507    239.6118   1.2486148006e+02   3.5041414753e+00    0.1838712    0.1405653 -62.21   0.00111909    1.857    0.462
        32  -9.5469    175.0441    205.4381   1.1954475360e+02   8.0111145657e+00    0.1755812    0.1643706  30.79 0.0003708319    1.103    0.093
        33 -10.1946    166.9641    203.1877   1.2069915159e+02   9.7919899791e+00    0.1856784    0.1620633  61.00 0.0004773705    1.219    0.180
        34  -9.9309    126.0809    205.4624   1.2883256116e+02   1.6453293291e+01    0.2116484    0.1774465 -84.44 0.0005481026    1.291    0.225
        35 -10.3714    117.2460    224.2390   1.3281399528e+02   1.4701163258e+01    0.3066241    0.1887616  49.87  0.001875003    1.331    0.249
        36 -11.5044     99.0298    231.4329   1.3680217837e+02   1.6250627834e+01    0.4111132    0.3220095  62.48  0.001774456    1.023    0.023
        37  -9.3879    247.5414    205.0413   1.0671003944e+02  -4.3605874589e+00    0.1463232    0.1010456 -49.93  0.000591184    2.484    0.597
        38  -8.9751    148.1968    205.2290   1.2457317312e+02   1.2755237956e+01    0.1872766    0.1576377  33.42 0.0005723992    1.182    0.154
        39  -9.7764    108.4503    202.9433   1.3189062128e+02   1.9733822986e+01    0.3000175    0.1943168 -43.18  0.001197683    2.074    0.518
        40 -10.1240    133.2444    202.5889   1.2705728108e+02   1.5757362619e+01    0.2177264    0.2026786  53.05 0.0002427635    1.104    0.094
        41  -9.6184     71.1838    202.2462   1.3891850343e+02   2.5269980331e+01    0.2433322    0.1472043  68.69 0.0005400003    1.565    0.361
        42 -10.1756    197.9421    200.4370   1.1448518903e+02   4.6696468638e+00    0.4547545    0.2128827  46.94  0.002138068    1.994    0.499
        43  -8.0779    114.4493    206.5033   1.3119137115e+02   1.8151452386e+01    0.1217552    0.1043116  59.55 0.0001164417    1.032    0.031
        44  -8.9251    169.6611    200.1672   1.1970204762e+02   9.7867149415e+00    0.2080386     0.152915  48.59 0.0003453145    1.244    0.196
        45 -10.0362    141.6030    198.1636   1.2478752251e+02   1.5090539707e+01    0.3167789    0.2311188  18.80  0.001063247    1.825    0.452
        46 -11.9915    110.7032    229.8659   1.3460115215e+02   1.4786239503e+01    0.6036882    0.3612401  45.87  0.002686908    1.378    0.274
        47 -10.1262    246.7579    232.4003   1.1150352220e+02  -7.2004248270e+00    0.1665293   0.08177651  31.02 0.0008790022    1.669    0.401
        48  -9.2127    100.8969    198.0559   1.3274262346e+02   2.1802202592e+01    0.1820402     0.156736  66.57 0.0003316467    1.030    0.030
        49  -9.1450     92.9156    232.2675   1.3793963666e+02   1.6987250921e+01    0.1612598    0.1222371  54.97  0.001157649    1.090    0.083
        50  -8.5409     95.5146    196.9017   1.3365248785e+02   2.2834859430e+01    0.1694751    0.1146506 -66.07 0.0005543483    1.534    0.348
        51 -11.2088     74.2766    194.5051   1.3752009711e+02   2.6331223274e+01    0.3662601    0.2642642 -51.50   0.00231846    1.730    0.422
        52 -11.1209     78.8614    187.6217   1.3583776414e+02   2.7044273993e+01    0.2734098    0.2185782 -53.18 0.0008471742    1.508    0.337
        53  -8.1834    217.7587    194.9517   1.0994547809e+02   1.9112892857e+00    0.1436274    0.1037311 -24.45 0.0002204806    1.454    0.312
        54 -10.0853    172.8885    193.7698   1.1801936860e+02   1.0220337643e+01    0.3533223    0.2526714 -15.87  0.001906629    1.856    0.461
        55 -10.0082    159.8704    194.1604   1.2059741047e+02   1.2526932041e+01    0.3129445    0.1923652  51.88  0.001105017    1.561    0.359
        56  -8.5910    135.4915    195.4190   1.2557274942e+02   1.6629105846e+01     0.128406    0.1116573  51.68 0.0001168922    1.021    0.021
        57  -9.5763    103.0808    203.4487   1.3298542635e+02   2.0473521245e+01     0.207046    0.1865478 -15.45 0.0009668458    1.628    0.386
        58 -13.2511     45.7756    246.1278   1.4670770432e+02   2.0782909526e+01    0.7951388    0.5745227  40.75   0.00304584    1.621    0.383
        59 -10.3680     21.9753    187.4881   1.4683080416e+02   3.3807761363e+01    0.2175188    0.1983368 -41.73  0.001596267    1.707    0.414
        60  -9.8807     20.6209    195.2144   1.4761539376e+02   3.2448997344e+01    0.2080641    0.1154964 -64.11  0.001362949    1.850    0.459
        61  -9.8867     20.5120    191.4944   1.4738138112e+02   3.3172843859e+01    0.1878631    0.1452542  74.19 0.0007079766    1.094    0.086
        62 -12.6768     43.1409    237.1545   1.4656467345e+02   2.2544770490e+01    0.4026269    0.3135318  52.56 0.0003241491    1.341    0.254
        63  -9.8252    191.5804    191.2530   1.1403695132e+02   7.1762978250e+00    0.2474321    0.2323079  14.13 0.0006299316    1.104    0.094
        64  -9.0088    135.9952    189.7682   1.2460914401e+02   1.7552668150e+01     0.290285    0.1978001 -13.42  0.001337688    2.859    0.650
        65 -14.5769     26.4897    248.3796   1.4973674452e+02   2.2556131305e+01    0.9085994     0.626889  42.65     0.007433    1.629    0.386
        66 -10.0894    250.2013    187.7823   1.0306091700e+02  -2.7378908069e+00    0.2603354    0.1576331 -14.89  0.001439682    1.657    0.396
        67  -9.1321    192.1181    197.8377   1.1510176972e+02   6.0924244333e+00    0.1807435    0.1616967  43.96 0.0004146219    1.165    0.142
        68 -10.2736    142.6345    228.3293   1.2875788683e+02   1.0038513605e+01    0.2747953    0.1947163 -83.67  0.001168575    1.977    0.494
        69  -9.0949     67.3294    186.3268   1.3799551485e+02   2.8863981352e+01    0.1799592    0.1299727  47.63 0.0005738147    1.348    0.258
        70  -8.3767    161.2756    185.6370   1.1888289117e+02   1.3712117940e+01    0.1300457    0.1029799  84.05 0.0003632809    1.666    0.400
        71  -8.9168     88.7988    183.8991   1.3336608816e+02   2.6352737352e+01    0.2696922    0.1338938  62.22  0.001242101    2.370    0.578
        72  -9.6212    134.9249    180.2899   1.2330820567e+02   1.9486632434e+01    0.2609572    0.1755816  61.82  0.001354893    1.600    0.375
        73  -9.3313    190.9020    227.9607   1.2016993107e+02   2.1340166555e+00    0.1761103    0.1428263  34.04 0.0002961862    1.022    0.022
        74  -8.9288    128.9813    179.2804   1.2437333676e+02   2.0730592811e+01    0.1808855    0.1573046  56.87 0.0002323248    1.046    0.044
        75  -8.9091     90.1701    160.4018   1.2975485000e+02   3.0975363007e+01    0.2045864     0.138323  74.20  0.000314842    1.660    0.397
        76  -9.3723     96.4376    159.7044   1.2823882833e+02   3.0148575904e+01    0.2176985    0.1790993 -27.19 0.0009026388    1.662    0.398
        77 -11.1198     87.0898    176.0018   1.3267979042e+02   2.8193770897e+01     0.350232    0.2655741  35.77  0.001367173    1.491    0.329
        78 -11.4535     92.9373    167.3610   1.3019899850e+02   2.9090963465e+01    0.6436291    0.4214465 -41.36  0.002283585    1.980    0.495
        79  -9.8048    182.0629    176.6137   1.1314473184e+02   1.1295869475e+01    0.2685112    0.2169492  -1.91  0.001268433    1.408    0.290
        80 -10.5807     74.6227    173.4752   1.3498030301e+02   3.0491725068e+01    0.3896179    0.2279711 -48.95  0.001672675    2.044    0.511
        81  -9.9746    155.8783    231.9624   1.2687617973e+02   7.3575029277e+00    0.2423563    0.1568363  35.81   0.00145449    1.386    0.278
        82 -10.8511    249.5984    171.9946   1.0004049677e+02  -6.3428500147e-01    0.3121043    0.2571565 -15.03  0.001975846    1.156    0.135
        83  -9.1287    100.8364    170.1884   1.2890935088e+02   2.7269578743e+01    0.1949627    0.1591911  80.38 0.0003241099    1.188    0.158
        84  -8.3201    122.5956    168.8437   1.2399294365e+02   2.3886170482e+01     0.167898    0.1254725 -72.19 0.0001696883    1.474    0.322
        85  -9.9459    107.4224    168.3157   1.2719033330e+02   2.6582408753e+01    0.2813451    0.2056743  27.33 0.0003592394    1.703    0.413
        86  -8.7471     85.1020    168.1077   1.3201359168e+02   3.0114398605e+01    0.1709263    0.1665977  87.74 0.0003292243    1.224    0.183
        87 -15.7495      8.3377    246.9598   1.5230566241e+02   2.4616461356e+01     4.905321      1.01233 -79.64    0.0230803    4.672    0.786
        88  -9.0137    175.8293    165.8920   1.1228731992e+02   1.4341682483e+01    0.1820322    0.1652257  80.73 0.0004431086    1.302    0.232
        89  -9.2091    164.4541    226.0284   1.2455820090e+02   6.7941636051e+00    0.1507576    0.1208529 -43.32 0.0004039498    1.529    0.346
        90 -10.9725    245.0797    162.2945   9.8783749377e+01   1.4665914781e+00    0.3320548    0.1705459 -31.94  0.001604415    1.875    0.467
        91  -8.8379     79.9526    163.8097   1.3253133821e+02   3.1764416830e+01    0.2224386    0.1266182  65.17  0.001086573    2.022    0.505
        92  -8.4304    203.5891    160.4586   1.0574918861e+02   9.7015278326e+00    0.1390651    0.1257517  12.38 -2.370821e-05    1.019    0.018
        93  -8.2097    171.3245    159.2668   1.1186067104e+02   1.6420224434e+01    0.1412495    0.1074504  15.31 0.0002721958    1.567    0.362
        94  -8.5765    119.8530    158.8582   1.2285041636e+02   2.6388027355e+01    0.1799349    0.1506703  86.54 0.0003530446    1.258    0.205
        95  -8.6100     82.5006    159.0349   1.3126880755e+02   3.2411029753e+01    0.1810655    0.1182209 -64.68 0.0003468008    1.454    0.312
        96 -10.0827    105.2714    222.6845   1.3479255579e+02   1.6778429030e+01    0.2541332    0.2007286   3.94 0.0009235686    2.263    0.558
        97 -11.1895    245.6062    156.2104   9.7408399324e+01   2.2101693014e+00    0.5168607    0.3339962  65.58  0.002415926    2.658    0.624
        98  -8.7972    115.6822    157.1458   1.2347626591e+02   2.7475922071e+01    0.1863347    0.1665824 -62.60 0.0005618015    1.134    0.118
        99  -8.9557     88.8609    156.9046   1.2950417402e+02   3.1918907116e+01    0.1811089    0.1709598 -62.24            0    1.191    0.160
       100  -9.0876     74.7507    156.6562   1.3266747501e+02   3.4025030010e+01    0.2229132    0.1479838  54.82 0.0006925861    1.485    0.327
       101  -8.7116    134.5696    155.3191   1.1892049672e+02   2.4408105433e+01    0.1918485    0.1334785 -39.23 0.0008262068    1.605    0.377
       102  -8.4869    124.9271    154.2232   1.2086106600e+02   2.6424277491e+01    0.1811603    0.1096643  45.69 0.0004086999    1.600    0.375
       103 -10.9614     98.7664    222.8493   1.3597568637e+02   1.7712416572e+01    0.3013478    0.2411375  68.59 0.0002571195    1.071    0.066
       104  -9.2518    113.9121    152.4087   1.2301866331e+02   2.8773169416e+01    0.2302616    0.1829104 -71.59 0.0004262419    1.297    0.229
       105  -8.6513    145.8031    151.8347   1.1575297385e+02   2.2932471207e+01    0.1908086    0.1647196  84.92 0.0002479155    1.308    0.236
       106  -9.6634    103.9677    150.5759   1.2497376697e+02   3.0862184274e+01    0.3449591    0.2727852 -30.53   0.00148913    1.631    0.387
       107  -9.0056    106.7679    145.8150   1.2345097543e+02   3.1407149461e+01    0.2400969    0.1998746  -4.96   0.00130007    1.675    0.403
       108  -8.6219    119.9598    151.2777   1.2142773280e+02   2.7935129619e+01     0.183029    0.1706183  63.03 0.0002341628    1.038    0.037
       109  -8.4842     92.6053    150.7518   1.2764046545e+02   3.2662711531e+01    0.1249168    0.1059069  -4.01 0.0006944796    1.679    0.405
       110 -12.5747     67.7084    144.0049   1.3241391619e+02   3.7741232987e+01    0.7463357    0.5349054  88.25   0.00371388    1.421    0.296
       111 -10.0108    249.4639    149.5150   9.5335853481e+01   2.4293305575e+00    0.2780017    0.1257744  45.93  0.001234776    2.257    0.557
       112 -10.5661    133.3077    141.4029   1.1639198331e+02   2.7482784462e+01    0.6504374    0.2852914 -49.40  0.002555136    2.323    0.570
       113  -8.1703     85.9988    147.7577   1.2868339789e+02   3.4326515037e+01    0.1539328    0.1091387  43.68 0.0002129609    1.452    0.311
       114 -11.1230     91.3815    219.2832   1.3693138822e+02   1.9391033396e+01    0.3721986     0.269432  51.84  0.001422192    1.173    0.148
       115 -11.5650     71.7315    138.9917   1.3064791507e+02   3.8308933360e+01    0.7167746    0.3525519  47.53  0.003404352    2.125    0.529
       116 -11.1861    248.4305    140.9104   9.3608479636e+01   3.8367693202e+00    0.6610025    0.3121895  36.42   0.00288316    2.289    0.563
       117 -11.8768    248.3141    134.2841   9.2138608119e+01   4.8090237276e+00    0.7442623    0.3627886 -30.90  0.003361866    1.891    0.471
       118 -10.9349    246.0229    240.0616   1.1283541642e+02  -7.8536853276e+00    0.3867574     0.167033  22.05  0.001873655    2.762    0.638
       119  -8.1052    220.0395    223.2460   1.1442445552e+02  -2.0601136830e+00    0.1451598   0.08343186  37.50 0.0002004359    1.427    0.299
       120  -9.6715    119.3427    138.3937   1.1902086366e+02   3.0758038021e+01    0.2443382     0.222014  78.66 0.0003963337    1.108    0.097
       121 -10.0932    149.9916    222.2689   1.2664539591e+02   9.7520918763e+00     0.179412     0.175134 -88.91 0.0001932857    1.215    0.177
       122 -11.3785     58.9870    133.2151   1.3285191006e+02   4.1255795003e+01    0.3482271     0.281452  71.83  0.001614218    1.242    0.195
       123 -10.0730    113.4149    136.2743   1.1999800973e+02   3.2289885183e+01    0.3845077    0.2775046  52.32  0.001886669    1.411    0.291
       124  -8.3284    136.6903    134.2643   1.1406331850e+02   2.8286980126e+01      0.14261    0.1134819  81.16            0    1.534    0.348
       125  -8.2181     97.6017    134.4914   1.2348663225e+02   3.5403298518e+01    0.1363654    0.1259665 -67.82 -0.0001498088    1.047    0.045
       126 -11.5893     44.7073    130.0347   1.3592611206e+02   4.3619229139e+01    0.3846276    0.2289692 -79.49  0.001119921    1.600    0.375
       127  -8.3798    129.9168    132.0232   1.1514985733e+02   3.0091455587e+01    0.1672986    0.1630788  84.90            0    1.007    0.007
       128  -9.0417    240.3364    131.2979   9.2739225509e+01   6.8201910963e+00    0.1447592    0.1004387  12.47 0.0007032293    1.654    0.395
       129  -8.3382     82.7141    135.9753   1.2743519715e+02   3.7409983767e+01     0.165058    0.1104364 -60.11 0.0003788127    1.385    0.278
       130 -10.6610     66.4199    126.8121   1.2990159679e+02   4.1743807249e+01    0.3730513    0.2108957 -72.54  0.001536676    1.830    0.453
       131 -11.4291    142.0401    220.6250   1.2787258058e+02   1.1318943048e+01    0.4589127    0.3441537 -86.51  0.002864321    1.733    0.423
       132  -8.5686    118.4907    128.4764   1.1710594601e+02   3.3030621646e+01    0.1412622    0.1383072 -50.25 0.0008093998    1.061    0.057
       133  -8.5214     74.3126    128.6371   1.2821157552e+02   4.0261068644e+01    0.1401196   0.09637762  81.96 0.0003302738    1.755    0.430
       134  -9.2353    163.7988    221.6105   1.2405570552e+02   7.5425185346e+00     0.161838    0.1395366  31.01  0.000551723    1.126    0.112
       135  -9.2567    110.7573    222.5831   1.3379426549e+02   1.5968166673e+01    0.2144289   0.09904094  40.19 0.0008992926    1.966    0.491
       136  -8.0826     93.4319    127.4637   1.2312582925e+02   3.7633079274e+01    0.1381583    0.1257324 -77.92    6.558e-05    1.036    0.035
       137  -9.0555     86.3620    126.4197   1.2471461218e+02   3.8982015453e+01    0.3024214    0.2195622   3.20  0.001121533    2.241    0.554
       138  -9.5162    209.7333    125.6497   9.6706206893e+01   1.4146500536e+01     0.254851     0.235707 -24.97 0.0004496649    1.078    0.073
       139 -10.3012    249.5282    117.4988   8.8078710484e+01   7.0070070983e+00    0.2410314    0.2109865   3.67 0.0006306719    1.098    0.090
       140 -11.4591    248.6295    112.6325   8.7067838965e+01   7.9011502553e+00    0.5533127    0.3813662 -21.22  0.001996641    1.372    0.271
       141  -8.9316     50.5882    122.7896   1.3330686610e+02   4.4590988296e+01    0.1831191    0.1074431 -75.98 0.0009460296    1.664    0.399
       142  -8.4593    238.6420    121.7119   9.0776579289e+01   8.6029464857e+00    0.1469391    0.1023684  15.17 0.0007024622    1.682    0.405
       143  -9.0365    130.8125    119.1941   1.1195746643e+02   3.2596428503e+01    0.1935172    0.1722499  -9.66  0.001022479    1.277    0.217
       144  -9.5266    177.8745    218.6254   1.2107974697e+02   5.5858112908e+00    0.1985564    0.1829757 -54.28  0.000653428    1.360    0.265
       145  -9.2523    246.3571    218.2962   1.0922802430e+02  -5.6597937263e+00    0.1252306   0.07288837  16.14 0.0007033501    1.699    0.411
       146  -8.7882     85.6254    117.7884   1.2313771222e+02   4.1019291810e+01    0.3017407    0.1425636  58.37  0.001096452    3.374    0.704
       147  -8.4172    111.9931    116.2565   1.1593354726e+02   3.6867994892e+01    0.1783955    0.1249764  43.76 0.0002297702    1.482    0.325
       148  -9.5524    168.4770    113.4820   1.0187475182e+02   2.5594640615e+01    0.3225803    0.2682721 -79.83  0.001426733    1.510    0.338
       149  -9.2480     82.2418    114.0974   1.2325144253e+02   4.2360567448e+01    0.1873764    0.1639364 -68.90 0.0002170672    1.068    0.064
       150 -11.1290     59.9051    110.8290   1.2866798419e+02   4.6176226241e+01    0.4977981    0.3081812  70.12  0.002409281    2.265    0.558
       151 -10.8686     69.2618    110.6114   1.2604614779e+02   4.5006758941e+01    0.4092858    0.2130916  53.41 0.0007499187    2.424    0.587
       152  -9.0158     79.9222    108.9154   1.2274921021e+02   4.3864823433e+01    0.2006648    0.1556508  88.22 0.0003375303    1.526    0.345
       153  -9.9213    114.9926    107.0128   1.1289681516e+02   3.8283200336e+01    0.1786839    0.1676247 -49.77 0.0003347782    1.023    0.022
       154  -9.4062    134.5724    104.7504   1.0737321297e+02   3.4800290166e+01    0.2958108    0.1440556 -38.66  0.001134953    2.099    0.524
       155 -10.9159    248.1133     99.9695   8.4111737187e+01   9.8640909532e+00    0.5208364     0.338375 -10.07  0.002482728    1.779    0.438
       156  -9.6187     76.3507     98.9450   1.2145837344e+02   4.6604577574e+01    0.2133461    0.1979973  19.77 0.0003965216    1.227    0.185
       157  -8.9722     63.7681     98.1729   1.2491772531e+02   4.8517935425e+01    0.1940316    0.1677497 -78.77  0.000563783    1.184    0.156
       158  -8.8372    134.0540    217.6909   1.2895326191e+02   1.3094707063e+01    0.2014201    0.1274763  56.57 0.0006933394    1.474    0.322
       159  -8.6628    102.1109     87.8823   1.1123222480e+02   4.4728629274e+01    0.2079248    0.1874179 -69.72 0.0002868323    1.208    0.173
       160 -14.4537     14.3651    239.4890   1.5110362023e+02   2.5228695588e+01     1.028541    0.5444906 -61.58 0.0009758467    2.458    0.593
       161 -10.5823    249.5957    242.7290   1.1268589158e+02  -8.6239277836e+00    0.2251207    0.1235238 -16.12  0.001412537    1.977    0.494
       162  -8.8846    205.1829    249.3905   1.2082502808e+02  -2.6948714661e+00    0.1514853   0.08547076  45.55 0.0001227772    1.551    0.355
       163 -10.3212    134.2767    249.5224   1.3266530379e+02   8.2755138471e+00    0.3817749    0.1694668  50.43  0.002110901    1.848    0.459
       164 -10.3662    152.8710    243.3461   1.2882241172e+02   6.2523371992e+00    0.1741105     0.152367 -89.15  0.001302785    1.416    0.294
