#   1 NUMBER                 Running object number                                     
#   2 MAG_AUTO               Kron-like elliptical aperture magnitude                    [mag]
#   3 X_IMAGE                Object position along x                                    [pixel]
#   4 Y_IMAGE                Object position along y                                    [pixel]
#   5 X_WORLD                Barycenter position along world x axis                     [deg]
#   6 Y_WORLD                Barycenter position along world y axis                     [deg]
#   7 A_WORLD                Profile RMS along major axis (world units)                 [deg]
#   8 B_WORLD                Profile RMS along minor axis (world units)                 [deg]
#   9 THETA_WORLD            Position angle (CCW/world-x)                               [deg]
#  10 FWHM_WORLD             FWHM assuming a gaussian core                              [deg]
#  11 ELONGATION             A_IMAGE/B_IMAGE                                           
#  12 ELLIPTICITY            1 - B_IMAGE/A_IMAGE                                       
         1 -16.2758    141.7566    147.2179   9.2921489606e+01   2.4041008039e+01     3.533678     1.359579 -38.28   0.01111636    3.529    0.717
         2 -19.1971    174.4110    145.1638   8.5083993350e+01   1.7526817261e+01     8.946482     7.132476 -43.33   0.04499416    1.282    0.220
         3 -10.1561    174.9965     22.3048   5.0253480739e+01   3.8676660650e+01    0.2058753    0.1739089  74.89 0.0005726434    1.114    0.102
         4 -10.3114     49.1033     20.7927   8.2634198368e+01   6.6466577152e+01    0.2601513    0.1409868 -14.71  0.001253594    2.240    0.553
         5 -12.4349    243.4399      8.1328   3.9137704976e+01   2.3165110396e+01    0.3950694    0.2071842 -77.86  0.001916153    1.998    0.500
         6 -10.4972     23.8634     10.1389   8.9199981852e+01   7.1113453348e+01    0.1697832    0.1435514 -23.47  0.001252181    1.259    0.206
         7 -10.3268     26.7983      7.0421   8.6144519025e+01   7.1251500692e+01    0.1617778    0.1335425 -19.22 0.0004501537    1.211    0.174
         8 -10.5685    107.6099      4.3562   5.6087677499e+01   5.7326962464e+01    0.2458353    0.1801624  46.58 0.0005049555    1.201    0.168
         9 -10.6444      7.6013      4.9343   9.5345632386e+01   7.3368472523e+01    0.1948877    0.1381295   7.03 0.0005983623    1.432    0.302
        10 -12.0622    239.4738      3.0093   3.8252596928e+01   2.4628889950e+01    0.5010582    0.1495701  59.34  0.001950351    3.343    0.701
        11 -10.8871     40.4894      2.8006   7.7343685860e+01   7.0095946748e+01    0.2054259    0.1782642  12.23 0.0005473018    1.283    0.220
        12 -10.6333    244.6255    234.6446   8.8989371666e+01  -9.1098467233e+00    0.3148926    0.1592101  -1.61  0.001140957    2.971    0.663
        13 -10.0053    234.4823    250.4933   9.3171811590e+01  -9.3426590490e+00    0.1143373    0.0836734  20.55   0.00081034    1.016    0.016
        14 -10.4474    220.4744    250.4612   9.5519161436e+01  -7.2958744321e+00    0.2128147    0.1480018  38.42 0.0009099161    1.291    0.226
        15 -10.6796    217.3108    249.6920   9.5943888083e+01  -6.7382813431e+00    0.1852202    0.1543672  -3.33 0.0007399278    1.275    0.215
        16 -11.9195    192.9695    248.9184   1.0004213781e+02  -2.9056345364e+00    0.3005913    0.1959032  37.97 0.0006978879    1.198    0.165
        17 -10.4146    135.7284    250.6652   1.1039830238e+02   5.9365288223e+00    0.1926577    0.0871285  41.66 0.0003351199    1.745    0.427
        18 -10.6936    118.4538    234.8806   1.1176786082e+02   1.1135892349e+01    0.2337622    0.1886623  68.00 0.0008648799    1.154    0.133
        19 -10.2619     42.9219    235.6697   1.2530498135e+02   2.1559767628e+01    0.1612415    0.1224359 -89.72 0.0004875202    1.269    0.212
        20 -10.1345     33.3504    235.6595   1.2690448070e+02   2.2674566180e+01    0.1772478   0.08409884  65.61 0.0007927408    1.691    0.409
        21  -9.6186    145.8141    234.7875   1.0667702882e+02   6.7252322781e+00    0.1896737    0.1554547  70.57 0.0005232937    1.326    0.246
        22 -11.3483    142.0286    230.3957   1.0682265971e+02   8.0473564805e+00    0.5105837    0.2076442  50.30  0.002123831    2.248    0.555
        23 -12.0228    164.8116    231.0820   1.0264177509e+02   4.1227216654e+00    0.2810639    0.2556165  84.24 0.0008064166    1.349    0.259
        24 -10.8722    201.2348    232.7703   9.6213611628e+01  -2.1740989932e+00    0.2041676    0.1726241  28.87 0.0004295701    1.090    0.082
        25  -9.7107     57.8325    233.3995   1.2258891174e+02   2.0126046506e+01    0.1461411   0.09740161  35.76 0.0009442669    1.778    0.438
        26 -10.5117    175.3733    231.2531   1.0070408207e+02   2.3211097187e+00    0.2833452    0.2345228  75.80  0.001823173    1.615    0.381
        27 -10.5312    190.8907    230.7128   9.7771588557e+01  -1.9712707947e-01    0.2651284    0.1834364  44.95  0.001076119    1.312    0.238
        28  -9.8698     69.2132    230.2008   1.2032119668e+02   1.9209435213e+01    0.1614074    0.1340923  63.26 0.0004921411    1.180    0.153
        29 -11.3678    196.2725    226.9145   9.6203800676e+01  -5.7249319540e-01    0.2657242    0.1972136  41.47 0.0004101032    1.209    0.173
        30 -13.6875    243.8669    220.7966   8.6789311022e+01  -7.4233049863e+00    0.4296026    0.3041065 -10.30 0.0009470929    1.337    0.252
        31 -12.1235    237.4987    222.1397   8.8103399701e+01  -6.6105050469e+00    0.2575568    0.2195202  20.33 0.0003839714    1.195    0.163
        32 -11.6823    202.9709    225.0824   9.4693558895e+01  -1.4388028931e+00    0.3790425     0.243683  23.83  0.001615892    1.488    0.328
        33 -11.8385    210.2114    223.1839   9.3076323240e+01  -2.3831479671e+00    0.3824431    0.1742558  48.63  0.001621352    2.374    0.579
        34 -11.5791    166.0960    224.4262   1.0144871592e+02   4.9167271645e+00    0.3436075    0.2353957  30.35  0.001178632    1.401    0.286
        35 -10.9172    175.0850    224.9560   9.9830953691e+01   3.2954046225e+00    0.1902403    0.1568437  33.82 0.0003858883    1.039    0.038
        36 -14.8328    230.7908    168.3759   7.9084578770e+01   1.9216570937e+00     1.912169     1.000898 -24.09  0.005898639    2.096    0.523
        37 -14.7044    239.8057    142.0876   7.1802152366e+01   4.3370868334e+00     1.126054    0.7490162  30.15  0.005661421    1.627    0.385
        38 -16.0238    145.0798    190.4854   1.0036578261e+02   1.4535172373e+01     3.492332     1.931601  62.75   0.01469724    2.458    0.593
        39 -15.6578    207.6181    179.7421   8.5695082538e+01   4.4835550819e+00     2.249396     1.459876  -1.78  0.009295299    2.111    0.526
        40 -15.5785    119.7942    154.2435   9.9579774444e+01   2.6814990937e+01     1.554799     1.439288  69.34  0.006471153    1.026    0.025
        41 -16.1230    211.8568    122.4060   7.2103008134e+01   1.3511384992e+01     2.502771      1.70864  66.48    0.0108507    1.870    0.465
        42  -9.9644    125.5111    248.4813   1.1197350171e+02   7.8577902758e+00    0.1845913    0.1158554 -59.04  0.000692856    1.983    0.496
        43 -15.3292    188.4713    179.0313   8.9303893278e+01   8.2969406954e+00     1.109605    0.8819159  34.15  0.004428561    1.166    0.142
        44 -10.2570      4.4522    248.5341   1.3205071994e+02   2.3496987874e+01    0.1005913   0.06481858  69.93 7.040016e-05    1.003    0.003
        45 -12.4410    214.6753    216.8886   9.1220913733e+01  -2.2821365636e+00    0.4152032    0.2866474  17.80  0.002461741    1.391    0.281
        46 -12.3143    217.5116    213.6346   9.0151459660e+01  -2.3165458096e+00    0.3774377    0.2472006 -45.47  0.001722174    1.997    0.499
        47 -10.3185     85.0635    180.4892   1.1188700730e+02   2.6877076991e+01    0.1963198    0.1192786  44.87  0.001019842    1.558    0.358
        48 -10.3968     51.2407    180.0290   1.1919853598e+02   3.1618397688e+01    0.1958811    0.1551517  61.45 0.0003975467    1.170    0.146
        49 -12.9261     99.9382    170.2272   1.0704451348e+02   2.6764414001e+01    0.6874766    0.4903218  78.13  0.002109894    1.514    0.339
        50 -12.9259     94.7936    177.0985   1.0924930818e+02   2.6096684895e+01    0.7419535    0.3660681 -75.10  0.001035106    2.606    0.616
        51 -12.0797     89.1398    174.1133   1.1009535219e+02   2.7645142501e+01    0.3937343    0.3547064  17.53  0.002389106    1.477    0.323
        52 -11.2820    241.2846    173.9910   7.8405982067e+01  -8.1767780942e-01    0.6668041    0.3187629  30.30  0.002637018    2.349    0.574
        53 -10.2709    244.5913    174.4619   7.7935342427e+01  -1.4642562567e+00    0.2291882    0.1785228  -9.00 8.031663e-05    1.164    0.141
        54 -10.1488    244.7493    170.9932   7.7197016791e+01  -9.9080742903e-01    0.1863298    0.1600942 -20.19 0.0003854984    1.153    0.132
        55 -10.1591     68.9149    174.9716   1.1476326453e+02   3.0429886940e+01     0.188725    0.1588954  82.98  0.001189848    1.017    0.017
        56 -11.0027     79.6193    171.2895   1.1186545018e+02   2.9719494400e+01    0.2295903    0.1729476  77.54 0.0005556284    1.250    0.200
        57 -10.3763      2.9059    168.1570   1.2831970343e+02   3.9086944602e+01    0.1917241    0.1221992 -87.72 0.0002877267    1.176    0.149
        58 -10.2369     55.1666    171.9075   1.1746310378e+02   3.2923192445e+01    0.1953084    0.1423841  78.23 0.0002968074    1.206    0.171
        59 -11.1247     92.9038    160.0848   1.0707750663e+02   3.0193450609e+01    0.2808405    0.2122285 -54.62  0.001522408    1.373    0.271
        60 -11.4838     91.3942    165.3254   1.0826692636e+02   2.9248903764e+01    0.2966026    0.2241842  68.05 0.0009915996    1.285    0.222
        61 -12.0942     86.7579    165.3355   1.0935576446e+02   2.9975924573e+01    0.4008163    0.2592533  30.76 0.0003287808    1.875    0.467
        62 -10.2099     65.4547    165.5066   1.1434786364e+02   3.3026559012e+01    0.2768467    0.1645981 -72.82 0.0008071364    1.553    0.356
        63 -10.5349     42.7087    164.0764   1.1938851166e+02   3.6167563643e+01    0.3950204    0.1505028 -78.44   0.00165952    2.693    0.629
        64  -9.8040    249.0939    160.2655   7.4221521942e+01  -1.8749319443e-01    0.3500991    0.1809912 -42.73  0.001616801    2.122    0.529
        65 -11.4443    156.2175    222.6081   1.0306894415e+02   6.9003861680e+00    0.2263536     0.197755  42.59 0.0003269517    1.052    0.049
        66 -10.0613     16.8066    161.2030   1.2487121719e+02   3.9424443243e+01    0.1518171     0.117098 -68.98 0.0004007975    1.306    0.234
        67 -10.5905     76.0194    158.7348   1.1091575496e+02   3.3096676876e+01    0.1835052    0.1625747  77.46 0.0003584646    1.060    0.056
        68 -10.9934     13.3770    216.3631   1.2919747950e+02   2.8365707880e+01    0.1936918    0.1444479  78.48 0.0004224948    1.112    0.101
        69  -9.6065     57.0350    158.3067   1.1538559957e+02   3.5772337304e+01    0.1719761    0.1470371  78.11 0.0003174086    1.073    0.068
        70 -10.2863     60.3490    216.2715   1.2077239826e+02   2.2995607577e+01    0.1998117    0.1372812  34.70  0.001253881    1.746    0.427
        71 -10.5031     73.0275    146.9894   1.0984349129e+02   3.6261430535e+01    0.2495469    0.1783386 -60.71 0.0003004631    1.314    0.239
        72 -12.0234     72.9850    140.9859   1.0887052770e+02   3.7683606456e+01    0.5172724    0.3021035 -89.04  0.001229022    2.208    0.547
        73  -9.8416     36.3866    141.0555   1.1821737456e+02   4.2144558067e+01    0.1802386     0.128035 -77.06  0.000353517    1.158    0.137
        74 -11.0848     94.6308    135.4984   1.0222353256e+02   3.5616013674e+01    0.2675315     0.228946 -87.74 0.0005037952    1.149    0.130
        75 -11.2326     96.6365    213.4692   1.1351957700e+02   1.8371250616e+01    0.3611958     0.203927  33.24   0.00136993    2.051    0.512
        76 -11.6196     78.1093    131.7551   1.0588202224e+02   3.9127179654e+01    0.3722705    0.2547412 -87.31 0.0002519727    1.664    0.399
        77 -10.2097    230.7708    220.5849   8.8999011657e+01  -5.3715420437e+00    0.2034803     0.149979  32.06 0.0006644826    1.197    0.165
        78 -11.3455     79.2626    144.4446   1.0784514106e+02   3.5948792430e+01    0.2561987    0.2134034 -85.82 0.0002543242    1.107    0.097
        79 -10.4402    246.0305    129.2225   6.7856349852e+01   5.1617242004e+00    0.4044605    0.1903935  44.80   0.00107855    2.277    0.561
        80 -10.6021    244.4747    126.5404   6.7486538243e+01   5.8973059529e+00    0.2851812    0.2423631   6.54 0.0005826469    1.211    0.174
        81 -10.2481     63.1178    128.5551   1.0935491680e+02   4.1994780226e+01    0.2569949    0.1729367 -66.75 0.0007425757    1.316    0.240
        82  -9.1409     19.4897    123.5072   1.2039630207e+02   4.7785962202e+01    0.1239685   0.09700091 -79.13 0.0008105602    1.004    0.004
        83 -10.3493     67.7203    120.2251   1.0654106168e+02   4.3366727237e+01    0.3255355    0.2032774  68.17  0.001042655    2.086    0.521
        84 -11.5392     94.1174    116.1735   9.8227855927e+01   4.0251187593e+01    0.4416657    0.2608321  56.02  0.001907454    2.020    0.505
        85 -11.2071     87.6971    114.8427   9.9734110340e+01   4.1640955277e+01    0.3255168    0.2333596 -41.91 0.0007056391    1.447    0.309
        86 -11.4967      5.9866    114.6719   1.2297059327e+02   5.0803383561e+01    0.2300576    0.1506637  78.63 0.0006929368    1.484    0.326
        87  -8.7686    250.3049    113.2720   6.3495402819e+01   6.8331363539e+00    0.1352621    0.1036885   7.80 0.0002027072    1.539    0.350
        88 -11.3682     89.7606    109.5232   9.7905557686e+01   4.2546617486e+01    0.3320826    0.2781112 -63.84  0.001788257    1.134    0.118
        89  -9.9518    105.0344    212.0155   1.1169032553e+02   1.7334115329e+01     0.233788    0.1441693  81.36 0.0007618712    1.999    0.500
        90 -10.4240     84.7950    107.9098   9.8963110590e+01   4.3740341560e+01    0.2192255    0.1861715 -37.97 0.0005809293    1.227    0.185
        91 -10.1014     23.6956    108.5306   1.1719606708e+02   5.0937597507e+01    0.1816556    0.1282669  16.22 0.0006963561    1.884    0.469
        92  -9.8347    241.3645    104.1644   6.2675684662e+01   1.0143283796e+01    0.2019157    0.1610078 -36.81 0.0004712571    1.137    0.121
        93 -10.2496     73.2317    110.3764   1.0291707561e+02   4.4931437875e+01    0.2783908    0.1814642 -54.98  0.001388358    1.372    0.271
        94 -11.9049    104.5201    206.9540   1.1117549022e+02   1.8384825929e+01    0.4593816    0.2725437 -42.21  0.002292868    2.485    0.598
        95 -11.0948     72.3679     97.2478   1.0013142127e+02   4.8132582014e+01    0.2982071    0.2013924 -47.53 0.0006457622    1.352    0.261
        96  -9.9642     45.9801     93.9042   1.0770613957e+02   5.2258269785e+01    0.2063651     0.166714 -59.14 0.0009049652    1.041    0.040
        97 -10.5231     92.5969     92.8162   9.2777180619e+01   4.5887842263e+01    0.2398778    0.2000301  21.57 0.0004962268    1.370    0.270
        98 -11.4378     99.6850     91.8394   9.0390244838e+01   4.4821578290e+01    0.3457581    0.2326874  42.81 0.0009363564    1.577    0.366
        99 -11.2964    227.6714     90.7107   6.1446866966e+01   1.5371913998e+01    0.4706303    0.2602588  64.80  0.001875032    2.153    0.535
       100 -11.3632     88.9963     88.2244   9.2592107570e+01   4.7536780880e+01    0.5053851    0.2905913 -29.06  0.001850773    2.326    0.570
       101 -10.4733     66.6816     90.0487   1.0012693728e+02   5.0596224578e+01    0.3201571    0.1913767 -44.54  0.001024708    1.549    0.354
       102 -13.4156    248.2762     87.8856   5.7745205156e+01   1.1241800388e+01    0.3314562    0.2837827 -40.19   0.00080962    1.042    0.041
       103 -11.9280    239.9956     85.9794   5.8431770932e+01   1.3348916447e+01    0.2575188    0.2428994 -56.69 0.0003333827    1.072    0.067
       104 -10.9951    239.3611     81.8649   5.7502911579e+01   1.4137094985e+01    0.2540653    0.2275479 -51.24 0.0006021791    1.060    0.057
       105 -12.0567    117.4891     85.2427   8.3336874000e+01   4.2695185082e+01    0.3877793    0.3038394  -8.06    0.0011248    1.594    0.372
       106 -12.0372    106.6036     85.1039   8.6396483980e+01   4.4952957497e+01    0.3257505     0.266066 -35.90 0.0003665157    1.193    0.162
       107 -10.2391    226.6793    209.5004   8.7785471471e+01  -3.2858299227e+00      0.25974     0.176507  19.10  0.001203464    1.368    0.269
       108 -10.0072     87.1187     81.5463   9.1243227558e+01   4.9320799587e+01    0.2076331    0.1829438 -42.06 0.0004354994    1.045    0.043
       109 -11.6559    122.0988     80.0107   8.0458261715e+01   4.2774754241e+01    0.3299612    0.2780566  68.51 0.0006979744    1.361    0.265
       110 -12.8123    120.2906     75.0862   7.9396045884e+01   4.4149543766e+01    0.5387076    0.4401224 -77.45 0.0002735318    1.555    0.357
       111  -9.9657     44.2247    209.1462   1.2320931796e+02   2.6403312391e+01    0.1598663    0.1325431  85.28 0.0004493346    1.194    0.163
       112 -11.4511    222.6860     76.9657   5.8673449113e+01   1.8770332421e+01    0.4035658    0.2845578 -61.53  0.001427309    1.577    0.366
       113 -13.2458    109.9790     76.7080   8.2824045219e+01   4.6015220772e+01    0.6483962    0.5842145  -1.15  0.003477967    1.173    0.148
       114 -10.8064    102.8566     77.1128   8.5046782674e+01   4.7362622642e+01    0.2270764    0.2157769 -34.07  0.000401646    1.019    0.019
       115 -11.1527     99.9225     71.9777   8.4288456855e+01   4.8979399888e+01    0.2809781    0.2490367 -57.99 0.0003039044    1.216    0.178
       116 -12.0634    103.8261     69.5000   8.2297709196e+01   4.8702581562e+01    0.3809619    0.3284172 -48.50 0.0004654296    1.181    0.153
       117  -9.5602    231.4590     74.5322   5.6768666597e+01   1.7089102627e+01    0.1457484    0.1321474 -49.35  0.000174364    1.018    0.018
       118  -9.4326     23.8706     71.3855   1.1026060867e+02   5.9415599441e+01    0.1488182    0.1097018 -14.52 0.0004192549    1.610    0.379
       119  -9.6202    222.1025     70.5047   5.7070677439e+01   1.9932830678e+01    0.2062871    0.1460163  64.33 0.0004938078    1.493    0.330
       120  -9.4672     57.9477    205.0473   1.2024526253e+02   2.5520177847e+01    0.1464715    0.1121503  66.45 0.0004368088    1.067    0.062
       121  -9.8346     69.1093    203.4590   1.1789769337e+02   2.4356187966e+01      0.18376    0.1431729 -88.01 0.0009398015    1.172    0.147
       122 -11.3156     11.6224    201.6687   1.2870221168e+02   3.1389510145e+01    0.3966712    0.1445019  76.86  0.001903093    2.810    0.644
       123  -9.7275    241.2044     64.1481   5.2864531671e+01   1.6419144784e+01    0.2241702    0.1095076 -42.41 0.0009634857    1.816    0.449
       124 -12.0882    226.9057    198.8246   8.5801117965e+01  -1.8689655822e+00    0.5277666    0.4996789 -16.42  0.002308619    1.300    0.231
       125 -10.7197    230.9715    193.6962   8.4110317806e+01  -1.8465851830e+00    0.2368297    0.2173941  13.51 0.0006997479    1.190    0.160
       126 -11.3358     99.2439     65.0728   8.2199810791e+01   5.0471686308e+01    0.2481858    0.2129485  31.45 0.0006244858    1.204    0.169
       127 -11.0071    202.1340     62.3592   5.7906608239e+01   2.6144648962e+01    0.2145122    0.1913731  85.61  0.001135427    1.138    0.121
       128 -11.0957    129.8113     61.9777   7.2537336962e+01   4.4436886590e+01    0.2621175    0.2136514  49.42 0.0003675678    1.232    0.189
       129 -10.8595    211.6577     60.6424   5.5972421234e+01   2.4016041374e+01    0.3137838    0.1874166  74.01  0.001351159    1.910    0.477
       130 -12.6990    137.5024     58.1827   6.9342980303e+01   4.3257972808e+01    0.6253235    0.3683053  36.47  0.001538124    1.928    0.481
       131 -10.0472    112.4686     55.6742   7.5014903107e+01   4.9461110495e+01    0.4565225    0.2411239  66.28   0.00158591    3.312    0.698
       132 -12.5833    201.1106     52.1225   5.5186144416e+01   2.7955033193e+01    0.3982067    0.3201109  53.41 0.0007851782    1.284    0.221
       133 -10.7184    206.2520     50.0374   5.3846416902e+01   2.6949232255e+01    0.2690369    0.2061458 -41.81 0.0009620427    1.252    0.202
       134  -9.9527    249.2204     52.9354   4.9186459729e+01   1.6220437045e+01     0.206501    0.1564339 -53.35 0.0003740543    1.187    0.158
       135 -11.8769    124.7599     51.1936   7.0098300590e+01   4.7444681119e+01    0.4696539    0.3297747  -6.84  0.002139388    1.764    0.433
       136 -11.3118    229.5255    189.5020   8.3563049017e+01  -1.0008823452e+00    0.4291854    0.2533328  28.46   0.00196228    1.652    0.395
       137 -10.9440    119.0633     49.8520   7.1111302258e+01   4.8973755643e+01    0.2737183    0.2016268 -51.35 0.0007285999    1.556    0.357
       138 -10.2450    115.0321     47.5338   7.1354040799e+01   5.0256878495e+01    0.3092484    0.2021441  44.53 0.0009969572    1.507    0.337
       139 -11.4697    171.5696     49.4589   5.9299418073e+01   3.6003656858e+01    0.2702816     0.261985  85.81 0.0008291423    1.009    0.009
       140 -10.2367     18.3476     49.0992   1.0672216809e+02   6.4569023529e+01    0.1855292    0.1419956 -26.40 0.0003237599    1.260    0.207
       141 -11.2107    102.3584    200.5654   1.1081256713e+02   1.9985162408e+01    0.2873062    0.1909053 -56.19  0.001605516    1.675    0.403
       142 -10.0678     73.8555    219.3728   1.1851475845e+02   2.0583235387e+01    0.2705455    0.1471014 -60.15  0.001537222    2.058    0.514
       143 -10.8003    174.0967     44.6914   5.7362815215e+01   3.6038076541e+01    0.2146313      0.18908  57.95 0.0005968267    1.111    0.100
       144 -10.9706    129.0663     44.9353   6.6780819595e+01   4.7411021829e+01     0.253233    0.2073382  35.52 0.0004228686    1.211    0.174
       145 -12.9997     18.2884     43.2397   1.0500524048e+02   6.5753231571e+01    0.2780243    0.2044916 -43.75 0.0005186817    1.047    0.045
       146 -11.2358    191.4670     43.5956   5.4198564234e+01   3.1662009493e+01    0.4042061    0.2454545 -72.05  0.001423498    2.165    0.538
       147 -11.1145    200.3605    220.1843   9.4378572449e+01  -3.2846458853e-01    0.3433797    0.1497582  38.08  0.001620258    1.960    0.490
       148 -11.0598    155.6116     43.2604   6.0342899918e+01   4.1041640463e+01     0.259627    0.1988375 -13.84 0.0009023381    1.467    0.318
       149 -12.2039    101.4637    194.9521   1.1026890910e+02   2.1259301255e+01    0.3918714     0.234329  38.78 0.0003104475    1.666    0.400
       150 -11.3113    210.5754     54.3354   5.4410124160e+01   2.5231675065e+01    0.2987765     0.252872  74.45 0.0008230445    1.192    0.161
       151 -10.6859     87.4442     44.1661   7.8337964809e+01   5.6503428921e+01     0.289302     0.171316  26.13  0.001307353    2.017    0.504
       152 -10.9828     95.6287    195.7959   1.1160428859e+02   2.2015951716e+01     0.195798    0.1753132 -76.41 0.0002407848    1.213    0.176
       153 -10.2369    235.4502    194.4548   8.3464046894e+01  -2.7134082562e+00     0.234329    0.2046598 -16.67  0.001159905    1.212    0.175
       154 -11.6564    174.0731     40.4883   5.6058733532e+01   3.6631699008e+01    0.4422955    0.2065816  52.55  0.001696578    2.048    0.512
       155  -9.7638    177.5115     37.5217   5.4569496806e+01   3.6132932185e+01    0.2778443     0.180772  18.63  0.001095673    2.244    0.554
       156  -9.1451     36.3023    194.6569   1.2358612091e+02   3.0257266028e+01    0.1265818   0.06771109  70.24 0.0007038943    1.679    0.405
       157 -11.9488    134.2658     37.6357   6.2930169211e+01   4.7210478418e+01    0.3721735    0.2602721 -37.67  0.001808277    1.480    0.324
       158 -10.6443    124.0058     39.7943   6.6155704611e+01   4.9374821483e+01    0.2599486     0.214767 -23.86   0.00107725    1.223    0.182
       159 -10.3282     11.7371     40.0251   1.0689699525e+02   6.6841260371e+01    0.1686576    0.1170351 -47.64 0.0003766652    1.097    0.088
       160 -12.4837    244.4215    190.8946   8.1227038871e+01  -3.7265233512e+00    0.3008008    0.2308738  37.18 0.0005469592    1.345    0.257
       161 -11.3045    155.3785     37.1175   5.8342206116e+01   4.1954255984e+01    0.3708557     0.262061  44.73 0.0005851203    1.410    0.291
       162 -10.4744    122.5522     34.3451   6.4481873820e+01   5.0484025768e+01    0.2405017    0.2188052  52.77 0.0004798025    1.114    0.102
       163  -9.3156      8.3195     34.6517   1.0678197093e+02   6.8103397257e+01    0.1031859   0.08556624  88.81  0.000519979    1.735    0.424
       164 -10.2137    199.8260     32.8583   4.9920715048e+01   3.0932904069e+01    0.2142552    0.1969896  40.15  0.001213473    1.218    0.179
       165 -10.7990    214.4166     31.4867   4.7723362806e+01   2.7399518679e+01    0.2376654    0.2175802 -71.33 0.0002943475    1.016    0.016
       166 -10.3708    165.9737     31.3126   5.4524902306e+01   3.9957079544e+01    0.2120154     0.181172  67.18 0.0004632946    1.116    0.104
       167 -10.5992     53.0086    191.9693   1.2001370948e+02   2.8840967908e+01    0.1812131     0.143773  79.33 0.0003112204    1.018    0.018
       168  -9.9668     55.9281    188.6971   1.1909337521e+02   2.9165648997e+01    0.1727146    0.1501021  87.48 0.0003666152    1.169    0.145
       169 -16.0595    203.2739    133.5689   7.6433266191e+01   1.3399141420e+01     2.471131     1.580458  75.92  0.009510254    2.809    0.644
       170 -11.0152    216.5067     25.4377   4.5883053299e+01   2.7627001558e+01    0.4183846    0.1694174 -52.06  0.001595625    2.641    0.621
       171 -11.2740    141.6671     24.7296   5.6732683421e+01   4.7018286621e+01    0.3227092    0.2404309 -33.97 0.0007984421    1.409    0.290
       172 -15.6812    190.6290    167.1369   8.6470391478e+01   9.9680939729e+00     1.803204    0.8956683  31.58  0.007057536    2.422    0.587
       173 -10.3424    209.3103     25.1511   4.6616670323e+01   2.9467771732e+01    0.2287343    0.1781658  64.57 0.0003265084    1.270    0.213
       174 -10.1597     33.6343     25.3009   9.1483556035e+01   6.7672896310e+01    0.2222897    0.1353211  40.84  0.001266784    2.199    0.545
       175 -12.2446    183.0446    221.2887   9.7774984376e+01   2.4737995105e+00    0.5156954    0.2655612  37.43 0.0009771915    1.665    0.399
       176 -10.1452    201.7707     23.4641   4.7041949215e+01   3.1587882641e+01    0.2064499    0.1696152 -22.80 0.0005005176    1.352    0.260
       177  -9.5826    149.2287     23.2215   5.4770106918e+01   4.5269474680e+01    0.1877659    0.1609909 -67.17 0.0003604119    1.287    0.223
       178 -10.0136    176.4217    244.9005   1.0242111165e+02   2.4726109428e-01    0.2083879    0.1329719  45.35 0.0007154048    1.312    0.238
       179 -10.0634    121.5449    244.3683   1.1224233421e+02   9.1132757981e+00    0.2007208    0.1439273  70.72 0.0007129321    1.430    0.301
       180 -10.6572     92.4639    183.5029   1.1066505732e+02   2.5084550721e+01    0.1831241    0.1190969 -55.82 5.432847e-05    1.645    0.392
       181 -11.6224    238.2350     15.3220   4.1240981427e+01   2.3564583571e+01    0.2580778    0.1949801 -52.41 0.0009032133    1.168    0.144
       182 -11.5754     81.9494    187.8757   1.1350994799e+02   2.5757901304e+01    0.2461541    0.2130602  88.41 0.0003630639    1.097    0.088
       183 -10.4360    189.7362    241.4360   9.9559150103e+01  -1.4419279956e+00    0.1850827   0.09638803  39.48 0.0005723943    1.527    0.345
       184 -10.8125    193.1527    237.9946   9.8449037704e+01  -1.5445166681e+00    0.2388196    0.1850587   1.07 0.0005808717    1.439    0.305
       185 -12.6224    231.5351    237.3974   9.1638309008e+01  -7.4852590887e+00    0.3626505    0.2393327   2.18  0.001280704    1.548    0.354
       186 -10.0578     96.2561    185.4042   1.1009698146e+02   2.4078934279e+01    0.1801877    0.1103637  52.80 0.0002534647    1.497    0.332
       187 -11.5789    182.7535    237.9228   1.0031238421e+02   1.6065518329e-01    0.3227151    0.2051037  31.32 0.0004202417    1.376    0.273
       188 -11.3784    126.0707    235.8159   1.1046513207e+02   9.7718751876e+00    0.4039454    0.2505508  83.51  0.002156829    2.363    0.577
       189  -9.8718     68.9145    236.4687   1.2088476345e+02   1.8126662715e+01    0.1643419    0.1247622  77.83 0.0004559299    1.137    0.120
       190 -11.1034     66.7402    185.0161   1.1642544516e+02   2.8532248954e+01    0.2083334    0.1635038  57.18 0.0002218387    1.181    0.153
