#   1 NUMBER                 Running object number                                     
#   2 MAG_AUTO               Kron-like elliptical aperture magnitude                    [mag]
#   3 X_IMAGE                Object position along x                                    [pixel]
#   4 Y_IMAGE                Object position along y                                    [pixel]
#   5 X_WORLD                Barycenter position along world x axis                     [deg]
#   6 Y_WORLD                Barycenter position along world y axis                     [deg]
#   7 A_WORLD                Profile RMS along major axis (world units)                 [deg]
#   8 B_WORLD                Profile RMS along minor axis (world units)                 [deg]
#   9 THETA_WORLD            Position angle (CCW/world-x)                               [deg]
#  10 FWHM_WORLD             FWHM assuming a gaussian core                              [deg]
#  11 ELONGATION             A_IMAGE/B_IMAGE                                           
#  12 ELLIPTICITY            1 - B_IMAGE/A_IMAGE                                       
         1 -13.3112    209.3274     90.3445   2.0257150412e+01   2.3412000019e+01     1.382059    0.6533117 -40.15 0.0004427544    1.753    0.430
         2 -14.4145    242.6375     70.8691   1.3339975179e+01   2.0925832476e+01     2.733753    0.9340268 -37.98  0.004678088    2.300    0.565
         3 -14.9093    245.1764     98.3801   1.7982352155e+01   1.6949358944e+01      3.62764     0.590359 -39.35  0.003746901    4.510    0.778
         4 -13.0105    229.7935     81.7601   1.6445124561e+01   2.1403968704e+01     2.330145    0.2769075 -42.17  0.001698926    4.918    0.797
         5 -14.1995    228.6737    115.0217   2.2699886991e+01   1.6858718121e+01     2.754691    0.4571818 -38.91  0.005295457    5.211    0.808
         6 -10.0262    232.8219     10.5570   3.1462433541e+00   2.9320078502e+01    0.2593951   0.06311413 -48.05  0.001376044    2.515    0.602
         7  -8.9377    227.0278      1.4343   1.7493097138e+00   3.1151820531e+01     0.135498   0.08017214 -86.86 0.0003071344    1.539    0.350
         8  -7.7570    147.2679    237.0084   5.7734833727e+01   6.7030488140e+00    0.1477426    0.1001992 -39.80 0.0008823387    1.497    0.332
         9  -8.3369    249.9403    249.6955   4.1357131720e+01  -4.1236412431e+00    0.1339833   0.08993965  -8.21 0.0004734027    1.140    0.123
        10  -9.5841    244.4760    247.8581   4.1894669357e+01  -3.5227821473e+00     0.329189    0.1549661 -41.74  0.002161262    2.120    0.528
        11  -9.2542    236.8519    248.1737   4.3066946619e+01  -3.0148700902e+00    0.3216337    0.1412184 -21.40  0.001984832    1.970    0.492
        12  -7.8055    213.7880    231.9025   4.4398416581e+01   9.8791026517e-01    0.1501598    0.1186057 -48.12  0.001073089    1.888    0.470
        13  -7.4636    153.4874    232.5509   5.5794499806e+01   6.7977746497e+00    0.1247091    0.1003684  -1.96 0.0005853622    1.025    0.025
        14  -8.0764    144.0197    228.9795   5.7317440208e+01   8.4507022868e+00    0.2159639    0.1294658 -13.45  0.001128282    1.774    0.436
        15  -7.3697    172.6792    228.6848   5.1334064016e+01   5.4134652691e+00    0.1276953   0.07570145 -13.21 0.0003383344    1.658    0.397
        16  -7.9822    138.5089    228.4950   5.8463945638e+01   9.1533629566e+00    0.1308853    0.1050564  -2.95 0.0008102384    1.043    0.041
        17  -8.4015    223.9503    225.3304   4.1799683653e+01   1.0191070651e+00    0.3021732    0.1494479   1.34  0.001405826    2.437    0.590
        18  -7.7758    161.8699    224.1963   5.2839856849e+01   7.3105827243e+00    0.1773254    0.1214106 -12.70 0.0005498364    1.322    0.244
        19  -7.5190    207.1733    222.2266   4.4069946347e+01   2.9832964712e+00    0.2040833   0.09402999 -14.80 0.0009610126    2.882    0.653
        20  -7.6225    179.7260    221.6576   4.8920729164e+01   5.8145624631e+00    0.1257754   0.07462138 -17.24 0.0003794481    1.617    0.382
        21 -10.0818    241.2761    217.2511   3.8003297217e+01   6.4585642159e-01    0.3601604    0.1952399 -25.85  0.001897894    1.397    0.284
        22  -8.5854    234.4062    217.0427   3.8974173613e+01   1.2566316219e+00    0.3677463     0.086504 -38.00  0.001642164    3.238    0.691
        23  -7.7466    143.6518    216.2546   5.5541784528e+01   1.0797774006e+01    0.1794603    0.1058196 -36.84 0.0007162544    1.629    0.386
        24  -9.0528    218.9068    208.8826   4.0107189695e+01   3.8258956570e+00    0.5982472    0.1560675 -45.55  0.002416858    3.914    0.745
        25  -9.9417    218.4919    198.6758   3.8567671743e+01   5.3800399789e+00    0.2741141    0.2414232 -34.57 0.0002293198    1.420    0.296
        26  -7.9689    181.0458    249.2680   5.2643026626e+01   1.4233106498e+00    0.1630474    0.1153177   0.82 0.0007843983    1.111    0.100
        27 -14.2017    244.7142    171.6314   3.0459921283e+01   6.6562754552e+00     2.581914     1.366969 -40.46   0.01004024    1.465    0.318
        28  -7.5455    193.2757    248.3137   5.0266436524e+01   4.6726736582e-01    0.1149283   0.06474393 -14.78 0.0004604338    1.562    0.360
        29 -13.3857    240.4051     80.6391   1.5272400272e+01   1.9986377735e+01    0.5538099    0.2803734  57.00    0.0035165    2.520    0.603
        30 -12.6383    250.0853    119.4346   2.1135534631e+01   1.3428625100e+01    0.4167835    0.1379436 -40.68  0.001668026    2.199    0.545
        31 -14.0152    241.3391    140.2384   2.5659437261e+01   1.1543804621e+01      1.13684    0.6641992 -24.37  0.005052032    1.808    0.447
        32 -13.7823    248.2178    133.0124   2.3640337446e+01   1.1758125299e+01     1.264002    0.2827511 -42.74  0.002933162    3.327    0.699
        33 -14.7651    238.5849    126.0525   2.3528035297e+01   1.3933817941e+01     1.070253    0.7600839  20.37  0.005454618    2.087    0.521
        34 -12.7782    241.5267    107.1643   1.9887655762e+01   1.6231363364e+01    0.2504421    0.2237768   2.79  0.001373685    1.488    0.328
        35  -8.0328    138.9974    246.0422   6.0717115571e+01   6.0387777291e+00    0.2055154    0.1230988 -12.66  0.001127015    1.708    0.414
        36 -14.2026    246.1045     86.9951   1.5899881019e+01   1.8345425151e+01    0.5109755    0.3812864 -35.64   0.00393116    1.260    0.206
        37 -13.7122    240.0936    113.0940   2.1083583582e+01   1.5589712238e+01    0.4291963    0.3498981 -23.73  0.001162382    1.324    0.245
        38 -14.2407    248.8459    110.2626   1.9690283050e+01   1.4847221121e+01    0.4808682    0.2633617 -36.03  0.002144455    1.462    0.316
        39  -8.2532    213.8740    209.0917   4.0946541031e+01   4.2847983922e+00    0.2677969    0.0949166 -37.15  0.001328113    2.297    0.565
        40  -9.6548    236.8292    207.6702   3.7206717966e+01   2.3350335616e+00    0.3656876    0.1273221 -30.36   0.00181415    2.639    0.621
        41  -8.9872    124.0043    206.0589   5.8551236163e+01   1.5193233931e+01    0.1956197    0.1685485  -1.00            0    1.018    0.017
        42  -8.7815    207.0158    202.7565   4.1076309477e+01   5.9416444696e+00    0.3181658    0.1501848 -47.06  0.001682763    2.201    0.546
        43  -9.0993    197.0670    203.4259   4.2886514197e+01   6.8956126038e+00    0.2684883    0.1954202 -19.42 0.0008993926    1.115    0.103
        44  -8.5746    210.8522    200.8188   4.0132957369e+01   5.8401097932e+00    0.3015655    0.1691136 -52.04  0.001590404    2.365    0.577
        45  -8.1595    167.4553    201.2446   4.8117904601e+01   1.0667514443e+01    0.2316703    0.1074544 -40.89  0.001025135    1.961    0.490
        46  -7.8708    161.6877    199.9014   4.9080168727e+01   1.1616070625e+01    0.2556143   0.09603653 -40.83  0.001080233    2.463    0.594
        47  -7.9320    150.6187    200.2467   5.1496303150e+01   1.2940403132e+01    0.1889037    0.1081718 -36.19 0.0007768817    1.656    0.396
        48  -7.8029    177.5520    197.2419   4.5464365660e+01   1.0152692962e+01    0.2352329    0.1128382 -47.99  0.001143137    2.123    0.529
        49  -7.8993    186.7865    196.9801   4.3682677718e+01   9.1060007756e+00    0.1807089     0.118375  -3.52   0.00104357    1.598    0.374
        50  -7.6521    139.3003    197.3025   5.3553467636e+01   1.4970807955e+01    0.1393406     0.093972 -14.48 0.0003858709    1.587    0.370
        51  -7.8348    202.3649    195.7896   4.0732663210e+01   7.5341971172e+00    0.1741923     0.087508 -33.59 0.0009490084    1.681    0.405
        52  -7.7903    209.4281    193.7325   3.9220019216e+01   7.0863675087e+00    0.1683206   0.08681793 -32.01 0.0009466938    1.623    0.384
        53  -9.4178    198.8785    191.5744   4.0632775693e+01   8.6034215891e+00    0.2900193    0.1827963 -27.65 0.0005155414    1.351    0.260
        54  -8.2094    224.1494    191.0993   3.6483371379e+01   5.9336679246e+00    0.2499929    0.1177427 -30.78  0.001407809    1.796    0.443
        55  -7.8230    168.0285    191.9790   4.6458030285e+01   1.2259883820e+01    0.2104123    0.1338501 -17.13  0.001078301    1.661    0.398
        56 -13.4619    217.8098    110.8289   2.3216736126e+01   1.9040118565e+01      1.30276    0.8829507 -31.72 0.0005795355    1.394    0.283
        57  -8.2999    172.6669    189.1617   4.5053636706e+01   1.2178611587e+01    0.2472687    0.1491092  -3.26  0.001224874    2.098    0.523
        58 -12.5911    220.3037     81.9238   1.7410801883e+01   2.2849754763e+01    0.8410648     0.497458  83.00 0.0001757541    2.361    0.576
        59  -8.0309    149.7979    185.8116   4.9244891316e+01   1.5824489685e+01    0.2359701    0.1286449 -15.16 0.0009447801    2.813    0.645
        60  -8.3301    167.0133    184.4711   4.5370617424e+01   1.3762245610e+01    0.2486901    0.1541408 -30.73  0.000783065    1.512    0.338
        61  -9.1010    211.5582    181.6704   3.6876734543e+01   8.7413435731e+00    0.3156352    0.1572735 -40.37  0.001325753    1.656    0.396
        62  -7.8642    209.4027    177.8212   3.6567907107e+01   9.6002944725e+00    0.1980277    0.1331868 -21.72  0.001020735    1.342    0.255
        63  -8.4786    201.5666    182.4977   3.8647398712e+01   9.7681906907e+00    0.2340886    0.1487055 -34.75  0.001427706    1.297    0.229
        64  -7.9919    182.7089    180.8611   4.1694701115e+01   1.2367090406e+01    0.2061761    0.1312539 -28.91  0.000681571    1.421    0.297
        65  -8.4529    191.9733    177.9315   3.9507697593e+01   1.1696919638e+01    0.2375194    0.2133825 -57.02  0.001610407    1.468    0.319
        66  -7.3728    123.3171    179.3347   5.4354374665e+01   2.0903008780e+01    0.1511956    0.1031023 -16.60 0.0007048049    1.695    0.410
        67 -13.4208    224.0985     92.9096   1.9107092500e+01   2.0720198256e+01    0.7911029     0.647069  63.04  0.005910351    1.511    0.338
        68  -7.2978    138.6492    178.3266   5.0456929374e+01   1.8892620294e+01    0.1349806    0.1108741  68.48 0.0007048312    1.761    0.432
        69  -8.1910    183.6424    175.5170   4.0579430320e+01   1.3181983874e+01    0.2281717    0.1268527 -27.70  0.001155977    1.822    0.451
        70  -7.2233    160.3105    174.3376   4.4940906234e+01   1.6580635372e+01    0.1405369   0.09390835 -15.57 0.0007044605    1.686    0.407
        71  -9.3899     47.5886    172.0774   7.5311174739e+01   3.2886276631e+01    0.2609847    0.2302478  19.33 0.0003776409    1.098    0.089
        72  -6.8750    170.3041    171.3126   4.2359783347e+01   1.5744278061e+01    0.1341998   0.09147968 -14.84 0.0005218199    1.615    0.381
        73  -9.3124    192.0156    167.8246   3.7707646924e+01   1.3414763186e+01    0.3351967    0.1549451 -47.66 0.0004749655    2.090    0.521
        74  -7.8730    177.4940    170.0067   4.0732871900e+01   1.4986611267e+01    0.1912678   0.09377834 -26.73 0.0008104248    2.541    0.606
        75  -7.9890    183.1560    169.1428   3.9523062708e+01   1.4368753170e+01    0.1877911    0.1427087 -24.62 0.0002524814    1.172    0.147
        76  -7.7716    250.3713    244.7944   4.0628023623e+01  -3.5628562321e+00    0.1455078   0.06144735 -29.67 0.0007635637    1.721    0.419
        77  -9.4234    216.9630    166.7994   3.3507944607e+01   1.0449844179e+01    0.2648522    0.1935344  -0.13 0.0004002557    1.522    0.343
        78  -9.1186    214.7393    163.2358   3.3222235849e+01   1.1279761352e+01    0.4582221    0.2505392   0.67  0.001958785    4.050    0.753
        79  -7.5174    195.7390    162.9758   3.6196228761e+01   1.3747818237e+01    0.1555326   0.09096923 -39.67 0.0005081042    1.444    0.307
        80  -8.6516    190.9745    158.8235   3.6245409906e+01   1.5102661691e+01    0.2600904    0.1572637 -30.58 0.0006041082    1.541    0.351
        81  -7.0699    159.3184    159.3246   4.2331919049e+01   1.9619158208e+01    0.1404462   0.09823152 -13.68 0.0003423117    1.674    0.403
        82  -8.4312    196.8962    158.0063   3.5097674131e+01   1.4433288954e+01    0.1881279    0.1518732 -30.01 0.0005066848    1.028    0.027
        83  -7.5119    167.7850    158.0060   4.0362400935e+01   1.8590819001e+01    0.1789841   0.09767351 -43.79 0.0008619528    1.664    0.399
        84  -7.8019    209.3352    151.5314   3.1952305500e+01   1.3840060904e+01    0.2823028    0.1353564 -40.98  0.001494944    1.705    0.413
        85  -7.6724    195.8184    154.1624   3.4567170527e+01   1.5231316973e+01    0.1697629    0.1267276 -22.52 0.0005982799    1.275    0.216
        86  -8.4396    212.6804    148.3658   3.0881929928e+01   1.3907080746e+01    0.2096053    0.1552076 -53.97 0.0008473089    1.476    0.322
        87  -8.3936    192.5010    147.5096   3.3868099694e+01   1.6834384212e+01     0.261511    0.1852101 -22.92 0.0008802268    1.432    0.302
        88  -9.8259    186.8528    145.9113   3.4514568152e+01   1.7937102286e+01    0.3648335    0.3178925 -55.15  0.001650206    1.263    0.208
        89  -7.9015    133.4609    147.0094   4.5661061966e+01   2.6285326891e+01    0.2278042    0.1351854 -45.70 0.0007851404    1.621    0.383
        90 -13.1593    235.7481    106.4909   2.0369599163e+01   1.7109960031e+01    0.3522291    0.2570612 -24.52   0.00141362    1.501    0.334
        91 -10.6776    199.8815    131.4035   2.9610935569e+01   1.8462755496e+01     1.234167    0.3082452 -47.69  0.004141378    4.229    0.764
        92 -12.9202    192.2715    128.5714   3.0229187261e+01   2.0095994910e+01    0.4043098     0.263097 -37.00 0.0004444116    1.347    0.258
        93  -8.3930    150.9165    121.0822   3.6122799768e+01   2.8477036862e+01    0.2052486    0.1922743 -24.72 0.0004686153    1.077    0.072
        94  -8.1114    163.4060    113.4819   3.1982672720e+01   2.7616183435e+01    0.1335582    0.1197498 -46.36 5.267461e-05    1.018    0.017
        95  -8.5131    194.1952    111.4553   2.6495922003e+01   2.2627327123e+01    0.2423658    0.1512173 -48.11 0.0006643144    1.405    0.288
        96  -7.9095    178.4270    106.2168   2.7805020135e+01   2.6185852887e+01    0.3230417    0.1093692 -43.45  0.001287228    2.586    0.613
        97  -8.5078    154.9310    106.5185   3.2003170464e+01   3.0460116682e+01    0.2596408    0.1796667 -30.19 0.0007375017    1.590    0.371
        98  -8.8259    192.8608    103.3958   2.5032551141e+01   2.4149388087e+01    0.2759149    0.1519898 -43.33  0.000778419    1.542    0.351
        99  -9.1919    193.0123     98.7082   2.4037578757e+01   2.4868151608e+01    0.1904281    0.1458637 -59.28 0.0006050874    1.247    0.198
       100  -9.1860    187.2274    100.7609   2.5291345856e+01   2.5539639537e+01    0.3672787    0.1925679 -49.04  0.001873158    1.725    0.420
       101  -8.9410    198.5269    101.8402   2.3929720219e+01   2.3446889443e+01    0.1838341    0.1718847  71.85 0.0004635222    1.242    0.195
       102  -7.8231    179.4532     98.9386   2.6065208643e+01   2.7215006245e+01    0.1950896    0.1119021 -42.41 0.0005731222    1.539    0.350
       103  -8.1178    164.9577     93.0232   2.7067794848e+01   3.0903298655e+01       0.2022    0.1634765  -1.08  0.001129899    1.737    0.424
       104  -8.0684     60.8879     91.3561   5.4791180768e+01   5.2006357378e+01    0.2100626     0.183168  25.53 0.0005147413    1.112    0.100
       105  -8.6073    180.9490     88.9290   2.3648490458e+01   2.8556378245e+01    0.2484145    0.1807943  60.95 0.0008153038    1.521    0.343
       106 -13.4540    224.6543    138.7151   2.7481538440e+01   1.3846211872e+01    0.8047866    0.4901438 -50.54  0.002559581    1.585    0.369
       107  -8.5437    175.9028     80.9391   2.2590731593e+01   3.0753467782e+01    0.1892138    0.1611082 -61.15 0.0003967243    1.046    0.044
       108  -9.8236    185.7433     78.3139   2.0657012090e+01   2.9301731963e+01    0.2655118    0.2152055  85.97  0.000425838    1.304    0.233
       109  -7.8728    142.7372     76.3968   2.6943680276e+01   3.8189698435e+01    0.1773527    0.1245484  48.94 0.0005222975    1.516    0.340
       110  -9.3356    212.2730     74.6628   1.6815482053e+01   2.5158622923e+01     0.201285    0.1667949 -51.30 0.0002989145    1.068    0.064
       111  -7.8346    175.0526     75.2990   2.1425983420e+01   3.1780420941e+01    0.1686066    0.1495935 -70.48 0.0004671781    1.047    0.045
       112  -7.7184    157.9841     74.2916   2.3753730966e+01   3.5343356348e+01    0.1733595    0.1579305 -73.90 0.0003726654    1.025    0.025
       113  -8.1814    196.3695     68.9595   1.7355001497e+01   2.8709861782e+01    0.1889461    0.1457187 -78.86 0.0006501732    1.292    0.226
       114  -9.3138    220.9021     63.0788   1.3723720911e+01   2.5281600049e+01    0.2839047    0.1410856 -34.98 0.0004612755    1.869    0.465
       115  -7.6187    211.4542     66.4968   1.5270961190e+01   2.6405862139e+01    0.1156396   0.09020589 -55.73 5.038557e-05    1.021    0.020
       116  -9.2617    203.4234     65.2795   1.5828467223e+01   2.7958233165e+01     0.277733    0.2003808 -86.64 0.0008830319    1.466    0.318
       117  -7.4640    208.5038     62.4418   1.4742426438e+01   2.7450868091e+01    0.1145439   0.09171413 -57.24 0.0001307638    1.010    0.010
       118  -8.3833    197.4437     61.5565   1.5672604395e+01   2.9530667017e+01      0.22135    0.1578236 -37.26 0.0007358084    1.369    0.270
       119  -8.7214    194.9048     58.3131   1.5248739357e+01   3.0429603480e+01    0.2190943    0.1759819 -69.86 0.0005395512    1.102    0.092
       120  -9.9517    188.2280     60.8172   1.6514724289e+01   3.1338327861e+01    0.2110474    0.1781922 -62.88 0.0002578438    1.022    0.022
       121  -7.5544    171.4630     61.9997   1.8824605504e+01   3.4440060173e+01    0.1789735    0.1121636 -40.88 0.0004198598    1.486    0.327
       122  -7.3925    214.5044     61.5581   1.4001652261e+01   2.6541542791e+01    0.1121962   0.08948143 -55.75 0.0001521143    1.028    0.027
       123  -7.5900    210.3994     59.4775   1.3965603778e+01   2.7512264773e+01    0.1138938   0.08874222 -55.19 0.0001390525    1.020    0.020
       124  -9.2489    217.9329     53.0453   1.2032813732e+01   2.7048517462e+01    0.2146154     0.150936 -40.04  0.000408124    1.303    0.232
       125  -7.7527    212.7031     52.4248   1.2350569274e+01   2.8015837624e+01    0.1288381    0.1015294  68.40 0.0006940198    1.486    0.327
       126 -12.9244    225.2578    124.2297   2.4788582173e+01   1.5961422741e+01    0.3653152     0.297429 -41.30 0.0005092183    1.046    0.044
       127  -7.9388    215.4691     41.4432   9.9589032834e+00   2.8877115427e+01    0.1093508    0.0845772 -59.27 0.0002066365    1.022    0.021
       128  -8.1272    226.2528     40.6009   9.0239223871e+00   2.7163387171e+01    0.1216133     0.093303  70.65  0.000334718    1.560    0.359
       129  -8.4657    176.3149    244.2205   5.2846516973e+01   2.6166141227e+00    0.2300185    0.1336795 -19.28  0.000766138    1.552    0.356
       130  -7.6805    203.8341     35.2364   9.5996179752e+00   3.1662166832e+01    0.1313967    0.1262917 -55.10 0.0006460025    1.372    0.271
       131  -7.9284    232.1852     31.7550   7.0078864487e+00   2.7201409834e+01    0.1244327    0.1104535 -48.89 0.0005953552    1.352    0.260
       132 -10.1916    235.8763     27.8783   6.0960304044e+00   2.7035167813e+01    0.2369075    0.1884725  75.74  0.001194571    1.532    0.347
       133 -12.5796    250.3506    141.9083   2.4893497484e+01   1.0259517422e+01    0.4737535    0.1681561 -36.12 0.0004826753    2.249    0.555
       134  -8.5828    207.0854     24.8186   7.2496137404e+00   3.2242733988e+01    0.1747276    0.1396555 -46.19 0.0003586751    1.252    0.201
       135 -13.3985    237.4016     88.5669   1.6972084923e+01   1.9360723052e+01    0.3255945    0.2408607 -45.38 0.0005557911    1.042    0.041
       136  -7.9464    195.9481    243.9694   4.9184616614e+01   8.5043534200e-01    0.1874958    0.1021795 -13.29  0.001123013    1.703    0.413
