#   1 NUMBER                 Running object number                                     
#   2 MAG_AUTO               Kron-like elliptical aperture magnitude                    [mag]
#   3 X_IMAGE                Object position along x                                    [pixel]
#   4 Y_IMAGE                Object position along y                                    [pixel]
#   5 X_WORLD                Barycenter position along world x axis                     [deg]
#   6 Y_WORLD                Barycenter position along world y axis                     [deg]
#   7 A_WORLD                Profile RMS along major axis (world units)                 [deg]
#   8 B_WORLD                Profile RMS along minor axis (world units)                 [deg]
#   9 THETA_WORLD            Position angle (CCW/world-x)                               [deg]
#  10 FWHM_WORLD             FWHM assuming a gaussian core                              [deg]
#  11 ELONGATION             A_IMAGE/B_IMAGE                                           
#  12 ELLIPTICITY            1 - B_IMAGE/A_IMAGE                                       
         1 -14.8303    243.6000      9.9496   3.5508879319e+02   2.3280068482e+01     1.892464    0.8757396 -47.16   0.01052698    1.640    0.390
         2 -11.9727     22.4454     13.5806   4.7202668849e+01   7.4838293724e+01    0.4260722    0.2461709   5.55  0.001999967    2.286    0.563
         3 -12.4540     27.4019      7.8794   3.9634581465e+01   7.5125784563e+01    0.5075422    0.2087342  36.55  0.002231002    2.386    0.581
         4 -11.9563     10.8290      1.8676   4.9420950266e+01   7.8335088182e+01    0.6692042    0.1976939  28.80  0.002673202    3.361    0.702
         5 -13.3888      8.8362     13.6072   5.8683852900e+01   7.6276266328e+01    0.8744478    0.3852462 -40.70  0.004170884    2.022    0.505
         6 -11.5574      2.2002      3.9140   5.9691411758e+01   7.8733069550e+01     0.447796    0.1926607 -46.65  0.002248541    1.917    0.478
         7 -12.1193     15.7596      8.5227   4.9492347853e+01   7.6582896544e+01    0.4435851    0.2327695 -23.69  0.002074674    2.295    0.564
         8 -10.4448    160.3210      2.6606   3.5872828606e+02   4.3209391475e+01    0.1522288   0.08631183 -59.47 0.0007050282    1.716    0.417
         9 -11.5885     19.0407      2.6147   4.2413396063e+01   7.7193851981e+01    0.3692147    0.2388756   6.48  0.002014271    1.713    0.416
        10 -11.2703    219.0080    245.4972   4.5201053544e+01  -2.5690317078e+00    0.2049756    0.1173361  -9.82  0.001382917    1.653    0.395
        11 -12.3946    243.3765    245.0879   4.1268430787e+01  -5.1185693668e+00    0.4330585    0.2007205 -12.27  0.002671615    2.198    0.545
        12 -11.3718    249.0446    248.9862   4.0954758181e+01  -6.0499291357e+00    0.3350039    0.1563531 -19.96  0.002268848    1.931    0.482
        13 -12.0488    249.2545    240.2688   3.9691248548e+01  -5.2538666825e+00    0.3636091    0.1795608 -21.05  0.002199454    1.784    0.439
        14 -10.6445    212.9962    250.4848   4.6877583802e+01  -2.4217526742e+00    0.1636033   0.07872261  27.35 0.0008770993    1.605    0.377
        15 -11.0653    200.9714    249.3686   4.8771779748e+01  -9.4008775342e-01    0.2918423    0.1361101  14.03  0.001596607    2.265    0.558
        16 -11.0431     76.5801    247.8777   7.2809377494e+01   1.4739527985e+01    0.2613141   0.09833329  42.89  0.001343257    1.945    0.486
        17 -11.5731    124.8395    250.0897   6.3153723431e+01   8.3930782183e+00    0.2896148    0.1238374  25.02   0.00143976    2.161    0.537
        18 -11.7935    193.0080    244.4898   4.9518476237e+01   5.4685187510e-01     0.311713    0.1393251  15.40  0.001556701    2.601    0.616
        19 -12.1571    224.2624    241.3868   4.3765873414e+01  -2.7223003138e+00    0.3652761    0.1649813 -28.64  0.002260904    2.215    0.549
        20 -11.1500     64.7985    249.1137   7.5320011965e+01   1.5917931702e+01    0.2924939   0.09898813  41.93  0.001480359    2.027    0.507
        21 -10.3904     45.5268    244.5041   7.9016347581e+01   1.8839594430e+01    0.2200468     0.058542  39.09  0.001035666    2.303    0.566
        22 -12.1011      3.9744    242.6614   8.7329975065e+01   2.3219679016e+01    0.4270074    0.1795515  58.13   0.00260481    1.767    0.434
        23 -11.2780     89.7712    247.8714   7.0085387274e+01   1.3141269840e+01     0.244832    0.1022045  47.51   0.00125776    2.109    0.526
        24 -10.4144     62.7801    241.5946   7.5249321223e+01   1.7407965833e+01     0.180039   0.07380554  40.16 0.0009519543    1.719    0.418
        25 -10.3603     38.0110    241.0011   8.0394661519e+01   2.0244671049e+01    0.1996559   0.09037841  52.71  0.001140302    1.740    0.425
        26 -11.7565     16.6277    239.2190   8.4712226563e+01   2.2681494246e+01    0.4929622    0.1000575  41.36  0.002328122    2.539    0.606
        27 -10.5472     29.4877    241.9662   8.2192281789e+01   2.0949013743e+01    0.2435054   0.09980264  43.16  0.001390645    1.653    0.395
        28 -10.8257     54.1479    239.9758   7.6965009159e+01   1.8671869683e+01    0.1997576   0.09573212  59.90  0.001091522    2.055    0.513
        29 -11.1954    124.8083    239.6023   6.2053655701e+01   9.9331533159e+00     0.183901   0.08310229  39.13 0.0009606086    1.746    0.427
        30 -10.8911     82.7994    238.5987   7.0784354365e+01   1.5511984134e+01    0.1853265    0.0786914  39.84 0.0009578383    1.726    0.421
        31 -11.7951    231.7092    234.5520   4.1583382455e+01  -2.8315816451e+00    0.2470099    0.1194432 -19.33  0.001522062    2.010    0.503
        32 -11.8501    241.9841    237.4158   4.0386877281e+01  -4.2280083775e+00    0.3530053    0.1651042 -11.86  0.002017413    2.230    0.552
        33 -10.9527    248.0996    233.6554   3.8904266714e+01  -4.4940295998e+00    0.1975123    0.1158886 -12.78 0.0009686768    1.391    0.281
        34 -12.4009    247.0864    226.5539   3.7999821252e+01  -3.6754770664e+00    0.3795598    0.2059035 -14.80  0.002479769    1.584    0.369
        35 -12.2367    236.9954    227.6164   3.9718961531e+01  -2.6882425474e+00    0.3395471    0.1430859 -22.27  0.001921631    2.360    0.576
        36 -10.2843     12.1082    226.4117   8.5240806459e+01   2.5437761792e+01    0.2405078   0.07708738  55.56  0.001189028    2.348    0.574
        37 -11.3995      2.4484    220.5924   8.7123907934e+01   2.7387825051e+01    0.2854318    0.1558947  72.23  0.001618779    1.581    0.368
        38 -11.4728     15.3562    218.7215   8.4282031873e+01   2.6608689226e+01     0.550327   0.09819509  50.79  0.002190502    3.439    0.709
        39 -11.2295      5.8890    227.4076   8.6574439075e+01   2.5804734049e+01    0.2882667    0.1370678  60.24  0.001745186    1.640    0.390
        40 -12.1735    248.1574    213.8442   3.5876090246e+01  -2.4660828320e+00    0.3559839    0.1966486 -17.59  0.002378331    1.533    0.348
        41 -11.0228      3.1497    212.2343   8.6755829317e+01   2.8956894134e+01    0.3187788     0.122186  44.66  0.001730567    1.808    0.447
        42 -10.6141    246.9826    206.1703   3.4826080800e+01  -1.5004462045e+00    0.1953413    0.1267098 -17.72  0.001082932    1.274    0.215
        43 -10.9703    236.5702    206.6803   3.6516060893e+01  -3.3614328486e-01    0.2116284    0.0895973 -27.02  0.001154701    2.191    0.544
        44 -10.4431      2.2742    206.1202   8.6783497422e+01   3.0255156889e+01    0.2303133    0.1169878  65.58  0.001345414    1.614    0.380
        45 -11.5102     13.3184    204.4411   8.4207349859e+01   2.9649408347e+01    0.4171532     0.156896  54.67  0.002073174    2.089    0.521
        46 -10.3369    227.3064    204.0406   3.7571871215e+01   1.1088482703e+00    0.1848952   0.07333305 -17.23 0.0007042671    4.268    0.766
        47 -10.5350    250.4751    200.0308   3.3298113879e+01  -1.2230544922e+00    0.2678362   0.08850244 -31.17  0.001346948    2.677    0.626
        48 -10.4341    243.5783    199.6611   3.4275508234e+01  -3.7036415662e-01    0.2094241   0.08804771 -26.60  0.001140421    2.145    0.534
        49 -11.8945      5.6366    195.6646   8.5688886917e+01   3.2143955807e+01    0.4358194    0.1961809  55.27  0.002352918    1.738    0.424
        50 -11.8605     19.0347    193.7968   8.2388070306e+01   3.1366848343e+01    0.6207339    0.1775669  60.14  0.002378316    3.455    0.711
        51 -11.3803      3.6811    188.3098   8.5912128261e+01   3.3878439710e+01    0.2906064    0.1334336  56.13   0.00155064    1.730    0.422
        52 -11.1259    249.5822    184.2445   3.0754080733e+01   6.8975974618e-01    0.2706732   0.09008554 -29.96  0.001296116    2.642    0.621
        53 -10.4633     16.3573    181.6814   8.2462409518e+01   3.4272321158e+01    0.2197071    0.1071368  57.06  0.001122493    1.738    0.425
        54 -12.8835      6.8725    174.8477   8.4603454670e+01   3.6616372933e+01    0.6720796    0.2413784  86.19  0.002894538    2.754    0.637
        55 -10.8248     19.8083    172.1830   8.1033526271e+01   3.6130060934e+01     0.279281   0.08970705 -88.99  0.001029698    3.496    0.714
        56 -12.3872     10.6220    152.5204   8.2469270972e+01   4.1587497597e+01    0.6419802    0.1822956  52.01  0.002422869    3.108    0.678
        57 -10.6207    249.2305    148.9719   2.4342355017e+01   5.0792747954e+00    0.1624208   0.08071147 -30.62  0.000885651    1.669    0.401
        58 -11.4620     10.3949    136.8240   8.1561342680e+01   4.5497743117e+01    0.4792204    0.2186197 -77.31  0.002210463    1.975    0.494
        59 -11.4586      5.6133    125.3279   8.2362640373e+01   4.8741324187e+01    0.5488688    0.2320546  76.05   0.00230628    2.409    0.585
        60 -11.4192    248.7696    118.9778   1.8427508717e+01   9.0622424992e+00    0.1722296   0.08351823 -31.02 0.0008907228    1.687    0.407
        61 -11.1138     10.4222    113.1503   7.9715518434e+01   5.1575809970e+01    0.6099669    0.1926948 -88.96  0.002050128    3.544    0.718
        62 -11.0705      2.8851     95.2246   8.1042079646e+01   5.6682532124e+01    0.5021563    0.1928322  88.04   0.00196766    2.666    0.625
        63 -10.8425     10.3431     70.3199   7.4546171988e+01   6.2761372471e+01    0.1471366   0.08462042 -41.54 0.0007049734    1.723    0.419
        64 -11.2045     16.7867     54.3180   6.7742927290e+01   6.6383366857e+01    0.5328367    0.1807221 -66.77  0.002029276    2.652    0.623
        65 -11.6921      2.9859     51.6124   7.5303615399e+01   6.7858761847e+01    0.5573452    0.1714231 -58.09  0.002270798    2.413    0.586
        66 -12.0169     12.2546     40.7737   6.6830214508e+01   6.9988506846e+01    0.6751073    0.1832134 -50.26  0.002539004    2.826    0.646
        67 -11.7940      1.4198     38.4644   7.3549412000e+01   7.1128916736e+01    0.4912339     0.111865 -72.42   0.00162663    3.964    0.748
        68 -12.2503     20.2380     27.4715   5.6289364721e+01   7.2319110850e+01    0.5867421    0.1924597 -42.25   0.00220946    2.950    0.661
        69 -11.7892    167.8645    248.2713   5.4594829145e+01   3.1756966206e+00    0.3982543    0.1679456  15.60  0.001640955    3.762    0.734
        70 -10.3970     34.2945     16.9850   4.0812008798e+01   7.2523332470e+01    0.2865744    0.1596109  12.97  0.001188066    2.735    0.634
        71 -11.5336    152.0127    249.5167   5.7754090835e+01   5.0102567883e+00    0.3187341   0.08643583  32.66  0.001374448    2.776    0.640
        72 -12.1202    142.3912    248.7886   5.9539422370e+01   6.3318141961e+00    0.3648285    0.1306321  31.14  0.001779514    2.135    0.532
        73 -10.3314     51.0038    250.0000   7.8188159264e+01   1.7318491447e+01    0.1917982   0.04881677  30.32 0.0008078278    2.980    0.664
        74 -11.1349     20.8310    248.5525   8.4174826884e+01   2.0660857108e+01    0.3299842    0.1026772  43.16  0.001787834    1.971    0.493
        75 -11.9526     99.7604    246.0727   6.7868703731e+01   1.2178987770e+01    0.3820069    0.2099226  66.81  0.001966455    2.922    0.658
        76 -10.7965     34.6287    247.9164   8.1398971918e+01   1.9402362498e+01    0.2533433   0.08176313  42.56  0.001333552    1.976    0.494
        77 -12.2255    234.2733    244.3649   4.2580812921e+01  -4.1055549592e+00    0.3494542    0.1800452  -0.68  0.002224062    1.907    0.476
