#   1 NUMBER                 Running object number                                     
#   2 MAG_AUTO               Kron-like elliptical aperture magnitude                    [mag]
#   3 X_IMAGE                Object position along x                                    [pixel]
#   4 Y_IMAGE                Object position along y                                    [pixel]
#   5 X_WORLD                Barycenter position along world x axis                     [deg]
#   6 Y_WORLD                Barycenter position along world y axis                     [deg]
#   7 A_WORLD                Profile RMS along major axis (world units)                 [deg]
#   8 B_WORLD                Profile RMS along minor axis (world units)                 [deg]
#   9 THETA_WORLD            Position angle (CCW/world-x)                               [deg]
#  10 FWHM_WORLD             FWHM assuming a gaussian core                              [deg]
#  11 ELONGATION             A_IMAGE/B_IMAGE                                           
#  12 ELLIPTICITY            1 - B_IMAGE/A_IMAGE                                       
         1 -12.3437    178.4639     43.3253   7.5360970022e+01   3.5295606807e+01      1.35026    0.9419736  77.70  0.006704739    1.476    0.323
         2 -13.4035    189.4270     27.8993   6.9497284004e+01   3.4562358768e+01     1.293115      1.17679 -45.14  0.004452265    1.204    0.169
         3 -13.6109    199.2784     13.5976   6.4586170969e+01   3.3787327531e+01     1.456283     1.113385  42.50  0.008443849    1.555    0.357
         4  -9.0313    232.9122     11.4077   6.0584768010e+01   2.6056528465e+01    0.2246379    0.1806921 -38.43 0.0007499468    1.411    0.291
         5 -10.2241    164.8052     11.9827   6.8741273622e+01   4.2393735057e+01     0.236183    0.1731678  67.44 0.0004622822    1.183    0.155
         6 -10.8199      1.6314      2.8153   1.1400657705e+02   7.1930298780e+01    0.4640143    0.1786026 -51.17  0.002174213    4.272    0.766
         7 -10.5102     13.4625      3.4602   1.0864059120e+02   7.0903964733e+01    0.2265345    0.2042055 -63.91  0.001717107    2.432    0.589
         8  -9.8981     64.9555    232.8382   1.4083688965e+02   1.8589515181e+01    0.2668899    0.1575726 -71.15 0.0009756723    1.648    0.393
         9 -11.4243    165.2169    250.1260   1.2419419282e+02  -7.1695995709e-01     0.977027    0.1810499  40.09  0.002832307    5.187    0.807
        10 -12.2993    178.1908    247.8978   1.2144632715e+02  -2.6030282262e+00     0.996052    0.3028492  43.85  0.003963366    2.730    0.634
        11 -10.0068    121.5061    248.5359   1.3213327679e+02   6.9632681686e+00    0.2678612     0.198373 -82.90  0.001001248    1.514    0.340
        12  -8.3444     86.0383    250.4930   1.3873893102e+02   1.2219377748e+01    0.1762256   0.09640127  47.71 0.0006070171    1.522    0.343
        13  -8.9931     80.5588    248.9991   1.3955922616e+02   1.3302131249e+01    0.2376667    0.1047464 -66.85  0.001238279    2.400    0.583
        14  -9.6528     82.4665    244.1646   1.3876469751e+02   1.3908305416e+01    0.2973517    0.1304188 -59.50  0.001519536    2.510    0.602
        15 -12.7955     77.0820    165.7831   1.3022292149e+02   3.1411527667e+01    0.6411099    0.5675606 -30.12   0.00192297    1.483    0.326
        16 -13.7672     68.2232    145.0197   1.2898754430e+02   3.7575200461e+01     4.466753     2.374185  74.74   0.01664865    3.414    0.707
        17 -10.4889      8.2613    195.1375   1.4802474391e+02   3.2957039670e+01    0.2351485     0.194686 -87.24 0.0004416534    1.238    0.192
        18 -10.2895     13.7426    193.6330   1.4689702406e+02   3.2756472273e+01    0.3102218    0.1663688  59.77 0.0005885012    1.701    0.412
        19  -9.5039     56.7803    189.2017   1.3791672866e+02   2.8866200683e+01    0.3046783    0.2067425 -65.30  0.001503771    1.392    0.281
        20 -10.2876     18.4693    189.0399   1.4562609584e+02   3.3276956568e+01    0.2061599    0.1785206 -75.49  0.001536489    1.330    0.248
        21 -11.3518     77.3120    186.2785   1.3315249985e+02   2.6657457542e+01    0.4291924    0.3023495 -59.16  0.002339896    1.435    0.303
        22 -10.9893     81.0492    180.4460   1.3151021884e+02   2.7420763796e+01    0.3046058    0.2372781 -52.74 0.0006777176    1.423    0.297
        23  -8.5547    202.6770    185.3394   1.0572614477e+02   3.3915860285e+00    0.1413726     0.115691  89.45 0.0007050841    1.721    0.419
        24  -8.1052     90.4680    184.9544   1.3006638181e+02   2.4924423134e+01    0.1927129    0.1097652  89.93 0.0008071446    2.378    0.579
        25 -13.9982      8.5725    207.3085   1.4882472188e+02   3.0410354035e+01     1.011605    0.7289287  39.05  0.003282099    1.738    0.425
        26  -9.0748      5.3952    183.2606   1.4766641245e+02   3.5727367537e+01    0.1832674    0.1517548 -61.86 0.0007554396    1.472    0.321
        27  -8.7401    156.6073    233.2189   1.2341920274e+02   3.5539237375e+00    0.1627904    0.1255278 -36.32 0.0004489048    1.614    0.380
        28  -9.1057     48.1113    173.7878   1.3794699867e+02   3.3436106324e+01    0.2450303    0.1370835 -49.46  0.001242674    2.079    0.519
        29 -10.7016      7.1096    169.6534   1.4621101682e+02   3.8520556574e+01    0.3675959    0.1819488  51.69  0.002146608    2.047    0.512
        30 -10.0493    230.4980    167.9667   9.6729831901e+01   1.0532085265e+00    0.3400384    0.1254226 -44.95  0.001218625    2.863    0.651
        31 -16.1935     16.1366    239.1799   1.4958240001e+02   2.3382103636e+01     5.001513     2.063045 -74.54   0.02969617    2.074    0.518
        32 -10.9902     54.6145    151.1478   1.3336870261e+02   3.7898738175e+01    0.3423319    0.2613651  82.01  0.001945731    1.293    0.227
        33 -10.1914     49.6601    151.9226   1.3468700106e+02   3.8313241216e+01     0.276792    0.1895974 -56.21 0.0008478604    1.376    0.273
        34 -13.2209     49.7188    232.5489   1.4351969687e+02   2.0686034676e+01    0.8903634    0.5614606  52.19   0.00334609    1.394    0.283
        35  -9.2085     98.3309    151.5883   1.2259329916e+02   3.1372224741e+01    0.2663659    0.1335324  45.47 0.0009218997    2.040    0.510
        36  -8.5402    118.9302    149.7975   1.1711664094e+02   2.8057354172e+01    0.2055951    0.1962236 -31.60 0.0003867125    1.179    0.152
        37 -11.2154     31.6549    148.0242   1.3847402651e+02   4.1162660281e+01    0.5526527    0.3202956  69.24  0.002695495    1.995    0.499
        38  -9.5002    105.3149    146.3407   1.1980702509e+02   3.1388561566e+01    0.3054762    0.2795306 -76.86 0.0008220539    1.023    0.022
        39  -9.2242    107.3011    143.0494   1.1862656339e+02   3.1804532213e+01    0.3625947    0.2174803 -35.88 0.0009870927    2.144    0.534
        40 -11.5221     94.3431    145.7376   1.2246806395e+02   3.3428433828e+01    0.2783081    0.2718373 -22.75 0.0004921475    1.193    0.162
        41  -8.6269    134.0000    145.9218   1.1258688252e+02   2.5960879202e+01    0.2567969   0.08655441 -49.43 0.0008029658    2.946    0.661
        42  -8.4572    184.2581    141.9883   1.0012326329e+02   1.5842511515e+01    0.2104592    0.1942465 -37.90 0.0002304418    1.089    0.082
        43 -10.3701    172.3825    221.0705   1.1840750390e+02   2.7903269395e+00    0.2841435     0.253934  -0.31  0.001732315    1.273    0.215
        44 -10.1905    230.4454    134.9940   8.9457435275e+01   7.0378582811e+00    0.2431843    0.2119736  49.72 0.0001460987    1.224    0.183
        45  -9.2528    116.7090    134.3497   1.1432887649e+02   3.2074858256e+01    0.2682979    0.2447309 -33.90 0.0004616679    1.187    0.158
        46  -9.3866    113.6901    133.6861   1.1495688217e+02   3.2806454674e+01    0.2951736    0.2369619 -36.58 0.0007797956    1.356    0.262
        47 -10.0918    101.6430    130.6212   1.1742361416e+02   3.5731906385e+01    0.2754129    0.2393548 -30.21 0.0008582987    1.291    0.226
        48  -9.0532     28.3753    127.8659   1.3648329304e+02   4.6102706929e+01    0.1821606    0.1569642  74.25 0.0004684493    1.249    0.199
        49  -8.5059    160.2934    126.8039   1.0180627858e+02   2.4508588443e+01    0.3270243    0.1346067 -50.60  0.001070627    2.647    0.622
        50  -9.2843    119.4960    126.3398   1.1175097519e+02   3.3374767770e+01    0.3885552    0.2339861 -23.17  0.001387794    2.950    0.661
        51 -10.7210      7.1737    122.8614   1.4124317594e+02   4.8894484116e+01    0.3720715    0.1219282 -69.07  0.001711908    2.297    0.565
        52  -8.4650    167.1679    212.0581   1.1795696963e+02   5.3807081319e+00    0.2192683    0.1604568 -83.58  0.001085255    1.974    0.493
        53  -9.0923    248.5963    116.1710   8.2171333390e+01   6.6321815180e+00    0.2192587    0.1961814  59.85 0.0004441116    1.233    0.189
        54  -9.1468    168.0472    113.4678   9.6663427720e+01   2.5529389458e+01    0.3347065    0.2535539 -82.41  0.001090009    1.713    0.416
        55  -9.8740    172.4773    204.9288   1.1562982575e+02   5.6868843018e+00    0.2424524    0.1976871  41.34  0.000312047    1.120    0.107
        56  -9.0929    109.7391    121.9852   1.1328152807e+02   3.6252458913e+01    0.2330506    0.2101275  43.34 0.0005267394    1.163    0.140
        57  -9.4124     66.2372    105.0109   1.2153563892e+02   4.7146277339e+01    0.1918379    0.1472873 -14.37  0.001035668    1.611    0.379
        58 -10.3280     53.8626    103.1769   1.2480374777e+02   4.9106664708e+01    0.3403405    0.2361778 -42.36  0.001315579    1.340    0.254
        59  -9.9276      1.5025    103.5236   1.4011582566e+02   5.3484891838e+01    0.2447793   0.08747637 -68.16 0.0009512955    2.107    0.525
        60 -15.1586     59.9019    209.2141   1.3947821384e+02   2.4097208757e+01     6.501278     2.917335  46.01   0.03282217    2.035    0.509
        61 -10.0331    192.6303    194.8893   1.0963774486e+02   3.6211886906e+00    0.9449006    0.4669272 -64.28  0.002509404    6.722    0.851
        62  -8.2358    186.6333     71.9490   8.1753474058e+01   2.8846560787e+01    0.1941315    0.1830306 -56.72  0.001054196    1.068    0.064
        63  -9.5498    242.0998     60.1376   7.0372767778e+01   1.7388104952e+01    0.2142148    0.1940249 -77.00 0.0003291463    1.071    0.066
        64  -8.5308    127.7274     58.9291   9.0629968087e+01   4.5176529251e+01    0.1878896    0.1807752 -11.50 0.0002033113    1.057    0.053
        65  -8.1807     81.2090     53.2280   1.0200152261e+02   5.5216186294e+01    0.2014775    0.1041444  50.75 0.0008844443    2.499    0.600
        66 -10.4529     89.8348    245.5906   1.3758595441e+02   1.2536427487e+01    0.2465545    0.1845088  78.13 0.0004563704    1.176    0.149
        67 -11.2059    180.6659     34.8921   7.2679138531e+01   3.5868561339e+01    0.5306405    0.4380084  80.64  0.001054758    1.140    0.123
        68 -11.5895    143.0971    249.7680   1.2827833759e+02   3.1268443260e+00     1.052292     0.222881  40.43  0.003317485    4.464    0.776
        69  -8.4915    117.4305    242.4743   1.3217561180e+02   8.7055249136e+00    0.1259474    0.1032395  60.19 -1.111835e-05    1.022    0.021
        70  -8.7662     44.2791     39.8306   1.1020226687e+02   6.2593941077e+01    0.1869887     0.142539  27.95 0.0006982291    1.459    0.314
        71 -10.3218    138.1981     35.6665   8.0742919301e+01   4.6136589671e+01    0.2306026    0.2130086  25.77 0.0002653954    1.085    0.078
        72  -7.9358    139.2849    241.3422   1.2789996022e+02   5.2000486399e+00    0.1172559   0.09881679   9.08 0.0001792134    1.639    0.390
        73  -9.6116    104.5659    239.6296   1.3425204493e+02   1.1326431539e+01    0.2398648    0.1705544  70.85 0.0004975285    1.288    0.223
        74 -12.1753    155.2556    246.3403   1.2554290903e+02   1.5990637644e+00    0.8862142    0.5345057  30.74  0.004673689    1.805    0.446
