#   1 NUMBER                 Running object number                                     
#   2 MAG_AUTO               Kron-like elliptical aperture magnitude                    [mag]
#   3 X_IMAGE                Object position along x                                    [pixel]
#   4 Y_IMAGE                Object position along y                                    [pixel]
#   5 X_WORLD                Barycenter position along world x axis                     [deg]
#   6 Y_WORLD                Barycenter position along world y axis                     [deg]
#   7 A_WORLD                Profile RMS along major axis (world units)                 [deg]
#   8 B_WORLD                Profile RMS along minor axis (world units)                 [deg]
#   9 THETA_WORLD            Position angle (CCW/world-x)                               [deg]
#  10 FWHM_WORLD             FWHM assuming a gaussian core                              [deg]
#  11 ELONGATION             A_IMAGE/B_IMAGE                                           
#  12 ELLIPTICITY            1 - B_IMAGE/A_IMAGE                                       
         1 -15.4560      2.5729    129.4853   1.5094381355e+02   4.6221522643e+01     5.211264     1.214192 -86.07   0.01880377    4.165    0.760
         2 -14.0485    194.5023     22.1635   7.2079383811e+01   3.3723904079e+01     1.416287     1.091667   1.50  0.007503564    1.376    0.273
         3 -13.5866    209.1561      5.7273   6.5633163864e+01   3.1718970787e+01    0.8891219    0.7971356  68.81  0.005492002    1.179    0.152
         4 -12.0699     67.3559    143.5769   1.3514079621e+02   3.7230492641e+01    0.5936101    0.3327693  55.68  0.002376644    1.919    0.479
         5 -13.6152    141.2694    247.1139   1.3141738559e+02   9.9742376578e+00    0.6143627    0.3618247  40.11  0.004335841    1.333    0.250
         6 -13.1830    125.0646    248.6423   1.3437687185e+02   1.1763354169e+01    0.6479031    0.2840888  25.95  0.003582388    2.383    0.580
         7 -10.5761     72.1534    250.1457   1.4362635125e+02   1.7575490144e+01    0.1434601   0.08500943  51.50 0.0006568647    1.334    0.250
         8 -13.1618     27.4175    242.4513   1.5080109109e+02   2.3042512904e+01    0.8582067     0.292653  61.21  0.003815841    2.580    0.612
         9 -12.8215     50.7783    218.9140   1.4558073590e+02   2.4521999670e+01    0.5268059    0.4073617 -84.70  0.004223832    1.392    0.282
        10 -13.0009     36.6251    238.1277   1.4907974513e+02   2.2856802435e+01    0.2768014    0.2384098 -88.98 0.0007336903    1.378    0.274
        11 -14.3000     41.3353    231.3609   1.4795696170e+02   2.3453813537e+01    0.7742389    0.5067271  41.18  0.003244883    1.228    0.186
        12 -11.7655      2.5818    239.0170   1.5477110865e+02   2.5627294854e+01    0.3716159    0.1157773 -78.67  0.002279297    3.257    0.693
        13 -12.9863     17.9202    248.4490   1.5254498845e+02   2.2983215728e+01    0.6523579    0.2520297  33.92   0.00441137    2.033    0.508
        14 -11.4263      4.9111    249.2554   1.5462490807e+02   2.3932320157e+01    0.5150355    0.1321577  39.10  0.003258923    2.291    0.564
        15 -11.7756    183.3200    236.0662   1.2288658053e+02   5.9210947789e+00    0.2913463    0.2228256 -75.63  0.001807868    3.400    0.706
        16 -13.3185    120.9245    232.0574   1.3355095234e+02   1.4460343282e+01    0.6514384     0.202187  41.48  0.003198511    2.490    0.598
        17  -9.5896     73.7972    229.0090   1.4196590687e+02   2.0484543758e+01    0.1722469   0.09174534  63.38   0.00107561    2.010    0.503
        18 -11.3684      3.0230    228.3421   1.5445406166e+02   2.7240772606e+01    0.2007444    0.1343049  47.12  0.001712261    1.172    0.147
        19 -10.3406     58.6169    226.7977   1.4460371066e+02   2.2451076032e+01    0.1815952    0.1528856  18.49  0.001474016    1.482    0.325
        20 -11.2812     33.4910    218.6704   1.4876870519e+02   2.6228999981e+01    0.2704422    0.1413647  43.81  0.001428475    1.451    0.311
        21 -10.5133     37.6777    214.0830   1.4776824766e+02   2.6605847891e+01    0.1900074    0.1069404  45.84   0.00091542    1.369    0.269
        22 -12.4512      9.9124    207.1858   1.5264607481e+02   3.0198972579e+01    0.4812343    0.3040916  20.92  0.002796555    1.932    0.482
        23 -11.5063     62.5165    202.7334   1.4221523126e+02   2.6044096156e+01    0.1983042    0.1799006  71.07 0.0005732395    1.152    0.132
        24 -11.8481     68.7443    193.9720   1.4022353816e+02   2.6916606726e+01    0.2083183    0.1954004  64.72 0.0004415591    1.150    0.130
        25 -12.9436     65.4206    179.0689   1.3958960755e+02   3.0094883346e+01    0.4089432    0.2629004 -43.55  0.001362624    2.044    0.511
        26 -10.6144     78.8911    180.3896   1.3672704560e+02   2.8246577468e+01    0.1963101    0.1734976  79.59 0.0003303511    1.126    0.112
        27 -14.1150      2.4592    153.7900   1.5216539308e+02   4.0962576435e+01       1.2061    0.7175419  78.99  0.006232343    1.388    0.280
        28 -11.7209    248.1305    244.9022   1.1363343504e+02  -2.8365092793e+00    0.1930362    0.1491696 -23.55  0.001597044    1.904    0.475
        29  -9.2920    110.4141    137.7965   1.2303165378e+02   3.2390791538e+01    0.1852779    0.1246405 -40.10 0.0004277764    1.606    0.377
        30 -10.6077     34.4107    136.5313   1.4304420587e+02   4.2281035113e+01    0.2117608    0.1683071  83.95 0.0006489792    1.110    0.099
        31 -10.3297     97.0503    136.0585   1.2617116747e+02   3.4840043704e+01    0.1941741    0.1912768   2.95 0.0003615206    1.062    0.058
        32  -8.8793    106.9834    124.8013   1.2138572002e+02   3.5703101361e+01    0.1721734    0.1085352  36.56 0.0008138148    1.582    0.368
        33 -10.2282     39.1131    121.9111   1.4015811135e+02   4.5221282059e+01    0.1999039    0.1497293  68.45 0.0006927417    1.312    0.238
        34 -11.5613     85.5740    171.6460   1.3422622291e+02   2.9093370217e+01    0.3974729    0.3265684 -27.16  0.001874459    1.554    0.357
        35 -10.2596     98.1683    154.4932   1.2890942122e+02   3.0806419724e+01    0.2260643      0.18452 -59.09  0.000741276    1.285    0.222
        36 -10.9305     81.4894    249.6628   1.4200061733e+02   1.6642778356e+01    0.1846266   0.07040533  34.85  0.001091475    1.979    0.495
        37 -11.7417     86.9658    153.7855   1.3155876595e+02   3.2518755166e+01    0.2483059    0.2341285 -14.99 0.0005229213    1.216    0.178
        38 -10.0590     95.3204    241.6601   1.3901552562e+02   1.6203198028e+01    0.1070045   0.06085284  55.58 0.0007050089    1.716    0.417
