#   1 NUMBER                 Running object number                                     
#   2 MAG_AUTO               Kron-like elliptical aperture magnitude                    [mag]
#   3 X_IMAGE                Object position along x                                    [pixel]
#   4 Y_IMAGE                Object position along y                                    [pixel]
#   5 X_WORLD                Barycenter position along world x axis                     [deg]
#   6 Y_WORLD                Barycenter position along world y axis                     [deg]
#   7 A_WORLD                Profile RMS along major axis (world units)                 [deg]
#   8 B_WORLD                Profile RMS along minor axis (world units)                 [deg]
#   9 THETA_WORLD            Position angle (CCW/world-x)                               [deg]
#  10 FWHM_WORLD             FWHM assuming a gaussian core                              [deg]
#  11 ELONGATION             A_IMAGE/B_IMAGE                                           
#  12 ELLIPTICITY            1 - B_IMAGE/A_IMAGE                                       
         1 -13.8378    221.7511     27.2510   3.5787919119e+02   2.6500883201e+01    0.9509627    0.8154938 -33.04  0.004022567    1.245    0.197
         2 -12.3530    226.8865      9.7111   3.5347405616e+02   2.7310838295e+01    0.4035574    0.2729104  87.62  0.001595067    1.472    0.321
         3 -11.1262    221.1285      6.1091   3.5294299439e+02   2.8879487621e+01    0.2201378    0.1582836 -39.72  0.001406509    1.240    0.194
         4 -11.5574     38.5144      2.5012   2.6033600099e+01   7.4907284186e+01    0.3165449    0.2401989 -50.30  0.001780985    1.763    0.433
         5 -10.9627     60.4874      2.3221   1.4764899062e+01   7.0141140689e+01    0.2554881    0.1141634  59.54  0.001086954    2.009    0.502
         6  -9.5913     86.0000    241.1080   6.7982541300e+01   1.4239179989e+01    0.1405666   0.07122171 -66.20 0.0004447729    2.582    0.613
         7 -11.8957    245.8741    248.1292   3.8029844014e+01  -5.6636965802e+00    0.3461936    0.1811177  16.38  0.002476223    1.484    0.326
         8  -9.7227     50.8366    200.5542   7.3115191066e+01   2.6390353403e+01    0.2710982     0.142427 -68.85  0.001357497    2.109    0.526
         9  -9.8832    210.8525    198.8849   3.6285190247e+01   3.9480768770e+00    0.1924361    0.1420375  14.24  0.000459047    1.145    0.127
        10 -11.7529     69.8686    196.0948   6.7761301972e+01   2.5011897494e+01    0.3719672    0.2224911  82.33  0.001216243    2.120    0.528
        11 -11.5302     57.3026    194.0826   7.0889869923e+01   2.7039689027e+01    0.4811958    0.2349556  71.69  0.001825992    2.652    0.623
        12 -11.4669     53.2880    188.9174   7.1513820284e+01   2.8682439205e+01    0.2653784    0.1787806  53.66  0.000695041    1.311    0.237
        13 -10.0207    191.8738    192.9947   3.8774657428e+01   7.4000504767e+00    0.5300793    0.3078021 -63.40  0.001561542    8.736    0.886
        14 -11.8424     59.0051    231.4083   7.3344546492e+01   1.9214999691e+01    0.1851957    0.1643775 -86.67 0.0006149088    1.360    0.264
        15  -9.9555     47.7653    193.2609   7.3355602991e+01   2.8350303033e+01    0.1547049    0.1440906   5.10  0.000477164    1.303    0.233
        16  -9.7967    234.4461    191.0251   3.1011072550e+01   1.9591063420e+00    0.1678842    0.1286515   5.06 0.0004650678    1.103    0.093
        17  -9.5644     28.4210    250.3423   8.1022618762e+01   1.9049855510e+01    0.1035734    0.0862635  22.64 0.0007627164    1.379    0.275
        18  -9.6477     43.3714    186.5791   7.4020584129e+01   3.0362266921e+01    0.2196416    0.1376106  70.53 0.0005967055    1.592    0.372
        19 -11.6607    142.8288    182.1635   4.7338861524e+01   1.6846109798e+01    0.3150921    0.2209818   8.36  0.001596318    1.617    0.381
        20 -12.1261     54.4366    180.2840   7.0407978233e+01   3.0533617934e+01    0.4643566    0.3623597 -22.82  0.001497052    1.726    0.420
        21 -10.2448    174.9791    179.4803   3.9765675149e+01   1.2097958708e+01     0.288514    0.1776837  31.73 0.0007765302    1.492    0.330
        22 -12.2316    172.4153    174.3352   3.9362005902e+01   1.3384124843e+01    0.7467139    0.4987246  -2.21  0.002454268    1.803    0.445
        23 -15.9735     69.5942    143.0711   6.1160155789e+01   3.7679880520e+01     4.612874     2.656421  59.37   0.01911261    1.988    0.497
        24 -11.3936    180.7930    168.6944   3.6578270818e+01   1.2965691042e+01    0.6264194    0.3880736 -53.61  0.003032296    2.223    0.550
        25 -12.0530    132.3143    170.8987   4.7932295351e+01   2.0817239588e+01    0.6322634    0.2077771  33.31  0.002118841    2.984    0.665
        26 -11.7768     88.4316    218.8981   6.5395737880e+01   1.7927471997e+01    0.4285976    0.3452846  28.79  0.001592095    1.107    0.097
        27  -9.9403    235.3011    158.3387   2.5004832636e+01   6.1549648545e+00    0.1244301   0.07938627  -4.53 0.0007036666    1.666    0.400
        28 -10.7784    115.9300    154.6285   4.9244571545e+01   2.7173099305e+01    0.2924069    0.2662224 -77.85 0.0002833213    1.239    0.193
        29 -12.0826    134.0000    147.9907   4.3134958597e+01   2.5285590570e+01     1.384032    0.3393094 -53.70   0.00329806    6.344    0.842
        30 -11.2032    132.6524    144.6837   4.2796052383e+01   2.6249279401e+01     0.523401     0.265705 -43.37   0.00210543    2.095    0.523
        31 -10.6718    238.7783    234.9910   3.7262384716e+01  -3.6314307105e+00    0.1361327    0.1015133  26.20 0.0009248996    1.629    0.386
        32 -11.0860     87.9646    148.9277   5.6321268063e+01   3.3343602878e+01    0.2888867    0.2580447  50.90 0.0003259834    1.048    0.046
        33 -12.7990     93.9214    143.7346   5.3570084563e+01   3.3609165310e+01    0.8132523    0.6959757 -23.09  0.002999393    1.373    0.272
        34 -11.6970    108.9754    145.3168   4.9407791300e+01   3.0557346478e+01    0.3847054    0.3452027   5.00  0.001437519    1.215    0.177
        35  -9.4243    170.3415    140.6594   3.3041223158e+01   1.9783877207e+01    0.2588244    0.1672557 -50.88  0.001214158    1.763    0.433
        36  -9.1587    164.5980    138.7115   3.3853416531e+01   2.1252619774e+01     0.187453    0.1362832 -50.63 0.0003264284    1.519    0.342
        37 -12.2863    105.5724    131.7782   4.7622940843e+01   3.4385899683e+01    0.6992108    0.4662394 -41.61  0.002325261    1.658    0.397
        38 -11.8623     94.2754    131.2604   5.1007365681e+01   3.6606737773e+01    0.3984163    0.3235497 -74.31 0.0004166019    1.354    0.261
        39 -10.8158    222.4764    129.7233   2.1255226202e+01   1.2219582757e+01    0.5450795    0.2109601 -47.11  0.002115919    3.260    0.693
        40  -9.8907    164.9792    130.9483   3.2027720061e+01   2.2654010251e+01    0.2171292    0.1803815 -80.72 0.0005176736    1.625    0.385
        41 -10.6356    135.7914    129.5618   3.8647391059e+01   2.8879015539e+01    0.4287429    0.1240836 -46.85  0.001266706    3.581    0.721
        42  -9.6484     98.9659    125.2701   4.8235939798e+01   3.7210348522e+01    0.2243937    0.1940213  42.40 0.0003750079    1.103    0.093
        43 -10.0558    160.5544    123.2858   3.1212722181e+01   2.5029539426e+01     0.276517    0.1408431 -46.66 0.0007376796    2.036    0.509
        44 -11.1191    113.8557    125.6152   4.3780171083e+01   3.4223852042e+01    0.3492485    0.2872195  27.22 0.0008223781    1.258    0.205
        45 -10.4734    101.4156    120.5854   4.6396227270e+01   3.7879580564e+01    0.2990198    0.2577588  -2.02 0.0004699038    1.375    0.273
        46 -10.4597     86.1745    118.5046   5.0923076763e+01   4.1257738268e+01     0.495432    0.2276493 -61.80  0.001418165    2.448    0.591
        47 -10.2342    109.3457    115.7736   4.2779135093e+01   3.7443649149e+01    0.2808086     0.252737  34.07 0.0003189936    1.104    0.094
        48 -11.7216    120.5620     98.5464   3.4890782032e+01   3.8951702480e+01    0.6535764    0.3712253  61.42  0.002406046    2.268    0.559
        49 -12.5454    115.1710    107.7805   3.8983130955e+01   3.8073704710e+01     1.268922    0.6808255 -66.45  0.004176777    3.081    0.675
        50 -12.0716    118.5060    103.3807   3.6822840426e+01   3.8340405923e+01    0.5325701    0.4270229 -89.76  0.001661751    1.553    0.356
        51 -12.4304     52.8769    231.7796   7.4772412851e+01   1.9843793645e+01    0.2554656    0.1584852 -65.67  0.001224788    1.981    0.495
        52 -10.7559     47.2267    233.5451   7.6162109832e+01   2.0138894008e+01    0.1518145    0.1241529 -88.46  0.001054239    1.424    0.298
        53  -9.9421    150.5427    105.1193   2.8940324568e+01   3.0767163801e+01    0.3978961    0.2324921 -62.61  0.001484124    2.532    0.605
        54 -10.7041    134.3185    104.6272   3.2801460841e+01   3.4530570148e+01    0.5721951    0.1435106 -44.84  0.001536927    4.061    0.754
        55 -10.0598     69.5496     98.7712   5.2358994197e+01   4.9211726023e+01    0.3121977     0.183161  49.64 0.0008943902    1.813    0.448
        56 -11.0494     47.3134    229.1638   7.5890834779e+01   2.0957397517e+01    0.2048566    0.1376184  57.41 0.0008335523    1.304    0.233
        57  -9.2578     90.1451    109.8282   4.7528052352e+01   4.2697349299e+01    0.2398891    0.2038795  66.46 0.0004169141    1.244    0.196
        58  -9.5610    101.9509     85.4925   3.6765494825e+01   4.6045623196e+01    0.2415041    0.1548125  46.33 0.0003967241    1.516    0.340
        59  -8.8812     95.4377     81.1669   3.7612914517e+01   4.8458936838e+01    0.2029749    0.1540895 -63.18 0.0003104977    1.476    0.322
        60  -8.6015    124.6346     77.3004   2.7382124093e+01   4.2445529859e+01    0.1660796    0.1244452 -87.67 0.0007034107    1.730    0.422
        61 -10.5639     67.8881    214.5023   6.9957389444e+01   2.1425276292e+01    0.1712972    0.1361365  42.44   0.00106544    1.006    0.006
        62 -12.8752    177.9244     66.8790   1.3075825701e+01   3.1153672743e+01    0.7922565     0.467453 -42.87  0.002423612    1.582    0.368
        63  -8.9995     96.9538     74.3045   3.4838852523e+01   4.9638364783e+01    0.2660092    0.1235779  63.05 0.0007041165    4.273    0.766
        64 -10.5380    152.5879    209.2819   4.9423080184e+01   1.0561779625e+01    0.2262691    0.1931451 -89.69  0.001376182    1.885    0.470
        65 -13.8665    194.2316     53.6733   7.1926809863e+00   2.9272686681e+01     1.188972    0.9732097  35.86  0.003820754    1.529    0.346
        66 -12.4620    200.4457     48.3751   5.0723074701e+00   2.8572711180e+01    0.5012201    0.4365152  45.89  0.001592923    1.380    0.275
        67 -11.6078    145.9890    206.5823   5.0469598626e+01   1.1978557039e+01    0.3709415     0.214535  49.56  0.001812066    2.124    0.529
        68 -11.2883     54.8655     59.4487   4.7100086992e+01   6.1390040141e+01    0.3912354    0.2681745  42.12  0.001305242    1.480    0.324
        69  -9.5710    164.4297    206.2140   4.6439031234e+01   9.3371517257e+00    0.2584757    0.1262864 -54.88  0.001133685    3.279    0.695
        70  -9.4205    160.5775    199.8797   4.6263402113e+01   1.0929138293e+01     0.269879    0.1292321 -55.08  0.001148836    3.232    0.691
        71  -9.6848     90.4889    246.3215   6.7433579704e+01   1.2812645582e+01    0.1455832    0.1164818 -49.43 0.0006917599    1.653    0.395
        72 -10.7954     60.8476     21.3451   2.6338712746e+01   6.7672883635e+01     0.308109    0.2559916 -79.81  0.001224057    1.645    0.392
        73 -10.2094     59.9522    245.1851   7.4021608525e+01   1.6618583283e+01    0.1181375   0.08438906 -69.42 0.0004659643    1.784    0.439
        74 -10.2519     24.3993    245.4150   8.1694376766e+01   2.0310493672e+01    0.1160467   0.08856025  33.73 0.0008257831    1.214    0.176
        75 -19.4921     12.9753    144.0081   8.0084643871e+01   4.3697937545e+01     18.72258     5.616843 -86.45   0.06512196    3.385    0.705
