#   1 NUMBER                 Running object number                                     
#   2 MAG_AUTO               Kron-like elliptical aperture magnitude                    [mag]
#   3 X_IMAGE                Object position along x                                    [pixel]
#   4 Y_IMAGE                Object position along y                                    [pixel]
#   5 X_WORLD                Barycenter position along world x axis                     [deg]
#   6 Y_WORLD                Barycenter position along world y axis                     [deg]
#   7 A_WORLD                Profile RMS along major axis (world units)                 [deg]
#   8 B_WORLD                Profile RMS along minor axis (world units)                 [deg]
#   9 THETA_WORLD            Position angle (CCW/world-x)                               [deg]
#  10 FWHM_WORLD             FWHM assuming a gaussian core                              [deg]
#  11 ELONGATION             A_IMAGE/B_IMAGE                                           
#  12 ELLIPTICITY            1 - B_IMAGE/A_IMAGE                                       
         1 -13.6349    218.0057      2.1249   4.4424487575e+01   2.9229374039e+01     2.533256    0.6215104  62.93  0.007173432    3.378    0.704
         2 -13.8440    178.1156     44.9521   6.2403261529e+01   3.4725958142e+01     1.193132     0.906545 -19.56  0.000824157    1.377    0.274
         3 -14.0324    189.2168     35.4876   5.7633318744e+01   3.3066944200e+01     1.326242     1.069265 -26.36   0.00309609    1.250    0.200
         4 -14.9447    196.7108     25.8986   5.3631895144e+01   3.2256755640e+01     2.377592     1.574599  32.34  0.001323482    1.795    0.443
         5 -13.9509     57.7065    205.7268   1.2265065789e+02   2.6890010825e+01    0.8718988    0.4731977  53.54  0.001619945    1.458    0.314
         6 -16.3516     96.1583    240.2389   1.1864432677e+02   1.6317805166e+01     6.642642     2.319248  35.01     0.030519    3.332    0.700
         7 -12.5325    120.8048    211.9645   1.1152440143e+02   1.7078732319e+01    0.3546254    0.2106236  72.01  0.001928863    2.232    0.552
         8 -13.2537    127.2596    209.0580   1.0997907578e+02   1.6534414403e+01    0.4413367    0.3340217  48.60  0.002959811    1.066    0.062
         9 -12.2503    107.9744    203.7183   1.1300116264e+02   2.0389504687e+01    0.2696274    0.2405513  70.57  0.001366931    1.140    0.123
        10 -11.4750    104.5405    202.2717   1.1349585317e+02   2.1151503574e+01    0.2491434    0.1973319  74.73  0.001260563    1.208    0.172
        11 -11.7798     71.5805    210.9690   1.2052644186e+02   2.4243048288e+01    0.2981041    0.2086186  35.31 0.0007323492    1.604    0.377
        12 -10.3163     76.5310    206.0203   1.1918484410e+02   2.4454271906e+01    0.2720643    0.1226357 -74.17  0.001225812    2.522    0.604
        13 -10.3882     31.5948    211.1715   1.2767517145e+02   2.8872418468e+01    0.1054797   0.04927541  54.31  0.000344746    1.614    0.380
        14 -19.4288     11.7687    135.0770   1.2661229313e+02   4.5574695728e+01     16.77846     1.929244 -76.69   0.04225736    9.055    0.890
        15  -9.0381     35.2327    205.9045   1.2673114297e+02   2.9411767131e+01    0.1466103   0.09319924  65.34 0.0005189967    1.188    0.159
        16 -10.3909    158.2130    203.9833   1.0352212514e+02   1.2251636048e+01    0.3371103    0.1998446  72.89  0.001462693    3.542    0.718
        17  -9.4395    163.4721    204.0496   1.0255568513e+02   1.1353674675e+01      0.15289    0.1238719 -45.94 0.0005422041    1.514    0.340
        18 -11.4848    204.3492    199.0005   9.4384673318e+01   5.0584204751e+00    0.2809088    0.1524698  47.71  0.001440341    1.757    0.431
        19 -12.5802    113.2307    195.8220   1.1105354210e+02   2.0934615301e+01    0.4161945    0.3117208  -4.45  0.002305013    2.524    0.604
        20 -10.2161     95.3316    200.3156   1.1505327257e+02   2.2846213184e+01    0.2767851    0.1564941  77.35  0.001234876    2.269    0.559
        21 -10.1291      1.3147    201.9324   1.3244281068e+02   3.3366067149e+01   0.09778655   0.06183581  70.25 0.0002364313    1.105    0.095
        22  -9.3871     87.7464    201.5700   1.1664051521e+02   2.3706725945e+01    0.1653809   0.08655749  51.08 0.0009377278    1.573    0.364
        23 -10.2989     53.4549    228.4488   1.2496675040e+02   2.3550257786e+01    0.2098242    0.1187645  68.35  0.001203003    1.468    0.319
        24 -12.3401    193.6598    193.0772   9.5308257899e+01   7.6842051503e+00    0.7216156    0.4520264 -50.09  0.003738831    2.199    0.545
        25 -12.4356    107.3976    210.5816   1.1386543882e+02   1.9331239468e+01    0.6183265    0.2946023  50.33  0.003382946    1.731    0.422
        26 -11.1020    154.6270    196.1617   1.0306650119e+02   1.4048541318e+01    0.4066302    0.2563124  77.39   0.00188783    2.999    0.667
        27 -11.0153    121.1214    197.7744   1.0975569985e+02   1.9355515806e+01    0.1864432    0.1426341  60.30 0.0006597888    1.174    0.148
        28 -11.3541    100.5132    196.8778   1.1366906534e+02   2.2689649430e+01    0.3465565    0.2378597  14.79   0.00184562    2.640    0.621
        29 -10.2007     82.1345    195.6039   1.1712406844e+02   2.5552310677e+01     0.258946    0.2332794  -2.99  0.001825506    1.731    0.422
        30  -9.9121     42.1880    194.8207   1.2473307138e+02   3.0661353685e+01    0.3379409    0.1396063  57.47  0.001866284    2.074    0.518
        31 -13.2709     67.6192    192.1207   1.1962582203e+02   2.8124063354e+01    0.6128945    0.5683342 -67.55  0.004669221    1.420    0.296
        32 -10.1036     61.1478    186.9333   1.2042782667e+02   2.9915525406e+01      0.22869    0.1773534  32.42 0.0007287724    1.586    0.369
        33 -13.0383     53.6414    209.7714   1.2368840365e+02   2.6664715323e+01    0.4086185    0.1700302  57.56  0.001865219    2.038    0.509
        34 -16.0629     71.2184    148.3111   1.1394333991e+02   3.6416303308e+01     5.080241     2.518967  82.69   0.01755613    3.400    0.706
        35 -11.0780     96.5634    187.8288   1.1340825203e+02   2.4906978262e+01    0.3927416    0.2837368  50.81  0.001613367    1.181    0.153
        36  -6.9675     65.4219    224.7739   1.2268469935e+02   2.2708917193e+01    0.3488148   0.08644792  54.40  0.001441439    3.838    0.739
        37 -10.3824    151.9860    184.0578   1.0173638661e+02   1.6444743948e+01    0.1979467    0.1468551  72.03 0.0005525441    1.678    0.404
        38 -11.3580     99.5073    180.7768   1.1194447845e+02   2.5774895448e+01    0.2331845    0.1918208  57.21 0.0006176196    1.052    0.049
        39 -10.2815    209.1315    178.1223   8.9903439166e+01   6.9590750249e+00    0.2599961    0.1727314 -13.80  0.001423692    1.738    0.424
        40 -11.9100    145.1931    179.2038   1.0232638372e+02   1.8464800981e+01    0.3779182    0.2657698  28.47  0.002090265    1.558    0.358
        41  -9.6026     68.3038    177.1014   1.1801427389e+02   3.0902936994e+01    0.1658387    0.1321882  83.40 0.0006046574    1.104    0.094
        42 -10.1010    167.3708    175.0312   9.7200074454e+01   1.5126376497e+01    0.3404801    0.2184051 -74.90  0.001479572    3.149    0.682
        43  -9.4793    202.6546    171.2206   8.9787660427e+01   9.1084395666e+00    0.1722177    0.1185361 -20.60 0.0004527646    1.615    0.381
        44 -11.5681    195.2050    168.6956   9.0687935237e+01   1.0876135177e+01    0.3595361     0.304228  54.63 0.0006683797    1.319    0.242
        45 -10.8791    145.9278    168.4937   1.0041304720e+02   2.0199039737e+01    0.1951908     0.182429 -57.49 0.0006262949    1.196    0.164
        46 -10.1365     73.7210    217.9670   1.2071222157e+02   2.2782590164e+01    0.2323752    0.1216261  66.67  0.001216179    1.844    0.458
        47 -10.6831    190.7893    160.8241   9.0003479303e+01   1.2919104319e+01    0.2550839    0.2427255  67.87  0.001194289    1.256    0.204
        48 -11.2340    189.1537    155.1851   8.9194220011e+01   1.4125419863e+01    0.3931995    0.3743529  21.71  0.001517137    1.088    0.081
        49 -11.6736     43.3268    212.7344   1.2572056479e+02   2.7334373447e+01    0.6059908    0.3090417  54.38  0.004009947    1.496    0.332
        50 -10.6985    140.8458    157.7336   9.9600838515e+01   2.3095615502e+01    0.2840049    0.2167034  83.09 0.0007059464    1.660    0.398
        51 -12.8904     95.7641    155.2179   1.0923095287e+02   3.1385936365e+01    0.6692478    0.5119098 -38.10  0.003826628    1.718    0.418
        52 -10.2494    113.0950    151.5222   1.0467602950e+02   2.9295352079e+01    0.2387482    0.1788642 -81.20 0.0005352331    1.499    0.333
        53  -9.3109    182.8109    150.8078   8.9543166968e+01   1.6101240280e+01    0.1799139    0.1645389  87.91 0.0005286872    1.351    0.260
        54 -11.2343    134.2364    148.2350   9.9301006420e+01   2.6140689932e+01    0.7554405    0.3129977 -62.41  0.002389147    4.517    0.779
        55 -11.6303    134.0000    143.9906   9.8542736140e+01   2.7013887925e+01    0.8346322     0.301249 -59.07  0.002496857    4.799    0.792
        56 -10.5674    174.6624    149.2015   9.0846871863e+01   1.8014577562e+01    0.2683642    0.1860127  45.72 0.0006561499    1.341    0.254
        57 -11.3982    144.0751    146.8430   9.6849784911e+01   2.4528341363e+01    0.3801879    0.2624085 -76.50  0.001784472    2.093    0.522
        58  -9.6961    115.8315    144.6064   1.0283370805e+02   3.0222995547e+01    0.1988406    0.1164028  53.91  0.000511101    1.723    0.420
        59 -11.8823    107.3783    140.3181   1.0405407397e+02   3.2578239350e+01    0.5085541    0.3458271 -31.24  0.002468959    2.119    0.528
        60 -12.5447     95.2750    140.6865   1.0702758780e+02   3.4501388563e+01    0.2707165    0.2661761  43.18  0.000424751    1.195    0.163
        61 -11.4758    114.5329    130.7021   1.0049875597e+02   3.3335218101e+01    0.6567011    0.3377765  33.40   0.00120057    2.330    0.571
        62 -11.4728    119.0059    125.8251   9.8402082581e+01   3.3533920412e+01    0.7432958    0.3825311 -27.84  0.002290743    4.778    0.791
        63 -10.9654    106.0757    130.7946   1.0259487237e+02   3.4812863627e+01    0.3522694    0.2798418  77.89  0.001314714    1.356    0.262
        64 -11.1534    102.2579    126.9104   1.0279287651e+02   3.6300669984e+01    0.2773323    0.2218755 -34.45 0.0007727159    1.507    0.336
        65 -10.9343    136.1402    129.0075   9.4977771832e+01   2.9569642572e+01    0.4120708    0.1758749 -51.85  0.001495245    2.577    0.612
        66 -10.7829    135.0000    120.0287   9.3244998413e+01   3.1605100242e+01    0.4744658   0.08298285 -46.06   0.00114821    5.854    0.829
        67 -10.0730    160.9996    128.0090   8.9139967710e+01   2.4631425857e+01    0.2361095    0.1849139 -88.38  0.001143166    1.745    0.427
        68 -10.2462    126.0571    127.8118   9.7110785679e+01   3.1784990493e+01    0.3148286    0.2104591  85.50   0.00106789    2.351    0.575
        69 -10.2668    110.0667    119.4076   9.9271166069e+01   3.6538834915e+01     0.239144    0.1959736 -61.00 0.0004238507    1.212    0.175
        70 -11.6974     48.6602    206.2385   1.2433941230e+02   2.7865677182e+01    0.2209313    0.1561722  82.83 0.0009533972    1.216    0.178
        71 -10.0855    167.8954    112.7907   8.4017132414e+01   2.5933971903e+01    0.3242515    0.2309788 -89.73  0.001269331    2.270    0.559
        72  -9.6089    145.0699    129.3475   9.2990577576e+01   2.7700614970e+01    0.2029444    0.1713809  53.07 0.0005121854    1.152    0.132
        73 -11.0543    119.6334    110.4938   9.4813516015e+01   3.6633151953e+01    0.5789648    0.2669676  50.11   0.00226767    2.282    0.562
        74 -10.2994    205.5220    110.1619   7.5907736322e+01   1.7879982768e+01    0.3159716    0.2014971  40.94 0.0009268744    1.564    0.360
        75 -10.8208    103.9911    111.0391   9.9011229342e+01   3.9433658466e+01    0.2052386     0.194846 -88.35            0    1.014    0.014
        76 -11.1913     41.9469     91.8519   1.1296506607e+02   5.2529678941e+01     0.206133    0.1953161 -85.59 0.0005151808    1.134    0.119
        77 -11.7781     52.8445     90.4532   1.0929988567e+02   5.1651582012e+01    0.2702448    0.2052431 -66.28  0.001606461    1.157    0.136
        78  -9.7180     59.7370     79.9735   1.0475915771e+02   5.3164284847e+01    0.1726173    0.1027401 -56.63 0.0003735886    1.476    0.322
        79  -9.4727     68.9476     71.7475   9.9582750064e+01   5.3718845427e+01    0.1728204    0.1659146 -62.17 0.0002202892    1.079    0.074
        80 -11.3697    165.4782     65.8776   7.1400186504e+01   3.4796307929e+01    0.4950149    0.3363203 -83.79 0.0007282529    2.286    0.563
        81  -8.8681    182.6651    241.3172   1.0419138296e+02   3.4606071877e+00    0.1063306   0.07507668  58.08 0.0007048144    1.695    0.410
        82 -10.5873    171.8130    239.6834   1.0579864225e+02   5.3043546931e+00    0.2679945    0.1803918  70.85  0.001619764    2.443    0.591
        83 -11.3222     49.3154    225.9345   1.2550745030e+02   2.4437798796e+01    0.1715479      0.10491  55.38 0.0003354893    1.205    0.170
        84 -10.2818     53.4697    231.4626   1.2515047897e+02   2.3064819463e+01    0.1787259   0.09694536  58.31  0.001003633    1.373    0.272
