#   1 NUMBER                 Running object number                                     
#   2 MAG_AUTO               Kron-like elliptical aperture magnitude                    [mag]
#   3 X_IMAGE                Object position along x                                    [pixel]
#   4 Y_IMAGE                Object position along y                                    [pixel]
#   5 X_WORLD                Barycenter position along world x axis                     [deg]
#   6 Y_WORLD                Barycenter position along world y axis                     [deg]
#   7 A_WORLD                Profile RMS along major axis (world units)                 [deg]
#   8 B_WORLD                Profile RMS along minor axis (world units)                 [deg]
#   9 THETA_WORLD            Position angle (CCW/world-x)                               [deg]
#  10 FWHM_WORLD             FWHM assuming a gaussian core                              [deg]
#  11 ELONGATION             A_IMAGE/B_IMAGE                                           
#  12 ELLIPTICITY            1 - B_IMAGE/A_IMAGE                                       
         1 -13.4946    215.5406     47.1514   5.4378018373e+00   2.5959124986e+01      1.00128    0.6884482  45.70  0.001418782    2.021    0.505
         2 -12.9132    243.9223     24.8545   3.5842367398e+02   2.3119230035e+01    0.8378753    0.5832064 -48.81  0.004296007    1.058    0.055
         3 -10.8119    108.8811     11.5108   7.2744537116e+00   5.6510854941e+01    0.6119617    0.2691064 -74.90  0.002037287    3.642    0.725
         4  -9.8437      2.4863      2.0260   5.3242650470e+01   8.0324305858e+01    0.2263963    0.1661301 -43.93  0.000880639    1.305    0.234
         5 -10.5763      2.0000      6.9899   5.7326088655e+01   7.9444744576e+01    0.4794412   0.09003072 -54.05  0.001721693    4.023    0.751
         6 -10.2152     75.6294    220.6271   6.8589241094e+01   1.8937461974e+01    0.5040699    0.2845361  78.33  0.002046331    2.415    0.586
         7  -8.6070    101.0123    250.5481   6.5709474792e+01   1.0367326536e+01    0.1665015   0.09166323  31.35 0.0001373273    1.403    0.287
         8 -10.0046     75.4616    248.0365   7.0903347539e+01   1.3890752891e+01    0.4552147    0.1676245 -54.60  0.002172702    3.434    0.709
         9 -14.5481     69.8969    150.0989   6.1751052830e+01   3.5865964734e+01     4.773708     2.720123  79.57   0.01872355    2.411    0.585
        10  -9.6295    185.0368    237.3063   4.7712708310e+01   1.9525466768e+00    0.1802797    0.1502787 -28.43 0.0006930826    1.395    0.283
        11 -10.9261     81.1737    221.0126   6.7327587282e+01   1.8142549754e+01    0.5009131    0.2752106  45.93  0.001103346    1.543    0.352
        12  -9.2311    125.1776    238.8449   5.9491745894e+01   9.1986615965e+00    0.1557691    0.1243925   4.37 0.0004058858    1.310    0.237
        13  -9.2698     71.9611    232.6798   7.0472266604e+01   1.7080467312e+01    0.1898896    0.1246886  38.56  0.001135657    1.188    0.158
        14 -11.8989    127.0913    229.5811   5.8021072776e+01   1.0455290674e+01    0.4724593    0.3585277  23.33  0.003052308    1.135    0.119
        15  -8.8874    185.0000    231.0171   4.6860005388e+01   2.7908583626e+00    0.1627139   0.06075116 -42.19 0.0007986004    2.916    0.657
        16 -11.2746    147.5833    227.6187   5.3539869023e+01   8.0412866375e+00    0.2900811    0.2598409  -5.34  0.002077183    1.169    0.145
        17 -10.5483    174.7996    223.3979   4.7662584116e+01   5.1217350762e+00    0.2411663    0.1422062  21.63 0.0008184419    1.536    0.349
        18  -9.8072     96.0565    211.3667   6.2821364803e+01   1.8023653161e+01    0.3442147    0.1984469 -75.04  0.001699646    2.319    0.569
        19  -9.8733    211.0428    198.7837   3.7476260035e+01   3.9676614151e+00    0.1828605    0.1438309 -18.39 0.0004667984    1.122    0.109
        20 -10.0770    192.9616    194.6547   3.9909416489e+01   6.9564909892e+00    0.5045087    0.2641337 -60.97  0.001618821    7.205    0.861
        21 -11.9053     67.8213    191.4755   6.7656422357e+01   2.6148351678e+01     0.484209     0.268517  81.56  0.002143727    2.347    0.574
        22 -15.5350     13.7962    241.7478   8.3870021600e+01   2.1749486923e+01     1.028478    0.7914537 -62.83  0.007262945    1.752    0.429
        23 -11.7066     74.0762    190.1856   6.5872044387e+01   2.5581601016e+01    0.4673775    0.2814804  86.20  0.001230318    2.089    0.521
        24  -8.9677    207.5317    189.8843   3.6588854097e+01   5.6816726071e+00    0.1719474    0.1031637 -33.55  0.001013647    1.542    0.352
        25 -10.6739     63.6361    182.5357   6.7812333328e+01   2.8777582118e+01    0.4043526    0.2516541  73.95  0.001784968    1.786    0.440
        26 -15.3454      4.6091    229.8771   8.5528354582e+01   2.4905024516e+01    0.8534089    0.4507456 -74.54  0.005004461    2.138    0.532
        27 -10.0190    115.9911    181.6695   5.4024385889e+01   2.1093562040e+01    0.2231854    0.2052547 -59.86 0.0005143275    1.192    0.161
        28 -17.2452      5.6102    218.0103   8.4976926630e+01   2.7236316193e+01     3.346819     1.853029  53.71   0.01425408    1.352    0.260
        29  -9.6303    174.9384    179.9963   4.0772800295e+01   1.1935597507e+01    0.1991578    0.1752837  -1.79 0.0005693771    1.040    0.038
        30 -10.3379    171.9704    175.4531   4.0547805367e+01   1.3181437266e+01    0.3045021    0.2504903 -35.16  0.000779532    1.212    0.175
        31 -11.5053    173.9872    171.3338   3.9404596903e+01   1.3576143561e+01    0.4847816    0.3516504  31.47  0.002500405    1.356    0.263
        32 -10.9578    180.5063    167.5000   3.7439500642e+01   1.3188799693e+01    0.4121883    0.3381143 -55.77  0.002465643    1.460    0.315
        33 -12.5096    107.7687    229.2853   6.2150711278e+01   1.3085706885e+01     1.613357    0.3473628  31.89  0.005484472    3.799    0.737
        34  -9.9944     79.9687    170.6270   6.1812064698e+01   2.9263201212e+01    0.2444915    0.1998291 -89.84  0.000544443    1.278    0.217
        35  -9.2414     72.2483    169.2179   6.3794217119e+01   3.0752045689e+01    0.3094839      0.19109 -88.79  0.000681708    1.935    0.483
        36 -15.5012      8.4268    139.1127   8.0703104187e+01   4.5909088329e+01      11.9943     3.402836  83.48   0.03562327    4.436    0.775
        37  -9.5848    110.9236    167.3895   5.2985441524e+01   2.5016991929e+01    0.2648523    0.2022403 -87.26 0.0008614121    1.612    0.379
        38 -11.7954     97.7650    225.2601   6.3946441366e+01   1.5143379762e+01    0.6283448    0.5558218  61.09  0.004257943    1.206    0.171
        39  -8.8174    129.3987    163.2276   4.7637368263e+01   2.2726142076e+01    0.1869152    0.1382299 -65.87 0.0003234106    1.578    0.366
        40 -10.9414     31.6773    154.3038   7.4309128748e+01   3.9758567973e+01    0.4234425    0.2823033  49.77 0.0007057973    1.337    0.252
        41 -10.4996     37.9173    162.4381   7.3148548190e+01   3.6964942657e+01    0.5914825    0.2228203  56.02  0.002094279    2.789    0.641
        42 -10.0062    102.9812    239.1641   6.4214078823e+01   1.2002971015e+01    0.3231372    0.1862806 -48.01  0.001824295    2.167    0.539
        43 -11.1855    237.7319    160.5127   2.6773135011e+01   5.7946386050e+00    0.3944681    0.1484457 -27.89  0.001742784    2.852    0.649
        44 -11.2134     93.8281    157.8399   5.5967110594e+01   3.0107311775e+01    0.7071382    0.3857009  63.51  0.002683283    2.562    0.610
        45  -9.6508     90.6958    152.3630   5.5921759924e+01   3.1954394586e+01    0.3530367    0.2551115  51.74  0.001525355    1.329    0.248
        46 -10.6679    126.9561    157.7424   4.7214885328e+01   2.4332431887e+01    0.3625094    0.2814482 -80.15  0.001257191    1.607    0.378
        47 -11.6217     44.8372    157.4254   7.0503443812e+01   3.7429196803e+01    0.4810971    0.2455054  61.86 0.0009005604    2.072    0.517
        48  -8.8056     53.3718    157.5452   6.7880558847e+01   3.6308812902e+01    0.3797672    0.1674468 -61.55  0.001531232    2.250    0.556
        49  -9.8194    123.7125    150.4351   4.6617874332e+01   2.6521142104e+01    0.2834293    0.2352552  87.39   0.00067065    1.412    0.292
        50 -10.7832    133.6460    144.9447   4.3048544413e+01   2.5856539721e+01     1.131953    0.2767664 -54.59  0.002668167    6.367    0.843
        51  -9.9227     44.1078    149.2005   6.9786031558e+01   3.9659762805e+01    0.2349044    0.1848823  71.95 0.0003477175    1.177    0.151
        52 -11.7344     84.8911    144.4259   5.6231306345e+01   3.4893167849e+01    0.6091176    0.5800149  27.04  0.002706781    1.156    0.135
        53 -10.6038    108.9637    145.3572   4.9494103142e+01   3.0401649644e+01    0.3012336    0.2605502  54.13 0.0006414538    1.115    0.103
        54  -8.8421     40.3840    146.2350   7.0648106003e+01   4.0892027555e+01    0.2221375    0.1501313  65.08  0.001077717    1.422    0.297
        55 -10.3499     36.8942    142.3416   7.1354041460e+01   4.2333201590e+01    0.3397308     0.224839 -83.48 0.0008548541    1.458    0.314
        56  -9.3240     37.5031    137.1934   7.0530680893e+01   4.3640276967e+01    0.4355202    0.1495487  50.73  0.001389423    3.043    0.671
        57 -10.0802     28.1905    142.5614   7.4305526248e+01   4.3221564091e+01    0.2687019    0.2319057  48.63 0.0008175251    1.121    0.108
        58 -14.6929     54.9239    232.9650   7.4350555121e+01   1.9071344586e+01     2.896744     1.405439 -65.50   0.01219264    2.413    0.586
        59  -9.1988    146.2145    141.3845   3.9349452015e+01   2.4200755591e+01    0.1924048    0.1347692  52.44 0.0002734563    1.511    0.338
        60  -9.4668     92.7650    138.4187   5.2746821310e+01   3.5017828494e+01    0.2078711    0.1478213  27.17 0.0007944054    1.572    0.364
        61 -11.3794    104.0060    131.9070   4.8120451633e+01   3.4524831905e+01    0.7943838    0.6079975  20.77  0.002618354    1.598    0.374
        62  -9.4295    112.2027    132.4202   4.5927345128e+01   3.2819640779e+01    0.2473367    0.2076363 -62.93  0.000305991    1.213    0.175
        63 -11.6368     87.5329    132.0978   5.3076519133e+01   3.7528838466e+01    0.2918902     0.269795 -58.86 0.0004121984    1.137    0.121
        64 -10.3775     43.9655    130.8278   6.7419951362e+01   4.4574301651e+01    0.3564225    0.2087404 -67.90  0.001392201    1.637    0.389
        65 -10.4293    135.0000    123.9644   3.8090028951e+01   3.0123757203e+01    0.7791358    0.0849959 -46.86   0.00144002    9.113    0.890
        66  -9.5199    110.4180    126.0802   4.5012687943e+01   3.4661019508e+01    0.2905746    0.2181382  23.85 0.0007654625    1.623    0.384
        67  -9.9674     39.4870    131.6795   6.9124980210e+01   4.4892316670e+01    0.2725026    0.2063969  58.86 0.0006282425    1.243    0.196
        68 -10.0224     97.3575    121.4282   4.7761067666e+01   3.8350237339e+01    0.2840549    0.2564369  -5.67 0.0005850229    1.358    0.264
        69  -8.2624     92.2837    122.2942   4.9515371180e+01   3.9108793776e+01    0.1485371    0.1248211 -18.06 0.0006958015    1.539    0.350
        70  -9.9755    116.0340    121.5034   4.2396401487e+01   3.4593875120e+01    0.2388785    0.1509036  43.27 0.0006186664    1.575    0.365
        71  -8.7705     76.4672    120.4900   5.4241381826e+01   4.2442529482e+01    0.1569168    0.1449558  76.45  7.52327e-05    1.017    0.016
        72  -9.9815     25.6912    117.0014   7.2311728411e+01   5.0385614577e+01    0.3733183    0.1905618  58.27 0.0008834632    2.069    0.517
        73  -8.4692    142.4658    117.4835   3.4771685681e+01   2.9936295597e+01    0.1510345    0.1421862 -78.96 0.0007517468    1.057    0.054
        74 -11.4207     89.7104    223.8892   6.5636116636e+01   1.6468510834e+01    0.7603731    0.5061762  75.42  0.004242128    1.917    0.478
        75  -9.5700    106.9481    116.0644   4.3646687354e+01   3.7729643687e+01    0.2304379    0.2179258  86.39 0.0003003829    1.014    0.014
        76 -11.2345    122.0067    113.2189   3.8770842282e+01   3.5229388216e+01    0.5789903    0.1869941 -48.80  0.001794437    3.104    0.678
        77  -9.5574    243.5121    114.4681   1.7235042286e+01   1.1436591372e+01    0.1203582   0.09542048 -35.76 6.044751e-05    1.019    0.018
        78  -9.5419    139.1147    112.5850   3.4345066071e+01   3.1681570451e+01     0.288867    0.1995537 -62.34 0.0007389405    1.610    0.379
        79  -9.9587     53.0708    110.3219   6.0550427439e+01   4.8875499646e+01    0.2958706    0.2205388 -81.49 0.0009043433    1.354    0.261
        80 -10.5951     50.2323    105.7463   6.0729415685e+01   5.0508458562e+01    0.4477587    0.3810973  16.20  0.000723853    1.350    0.260
        81  -8.5836     97.5271    110.5014   4.5094348854e+01   4.0980443245e+01    0.1591178    0.1481776  81.68 -4.795691e-07    1.029    0.028
        82  -9.2344     20.2150    108.4445   7.3404374828e+01   5.3231241998e+01    0.2099797    0.1405774  25.75 0.0007336732    1.577    0.366
        83  -9.6493     32.1940    109.4202   6.8646028847e+01   5.1781253471e+01    0.3152213    0.2217066  52.13  0.001175826    1.405    0.288
        84 -11.1310     24.7748    105.4852   7.1104583509e+01   5.3617673453e+01    0.5865927    0.3109988  49.27  0.002327251    1.911    0.477
        85 -10.0017    134.1875    104.9136   3.3555026892e+01   3.4381365809e+01    0.4152173    0.1958353 -54.44  0.001500214    2.372    0.578
        86  -9.8916    113.1567    103.3656   3.8625647389e+01   3.9366897850e+01    0.2348816    0.1415799  57.16 0.0009485383    1.784    0.439
        87  -8.8559     69.4986    102.5165   5.2603596612e+01   4.8301592678e+01    0.1580549    0.1446137  78.69 0.0008099175    1.052    0.049
        88  -9.8196     59.9581     99.9613   5.5615761002e+01   5.0566915563e+01    0.3600768    0.1795571  55.75     0.001297    2.491    0.599
        89 -11.5027     46.2246     95.0401   6.0073187304e+01   5.3925230137e+01    0.3680365    0.3472755  72.20 0.0004193039    1.037    0.035
        90 -10.5039     56.5129     94.0034   5.5546145521e+01   5.2669494509e+01    0.3285907     0.274738  87.50 0.0007952446    1.232    0.188
        91  -9.2219    113.9878     94.7396   3.6014905951e+01   4.1116664149e+01    0.2062958    0.1344802  49.23 0.0008173386    1.529    0.346
        92 -10.1002     27.1594     93.7481   6.8171396419e+01   5.6566357866e+01    0.4087157    0.1816147  47.83  0.001323498    2.406    0.584
        93 -10.1961     52.0825     89.8112   5.6340507514e+01   5.4445363792e+01    0.2417185    0.2013768  70.46 0.0007602967    1.247    0.198
        94 -10.1010    106.9589    234.8215   6.2915842167e+01   1.2230485431e+01    0.2317366    0.1914619  -2.51 0.0004112979    1.405    0.288
        95 -10.3714     25.8220     84.2888   6.7008818020e+01   5.9233228742e+01     0.292271    0.2811097  40.50 0.0005626346    1.104    0.094
        96  -8.6023     70.8644     85.6289   4.7563691438e+01   5.2305086547e+01    0.2171269    0.1363208  51.87 0.0006081196    1.657    0.397
        97  -9.6806     17.4205     84.2419   7.1075740396e+01   6.0013664347e+01    0.1958488    0.1261392 -89.34 0.0004137035    1.578    0.366
        98 -10.0394     53.2039     82.9703   5.4053176727e+01   5.6026739935e+01    0.2506528    0.1693257  80.88 0.0008981614    1.957    0.489
        99  -8.9094    134.7871     79.8016   2.6379800885e+01   3.9352379347e+01    0.2158384    0.1704165 -73.80 0.0005413921    1.341    0.254
       100  -9.7247     34.6906     82.6903   6.2420285068e+01   5.8677959750e+01    0.3833889    0.1684142  42.91  0.001489759    2.345    0.574
       101  -9.8306     14.8229     79.8283   7.1609370272e+01   6.1393213733e+01    0.1932026     0.151493  58.09 0.0004325098    1.325    0.245
       102  -8.9883     70.5115     78.4932   4.5536167473e+01   5.4094726608e+01    0.2757577     0.135314  51.22   0.00101988    2.231    0.552
       103  -9.2531    129.0219     73.6824   2.5846516101e+01   4.1926612081e+01    0.2960979    0.1998024 -66.81  0.001285857    1.707    0.414
       104 -15.8104     37.1521    177.0634   7.4679468828e+01   3.3394143149e+01     7.448286     3.307155  40.63   0.03324746    1.856    0.461
       105 -12.0732    193.3997     62.7767   1.1628958684e+01   2.8495508890e+01     0.553741    0.4675216  39.93 0.0008768353    1.526    0.345
       106 -12.9002    206.2380     54.0615   7.9974301087e+00   2.6971808290e+01    0.9457606    0.7770218 -48.72  0.003216936    1.067    0.063
       107  -8.8182     68.4129    247.2159   7.2356884987e+01   1.4869081084e+01    0.1583684    0.1013382  76.77 0.0009376663    1.860    0.462
       108 -10.9882      1.7400     63.7580   7.6038335281e+01   6.6398987828e+01    0.4473697    0.1599906 -72.80  0.001800918    2.408    0.585
       109 -11.6040     13.4347     60.0771   6.8403614213e+01   6.6609359727e+01    0.3783782     0.273445 -36.00   0.00122568    1.411    0.291
       110  -8.8156     82.5686     59.7474   3.4466021072e+01   5.5739907872e+01    0.2113383    0.1416883 -58.54 0.0006489829    1.641    0.390
       111  -8.4448     46.2970     50.6285   4.6530855433e+01   6.4834784369e+01    0.1458416    0.1122389  82.63 0.0007028527    1.737    0.424
       112  -9.5776     15.3217     47.6596   6.3870061408e+01   6.9503744451e+01     0.137386   0.09800861  62.75 0.0007050462    1.720    0.419
       113 -10.3738      2.6505     39.9718   7.0554340801e+01   7.2238489591e+01    0.2566715    0.1966676 -53.57 0.0004220124    1.160    0.138
       114 -11.2719     25.1938     34.9909   5.2355867704e+01   7.1317931957e+01    0.4535323    0.2099522  38.11 0.0008429039    2.209    0.547
       115 -14.9908     10.1930    206.3613   8.3504936973e+01   2.9317336692e+01    0.8023688    0.5346614  11.10  0.002671069    1.899    0.473
       116 -10.2062      6.7459     25.7694   6.2459894765e+01   7.5209465045e+01    0.3223193    0.1410389  34.74  0.001329268    2.420    0.587
       117 -10.7239      2.1662     24.4904   6.5972681942e+01   7.5811722453e+01    0.3204429    0.2120627 -62.57  0.001083493    1.429    0.300
       118  -8.7977     15.3393     25.2847   5.5045771645e+01   7.4512534266e+01     0.133319   0.08983016 -20.63 0.0002585554    1.632    0.387
       119  -9.5122     60.7312     21.2347   2.5238914157e+01   6.7370800101e+01    0.2275774    0.2035973  84.18  0.000663976    1.232    0.188
       120  -8.7357    189.4761     15.4318   3.5958783781e+02   3.5579702204e+01    0.1328477    0.1056053 -64.57 0.0001844915    1.010    0.010
       121  -8.3891    108.2693    240.3672   6.3204925711e+01   1.1124286823e+01    0.1138637   0.08612766  -7.77 0.0006995673    1.662    0.398
       122 -10.2697     71.6763    224.9789   6.9896501912e+01   1.8587531302e+01    0.3471346    0.1823039  28.51  0.001596435    1.685    0.407
