#   1 NUMBER                 Running object number                                     
#   2 MAG_AUTO               Kron-like elliptical aperture magnitude                    [mag]
#   3 X_IMAGE                Object position along x                                    [pixel]
#   4 Y_IMAGE                Object position along y                                    [pixel]
#   5 X_WORLD                Barycenter position along world x axis                     [deg]
#   6 Y_WORLD                Barycenter position along world y axis                     [deg]
#   7 A_WORLD                Profile RMS along major axis (world units)                 [deg]
#   8 B_WORLD                Profile RMS along minor axis (world units)                 [deg]
#   9 THETA_WORLD            Position angle (CCW/world-x)                               [deg]
#  10 FWHM_WORLD             FWHM assuming a gaussian core                              [deg]
#  11 ELONGATION             A_IMAGE/B_IMAGE                                           
#  12 ELLIPTICITY            1 - B_IMAGE/A_IMAGE                                       
         1 -16.5576    234.3216     96.6210   2.7050524357e+01   1.3766137785e+01     4.133068     2.438008 -34.15   0.02079554    1.444    0.307
         2 -11.0421     40.9635     13.9683   4.4398669105e+01   7.0482514122e+01    0.1904458    0.1614518  -9.68 0.0003105756    1.014    0.014
         3 -10.5366     52.3280    250.1044   8.8008420341e+01   1.7838844029e+01    0.1791076    0.1205367  38.86 0.0009806437    1.372    0.271
         4 -10.3502     57.0213    247.5138   8.7019722364e+01   1.7709858732e+01    0.1652324   0.08252411  40.43  0.001025498    1.569    0.363
         5 -10.3286    162.0043    224.8338   6.5163565359e+01   6.7500541903e+00     0.206007    0.1246206  15.71  0.001101059    2.102    0.524
         6 -10.4169     98.3193    225.1276   7.7436796006e+01   1.6118730550e+01    0.2164325    0.1381196  34.20  0.001021335    1.466    0.318
         7 -10.6121    126.1620    220.7732   7.1479444561e+01   1.2787326558e+01    0.1853701    0.1404153  55.06   0.00073139    1.262    0.207
         8 -10.3478    143.6062    216.8036   6.7563507996e+01   1.0767346448e+01    0.1495403    0.1184744 -68.59 0.0009483333    1.646    0.392
         9 -10.2317    116.6575    210.3251   7.2090632206e+01   1.6006574390e+01    0.1305431   0.08488822  63.40 0.0001262602    1.735    0.423
        10 -11.0906    186.1779    204.2028   5.7601528410e+01   5.9940966126e+00     0.160114    0.1444668  49.54  0.001080396    1.357    0.263
        11 -11.9272    165.4827    202.5249   6.1231372317e+01   9.5576604209e+00    0.3580028    0.2728699 -79.17  0.002016646    2.158    0.537
        12 -10.9914    124.8515    197.4860   6.8684762146e+01   1.7030539035e+01    0.2127855    0.1731996  69.22   0.00129416    1.326    0.246
        13 -11.1244    177.3162    197.0216   5.8074633024e+01   8.4859533846e+00    0.1733111    0.1586941   0.93 0.0007116926    1.106    0.095
        14 -12.3608    163.6800    194.4613   6.0289056590e+01   1.1146526476e+01    0.4448498    0.2950255  65.86  0.002193647    2.384    0.580
        15 -10.7037     66.2106    192.9312   8.0858118645e+01   2.6674293660e+01     0.268279    0.1577658 -89.93  0.001426721    1.847    0.459
        16 -10.2130    129.3719    188.1930   6.6354470367e+01   1.8012014915e+01    0.1764752     0.125307 -69.02 0.0006383233    1.727    0.421
        17 -10.7881     11.9633    187.2732   9.2300659944e+01   3.4018124163e+01    0.1589904    0.1213872  66.22 0.0003732538    1.065    0.061
        18 -10.4581    109.2379    185.2535   7.0320361756e+01   2.1893619771e+01    0.1980349    0.1092992 -72.36 0.0008872457    2.421    0.587
        19 -11.2530     94.9257    183.2051   7.3258613764e+01   2.4569939205e+01    0.3562464     0.224613 -78.09  0.001824799    1.849    0.459
        20 -10.8235    147.5968    179.7650   6.1099186697e+01   1.6451455288e+01    0.1778504    0.1299471 -61.35 0.0009058152    1.652    0.395
        21 -11.6103      2.1135    178.8759   9.4006766831e+01   3.6682661646e+01    0.2989476    0.1723546 -33.44  0.001500522    3.645    0.726
        22 -11.4684     77.6216    175.1874   7.6227039175e+01   2.8874249368e+01     0.322872    0.1841178  86.18  0.001241497    2.252    0.556
        23 -10.0418    183.6732    175.3401   5.3018529747e+01   1.0845957908e+01    0.1261403    0.1073783  85.76 0.0007051489    1.733    0.423
        24 -10.9484    177.1156    170.7206   5.3414572373e+01   1.2780820379e+01    0.2274759    0.1890794 -51.15  0.001316407    1.395    0.283
        25 -10.1988    134.6856    171.3418   6.2428411763e+01   2.0336554742e+01    0.1405797    0.1057359  76.17 0.0007047564    1.706    0.414
        26 -11.4660    121.8262    168.2780   6.4800952510e+01   2.3227343980e+01    0.4943018    0.3149197 -69.38  0.002349161    1.951    0.487
        27 -11.5729    139.1837    164.0733   6.0114675605e+01   2.0958282153e+01    0.4603508    0.2724388 -67.14  0.001960494    2.464    0.594
        28 -11.0150     80.0008    163.4962   7.4071525853e+01   3.1127931145e+01    0.3929318    0.1850476 -83.31  0.001391326    3.574    0.720
        29 -10.3988    146.1549    162.8374   5.8340243404e+01   1.9912300702e+01    0.2050062    0.1824298  77.27 0.0005198211    1.271    0.213
        30 -10.7604    177.6396    159.9126   5.1179054735e+01   1.4547432691e+01    0.2700141    0.1761639 -54.57  0.001299245    1.914    0.477
        31 -11.1321     92.8893    158.9611   7.0178577038e+01   3.0143859081e+01    0.3861242    0.1974263 -67.92  0.001653433    2.194    0.544
        32 -11.3787    188.6531    156.5357   4.8343698230e+01   1.3067202738e+01    0.3677985    0.1975812 -44.32  0.001564905    1.966    0.491
        33 -11.5343    196.9072    157.1411   4.6922328247e+01   1.1439018481e+01      0.20037    0.1919942 -55.39  0.001028344    1.273    0.214
        34 -10.8521    167.7531    156.5298   5.2488492316e+01   1.7023771598e+01      0.29352    0.1689592 -54.69  0.001284173    2.172    0.540
        35 -10.6416    105.1824    157.2181   6.6846874533e+01   2.8482876452e+01     0.204741    0.1607088  75.24  0.001078994    1.367    0.268
        36 -12.1111    205.0076    154.2100   4.4843375367e+01   1.0430893561e+01    0.2455532    0.1872413 -29.69 0.0008851539    1.248    0.198
        37 -10.8082     49.4705    153.9336   8.0585136809e+01   3.7533072738e+01    0.3805013    0.1974844  88.82  0.001709813    2.180    0.541
        38 -10.8654     81.4921    153.5607   7.2206118387e+01   3.3180789732e+01    0.2513385    0.1303588 -76.29  0.001032894    2.364    0.577
        39 -11.1622     67.8033    153.1591   7.5696597664e+01   3.5296090633e+01    0.4054863    0.2230135  69.29   0.00176597    2.249    0.555
        40 -10.7997    133.1353    152.4518   5.9259505114e+01   2.4448864342e+01    0.3140665    0.2229039  85.13  0.001424194    2.065    0.516
        41 -12.9406    189.1290    148.4317   4.6538610776e+01   1.4356488415e+01    0.5281942    0.3146407 -47.63  0.002473825    1.857    0.462
        42 -12.0763    200.2012    148.2287   4.4437188480e+01   1.2285498794e+01    0.3034836    0.2171732 -42.96  0.001475197    1.456    0.313
        43  -9.7533    142.6494    148.3262   5.6232374682e+01   2.3472258101e+01    0.1499666    0.1144253  81.66  0.000704847    1.759    0.431
        44 -10.7960     38.8475    146.6794   8.2545660234e+01   4.0514110701e+01    0.3026788    0.1286791  82.61  0.001091225    3.437    0.709
        45 -11.7296    148.9657    143.7310   5.3831763366e+01   2.3158717497e+01    0.6222181    0.3662713 -65.58  0.002450728    2.609    0.617
        46 -11.1214     55.2096    143.7726   7.7733375979e+01   3.9246095161e+01    0.5310528    0.2285613 -81.98  0.001958688    3.064    0.674
        47 -11.4505    106.5399    143.7224   6.4029837113e+01   3.1271129197e+01    0.4596419    0.2860676 -81.80  0.001906843    2.327    0.570
        48 -11.4132    124.6674    141.6718   5.9083671754e+01   2.8359953119e+01    0.5328607    0.2876447 -67.91   0.00196845    2.816    0.645
        49 -10.8020    165.5142    143.0237   5.0083771303e+01   1.9983353467e+01    0.2256868    0.1403455 -42.89  0.001038634    1.615    0.381
        50 -10.9615     87.6968    142.4949   6.8721032853e+01   3.4786859871e+01    0.3621307    0.1739793 -62.81  0.001488773    2.117    0.528
        51 -10.8452    181.9889    140.7581   4.6232599990e+01   1.7099538545e+01    0.2650326    0.1818456 -51.69   0.00128151    1.652    0.395
        52 -12.4135    188.5608    135.4863   4.3770806985e+01   1.6716237016e+01    0.4223041    0.2346462 -43.80  0.001691879    1.813    0.449
        53 -11.0321    172.1453    137.0747   4.7373629565e+01   1.9761048733e+01     0.329399     0.186376 -53.86  0.001369684    2.161    0.537
        54 -11.0190     22.6291    136.8878   8.5926606446e+01   4.4549662277e+01    0.3880852    0.1435367  74.30  0.001281164    4.312    0.768
        55 -11.0076    162.5712    135.3149   4.8973911425e+01   2.2061762054e+01    0.2906497    0.1388716 -46.56  0.001142847    2.147    0.534
        56 -10.5651      3.0594    249.2837   9.6411477933e+01   2.3163197198e+01    0.1459883   0.09219112  56.00 0.0005734855    1.087    0.080
        57 -11.5486    158.5356    119.9617   4.6173593829e+01   2.5929945609e+01     0.449029    0.2419982 -46.42  0.001840013    1.858    0.462
        58 -11.9660    141.7064    116.5701   4.9146264068e+01   3.0272474211e+01    0.8014865     0.298701 -44.86  0.002714229    2.635    0.621
        59 -11.2216    130.4698    116.8557   5.1949010818e+01   3.2611578113e+01    0.5194643    0.2663875 -55.41  0.001974285    2.185    0.542
        60 -11.0580     70.7479    118.2388   6.8913423853e+01   4.3340896662e+01    0.3689066    0.1709032 -66.67  0.001437773    2.253    0.556
        61 -11.3381      2.4696    114.9927   8.9696647840e+01   5.1506861859e+01    0.6452776    0.1641504 -86.85  0.001977615    4.811    0.792
        62 -11.7850     82.9453    130.2098   6.7729312318e+01   3.8493606227e+01    0.6366295    0.2541445 -64.52  0.002252743    2.793    0.642
        63 -11.9704    186.0439    114.8678   3.9312092723e+01   2.0901889716e+01    0.3721877    0.2112279 -39.88  0.001190531    1.667    0.400
        64 -11.1149    142.8611    129.9388   5.2128274569e+01   2.7229198866e+01    0.4512766    0.1945598 -51.03  0.001625449    2.503    0.600
        65 -12.1964    193.0059    113.9261   3.7793784085e+01   1.9568669615e+01     0.363116    0.2011479 -42.94  0.001578647    1.745    0.427
        66 -11.9638    108.8733    111.4246   5.6246961349e+01   3.8257737904e+01    0.8699391     0.326793 -52.48  0.002929635    2.687    0.628
        67 -10.5187     22.5069    115.0712   8.3452575962e+01   4.9949508321e+01    0.2114265    0.1109821 -74.89   0.00103799    1.608    0.378
        68 -11.4552    131.7649    129.1825   5.4599320411e+01   2.9669890495e+01    0.6140607    0.2531729 -53.04  0.002145686    2.664    0.625
        69 -11.8375     92.2408    109.3239   6.0471594756e+01   4.1915689447e+01    0.9024878    0.2690397 -55.71  0.002699967    3.495    0.714
        70 -11.7629     78.4079    110.4908   6.4912088077e+01   4.4031333538e+01    0.7228953    0.3262048 -70.72  0.002356331    3.369    0.703
        71 -11.8442    174.9450    109.9895   4.0215728466e+01   2.4228441148e+01    0.4856172    0.2140121 -38.25   0.00182504    2.167    0.539
        72 -11.3920    122.0709    110.5617   5.2485487120e+01   3.5758571937e+01    0.4746459    0.2263168 -46.93  0.001803569    2.046    0.511
        73 -11.7330    159.2583    110.1079   4.3498084415e+01   2.7715080537e+01    0.3921819    0.2056252 -38.01  0.001564153    1.883    0.469
        74 -11.5301     14.7275    108.0992   8.5066025786e+01   5.2337690708e+01    0.4622217    0.2715133 -67.80  0.001707227    1.403    0.287
        75 -11.1158     65.9490    108.9318   6.8458902327e+01   4.6363393571e+01    0.4273835    0.1955147 -66.80  0.001649103    2.302    0.566
        76 -12.8749    189.3130    106.5524   3.6599650267e+01   2.1659491129e+01    0.5029421    0.2088546 -41.11  0.001881598    2.256    0.557
        77 -11.7300    182.9740    107.9970   3.8146010491e+01   2.2806156942e+01    0.3304374    0.1983825 -37.02  0.001461859    1.573    0.364
        78 -10.7342    133.2397    108.5962   4.9129785615e+01   3.3798135822e+01    0.3038105     0.186454 -54.96  0.001266664    1.742    0.426
        79 -10.6087    112.6787    132.6891   6.0189954811e+01   3.2648334958e+01    0.3042299    0.1812567 -74.74  0.001172991    2.494    0.599
        80 -11.9496    166.8836    102.1133   3.9761335804e+01   2.7526465301e+01     0.510779    0.2040278 -35.76  0.001762402    2.517    0.603
        81 -12.1478    150.1966    100.5019   4.2912738931e+01   3.1672834099e+01    0.7841387    0.2497705 -43.12  0.002429964    3.021    0.669
        82 -11.7826    139.7498    102.3326   4.5848795019e+01   3.3675353305e+01    0.5589828    0.2888301 -39.18  0.002174231    1.939    0.484
        83 -12.7086     21.4184     98.4830   8.1457387311e+01   5.4195904333e+01     0.973611    0.3867787 -87.04  0.003484972    3.415    0.707
        84 -12.1806    192.6928    129.4942   4.1608797304e+01   1.6925272220e+01    0.2911788    0.2621892 -25.57  0.001220044    1.047    0.044
        85 -12.0686     44.2423     99.2380   7.3632825020e+01   5.1683910723e+01    0.9274015     0.377275 -75.78  0.003206189    3.246    0.692
        86 -11.7382    128.5414    100.1352   4.8007192619e+01   3.6636536272e+01    0.5380846    0.2943018 -39.26  0.002143733    1.859    0.462
        87 -11.5696    175.5188    100.5247   3.7608257742e+01   2.5842270904e+01    0.3294991    0.1437635 -37.12  0.001214224    2.179    0.541
        88 -11.7377    159.5590     99.2548   4.0513172002e+01   2.9759347752e+01    0.4712791    0.1426678 -40.46  0.001431845    3.124    0.680
        89 -11.3532     81.7585     98.3439   6.0910078451e+01   4.6402535860e+01    0.5412145    0.1911406 -57.56  0.001764982    2.963    0.663
        90 -12.4113    108.0241     95.6987   5.2278149913e+01   4.2002972391e+01    0.7882838    0.3712938 -50.46  0.002965264    2.087    0.521
        91 -11.5800    168.7351    128.2815   4.6028579688e+01   2.2128480450e+01    0.4044713    0.1955594 -46.52  0.001594266    2.127    0.530
        92 -11.3786     95.1178     93.9820   5.5582820892e+01   4.4974861271e+01    0.6756656    0.2499884 -44.26  0.002261806    2.719    0.632
        93 -11.2847    152.8653    127.5477   4.9277758329e+01   2.5626237230e+01    0.5239642    0.2011815 -48.05  0.001796907    2.734    0.634
        94 -12.1048     63.2284     92.7964   6.5608277380e+01   5.0740175556e+01    0.8811767    0.2596622 -58.57   0.00281875    3.221    0.690
        95 -12.3240     98.7833    124.2608   6.2068304130e+01   3.7183684753e+01    0.9702038    0.3793291 -54.08  0.003490964    2.487    0.598
        96 -12.4242    176.9704     92.0024   3.5006641227e+01   2.7045053301e+01    0.3812544    0.2219173 -27.95  0.001581736    1.828    0.453
        97 -11.6508    164.9589     92.5374   3.7511089765e+01   2.9770237298e+01    0.3096008     0.218951 -20.95  0.001381652    1.632    0.387
        98 -11.7263    138.8308     90.0527   4.2563180791e+01   3.6395593322e+01    0.5681416    0.2524571 -41.24  0.002055452    2.171    0.539
        99 -10.7077     72.6668    128.1234   7.0265426538e+01   4.0618629639e+01    0.3292538    0.1731012 -73.85  0.001345569    2.177    0.541
       100 -12.0948    124.8276     87.5832   4.5314129349e+01   4.0116662281e+01    0.7834511    0.3567368 -37.23  0.002800193    2.311    0.567
       101 -12.2639      4.8207     89.0851   8.6040865000e+01   5.7743084511e+01    0.5286701    0.1697968 -67.23  0.002263942    2.276    0.561
       102 -11.0105    157.9896     90.0030   3.8235607212e+01   3.1893639975e+01    0.2479763    0.1940874   4.10   0.00113365    1.669    0.401
       103 -11.3761     34.5381     86.5846   7.4501416120e+01   5.5922498905e+01    0.7346622    0.1822693 -62.20  0.002484029    3.170    0.685
       104 -11.1361    150.9853     87.5553   3.9034833765e+01   3.4024080200e+01    0.2675402    0.2016253 -38.81  0.001254823    1.283    0.220
       105 -11.5522     85.9223     85.6051   5.6041261647e+01   4.8644176608e+01    0.4639588    0.2702146 -67.72  0.001724023    2.303    0.566
       106 -12.2925    179.7801     84.8573   3.2492883791e+01   2.7637804253e+01    0.3734264    0.1852084 -41.80  0.001479856    1.891    0.471
       107 -11.3139     12.0000    127.0307   8.7977605559e+01   4.7871718250e+01    0.4128333    0.1354095 -87.53  0.001502595    3.355    0.702
       108 -11.8617     47.8664     82.3640   6.8492090702e+01   5.5410876515e+01    0.6503176    0.2450726 -66.51  0.002256351    3.046    0.672
       109 -11.7869    104.2527     80.6986   4.8870844405e+01   4.6088899916e+01    0.6999421    0.2593104 -46.24  0.002352973    2.596    0.615
       110 -10.9664    170.5973     82.2127   3.3441983805e+01   3.0297544109e+01    0.2229569    0.1452933 -24.74 0.0009566646    1.679    0.404
       111 -11.4200    158.6543     81.3453   3.5554686573e+01   3.3343658181e+01    0.3440895    0.1965188 -29.02  0.001376065    1.888    0.470
       112 -11.5326    140.7907     81.0290   3.9373622966e+01   3.7712499270e+01     0.418346    0.2099883 -29.35  0.001499903    2.374    0.579
       113 -11.2541     24.0369     79.5608   7.7075046943e+01   5.8672769706e+01    0.3705617    0.1700432 -79.06  0.001533072    2.465    0.594
       114 -11.4633     25.1253     73.6143   7.5341043346e+01   6.0028406329e+01    0.5479049    0.1878778 -39.72  0.001842158    4.065    0.754
       115 -11.2194    179.6366    132.8153   4.4884736415e+01   1.9010719728e+01    0.3403453    0.2164466 -49.31  0.001551933    1.697    0.411
       116 -10.4479     74.2737     78.7221   5.7867788772e+01   5.2310972852e+01    0.4828807    0.1296699 -56.53  0.001219718    5.056    0.802
       117 -11.8749    174.8426     77.3081   3.1224618249e+01   3.0121318279e+01    0.2911459    0.1938952 -44.04  0.001321219    1.431    0.301
       118 -10.7607    157.5101     75.0095   3.3871224925e+01   3.4766293823e+01    0.2464212    0.1491626 -35.11  0.001036247    1.603    0.376
       119 -10.6648     10.0014     74.4897   8.1756166211e+01   6.1000090245e+01    0.1586382    0.1295731  15.05 0.0003554678    1.512    0.338
       120 -12.8424    189.6649     75.2344   2.8083356054e+01   2.6894794131e+01    0.7327043    0.2265588 -25.59  0.001817738    5.378    0.814
       121 -11.7736     81.8832     71.5464   5.2959191776e+01   5.2551972676e+01    0.5384731    0.2134524 -54.80    0.0018024    2.923    0.658
       122 -11.5012     62.4353     71.8383   6.0004976706e+01   5.5837503320e+01     0.436415    0.1283926 -52.37  0.001423711    3.068    0.674
       123 -12.0143    180.1465    123.3317   4.2531519960e+01   2.0636128555e+01    0.4815708    0.2162067 -36.71  0.001862909    2.177    0.541
       124 -10.8213    119.1842     78.4723   4.3964138850e+01   4.3273919660e+01    0.3148688    0.2166488 -41.07   0.00141643    1.408    0.290
       125 -11.0744    167.5887     76.2384   3.2258365430e+01   3.2075028739e+01    0.2222523    0.1466136 -23.27 0.0009546394    1.688    0.408
       126 -10.5109    115.5867     70.7145   4.2380344650e+01   4.5651251883e+01    0.3173087    0.1485146 -35.86   0.00115554    2.206    0.547
       127 -11.0500    105.5580     69.7864   4.4890433733e+01   4.8086231693e+01    0.3944588    0.1427812 -43.95  0.001308103    2.654    0.623
       128 -11.2167     94.7413     68.2889   4.7647266661e+01   5.0703071782e+01    0.7216544     0.174787 -46.59  0.001954263    4.153    0.759
       129 -11.3207    117.2159    123.1896   5.6870927531e+01   3.3921542692e+01    0.6193562    0.2691475 -52.39  0.002274037    2.325    0.570
       130 -11.6083    128.1672     72.4623   3.9684116100e+01   4.2373922974e+01    0.6690969    0.2857018 -32.69  0.002262823    2.629    0.620
       131 -11.5105     50.8715     67.0370   6.2986668025e+01   5.8646403885e+01    0.6447068    0.1940374 -60.03  0.001929124    4.065    0.754
       132 -11.4727     58.4768    121.6491   7.3285079482e+01   4.4260244142e+01    0.7408502    0.2717918 -73.70  0.002314895    3.852    0.740
       133 -11.2073     16.4785     68.5051   7.7838730590e+01   6.1989971490e+01    0.2905583    0.1083517 -66.94  0.001225926    2.221    0.550
       134 -11.0389    147.0030     65.7109   3.3116943764e+01   3.9011323271e+01    0.4502075    0.2337234 -22.80  0.001615136    2.509    0.601
       135 -12.2033    188.6704    122.9081   4.0793756303e+01   1.8912146821e+01    0.3567454    0.2206897 -39.84  0.001291828    1.542    0.351
       136 -11.6622     42.5391    119.6516   7.7837675022e+01   4.6758475718e+01    0.8040534    0.2745272 -79.43  0.002309207    4.846    0.794
       137 -10.2620    157.3165     68.3484   3.1841744604e+01   3.5980555154e+01    0.1592644    0.1215081  14.95 0.0007047828    1.727    0.421
       138 -11.0597     28.7733    121.0057   8.2279324409e+01   4.7883197933e+01    0.5720608     0.163729 -75.40   0.00192125    3.543    0.718
       139 -11.2373    172.4454    120.0068   4.3254186958e+01   2.2903972482e+01    0.3254242    0.1874181 -39.29  0.001404503    1.678    0.404
       140 -11.0954    150.2263     78.4889   3.6470882607e+01   3.5916617811e+01    0.3151185    0.2142292 -36.66  0.001406843    1.428    0.300
       141 -10.6002     99.9916     57.1714   4.2012549663e+01   5.1780318028e+01    0.4983229    0.1434759 -36.72  0.001453251    3.634    0.725
       142 -11.2580     73.1083     55.9716   5.0503602609e+01   5.7473383672e+01    0.8163837    0.1753407 -43.42  0.002239822    4.399    0.773
       143 -11.2606    138.5950     64.5097   3.4561835914e+01   4.1311599773e+01    0.4485262    0.1464371 -35.65  0.001397224    2.971    0.663
       144 -11.2435      7.9943     51.2130   7.7677625718e+01   6.6673039291e+01    0.4314545          nan -52.68  0.001264702    4.975    0.799
       145 -11.0223    140.5003     73.5031   3.7073153234e+01   3.9209434857e+01    0.3360254    0.1508689 -36.90  0.001212287    2.170    0.539
       146 -11.0307    109.8433     61.1734   4.0633227047e+01   4.8809431953e+01    0.4647986    0.2042877 -32.39  0.001627973    2.534    0.605
       147 -10.9541    121.5157     63.6845   3.8395464065e+01   4.5612888641e+01    0.4784251    0.1532841 -35.73   0.00145318    3.186    0.686
       148 -12.0343     45.2235     49.5072   5.9338845270e+01   6.3312670473e+01    0.4471487    0.2211201 -39.83  0.000767455    1.946    0.486
       149 -10.9519     53.5023     50.4581   5.6109038368e+01   6.1910946533e+01    0.6209664    0.1306355 -50.18   0.00173984    4.600    0.783
       150 -11.0521     91.9154     47.7784   4.0833740966e+01   5.5270002210e+01    0.5913561    0.1599101 -40.45  0.001799662    3.492    0.714
       151 -10.2836     63.3138     48.0165   5.1109197773e+01   6.0813064134e+01    0.2368793    0.1008883 -28.91 0.0007044685    4.238    0.764
       152 -10.5757     82.4426     43.3084   4.2078831821e+01   5.8065807170e+01    0.6255971    0.1896589 -30.76  0.001629934    5.212    0.808
       153 -10.5209    113.2127     42.8375   3.2785082287e+01   5.1201462267e+01     0.513036    0.2697686  -5.34  0.001460783    4.799    0.792
       154 -11.0183      5.0000     40.0310   7.6178843683e+01   6.9399569808e+01    0.3528222   0.05799925 -65.08  0.001055484    4.972    0.799
       155 -10.6532    122.8713     41.9909   3.0102616170e+01   4.8958263991e+01    0.3716564    0.2099074  -3.07  0.001261589    3.303    0.697
