#   1 NUMBER                 Running object number                                     
#   2 MAG_AUTO               Kron-like elliptical aperture magnitude                    [mag]
#   3 X_IMAGE                Object position along x                                    [pixel]
#   4 Y_IMAGE                Object position along y                                    [pixel]
#   5 X_WORLD                Barycenter position along world x axis                     [deg]
#   6 Y_WORLD                Barycenter position along world y axis                     [deg]
#   7 A_WORLD                Profile RMS along major axis (world units)                 [deg]
#   8 B_WORLD                Profile RMS along minor axis (world units)                 [deg]
#   9 THETA_WORLD            Position angle (CCW/world-x)                               [deg]
#  10 FWHM_WORLD             FWHM assuming a gaussian core                              [deg]
#  11 ELONGATION             A_IMAGE/B_IMAGE                                           
#  12 ELLIPTICITY            1 - B_IMAGE/A_IMAGE                                       
         1 -13.4469     43.8808     22.8769   4.5111945758e+01   6.8912237618e+01      1.14901    0.8761422 -41.50  0.006791154    1.488    0.328
         2 -11.8870     39.2784      8.2573   3.9981625315e+01   7.1854837111e+01    0.4343217    0.3056426  -9.94  0.002479453    1.843    0.457
         3 -12.8675    178.3237     23.3193   1.3880821834e+01   3.8339753224e+01    0.6730685    0.3152925 -51.87  0.003511689    1.844    0.458
         4 -11.8456    226.4847     15.1723   8.5933585128e+00   2.9799478085e+01    0.4675535    0.2755518 -62.24  0.003208057    1.284    0.221
         5 -11.5110     20.1080     15.3006   5.6115091068e+01   7.3975951052e+01    0.4492711    0.2346836   7.01  0.001783647    3.523    0.716
         6 -12.8926    156.8339     11.8970   1.3132045286e+01   4.4379038802e+01    0.5886132    0.4774087  86.41  0.003568197    1.123    0.109
         7 -12.0271    164.8697     12.0079   1.2375913199e+01   4.2559783685e+01    0.4889893    0.2775694 -54.02   0.00222762    1.547    0.353
         8 -12.9695    161.3325      3.2458   1.0454700385e+01   4.4257622835e+01    0.9157356     0.315661  69.06  0.004224891    2.489    0.598
         9 -12.9853    169.8930      5.5503   1.0323104265e+01   4.2128754608e+01     0.872726    0.4832951 -44.12  0.005108145    1.640    0.390
        10 -13.7689    177.3900      4.3361   9.4494796320e+00   4.0628393635e+01     1.025401    0.6107458 -73.46  0.006245479    1.400    0.286
        11 -11.0898    231.8040      9.1058   7.1624223260e+00   2.9512514099e+01    0.3433354      0.19652 -64.23  0.002389604    1.316    0.240
        12 -12.2058     10.7160      6.2762   5.8763336311e+01   7.6665758670e+01    0.3813925    0.2571623 -71.61  0.002075066    2.626    0.619
        13 -11.8324    192.6158      5.4050   8.6380048385e+00   3.7335114364e+01    0.2798683    0.1770127 -50.78  0.001399698    1.319    0.242
        14 -11.2164    223.6145      4.9350   6.7777422377e+00   3.1411013456e+01    0.3698241    0.1339737 -56.11  0.002042729    2.067    0.516
        15 -12.8928    205.9836      4.3266   7.5933146972e+00   3.4785554347e+01    0.6945657    0.2627837  81.27  0.003632206    2.489    0.598
        16 -11.5600    141.7399      1.8610   1.1919002749e+01   4.8880008654e+01    0.5277296    0.1967823 -40.21   0.00249336    2.467    0.595
        17 -10.2119     70.2243      5.7298   2.6132876427e+01   6.5562501660e+01    0.2393701    0.1428527  65.30  0.001268559    1.449    0.310
        18 -11.1791      1.8850      3.5756   6.5582028745e+01   7.8052865129e+01    0.3946031    0.1698477 -49.28  0.002033522    2.326    0.570
        19 -11.0164    129.7170      4.1216   1.3952527366e+01   5.1501337620e+01    0.3800185    0.1361195  76.23  0.001599532    2.472    0.595
        20 -11.2486     84.6196      3.6227   2.1408589346e+01   6.2400462299e+01    0.6203626    0.1929822  64.93  0.002457216    2.581    0.612
        21 -11.6834     17.9769      2.6930   5.0519705485e+01   7.6242385461e+01    0.2847098    0.1801072 -43.61  0.001682756    1.842    0.457
        22 -10.7454    217.6606      1.8848   6.4792623659e+00   3.2817819664e+01    0.2138565    0.1237474 -79.19  0.001364913    1.437    0.304
        23 -13.0127    240.2389    102.3516   2.3768652118e+01   1.6185132599e+01    0.7126566    0.4356911  30.52  0.004023858    3.032    0.670
        24 -11.6539    222.6633    107.0695   2.6648978386e+01   1.8124644309e+01    0.3178879    0.2476817  30.77  0.002111706    1.776    0.437
        25 -10.2319    108.0074    109.0000   4.9186980497e+01   3.9207485547e+01    0.2550581   0.08362322  42.11 0.0008071334    2.975    0.664
        26 -10.8949     17.3217    103.5531   8.2252051871e+01   5.4238863840e+01     0.352108     0.156853  41.23  0.001420783    2.237    0.553
        27 -10.8261    112.8668     99.9435   4.5609434786e+01   4.0212084662e+01    0.3704372    0.2507532 -65.44  0.001690396    1.683    0.406
        28 -12.0220    148.7320    110.0883   3.9340892954e+01   3.0824910136e+01    0.5058997    0.2849436 -49.80  0.002313194    1.731    0.422
        29 -10.1481    178.8834     92.3299   2.9778351136e+01   2.8146471861e+01    0.2401881    0.1645718 -55.79  0.001320398    1.361    0.265
        30 -10.1979     94.6631    111.9759   5.3892296112e+01   4.1105165124e+01     0.245825    0.1285964 -77.55 0.0007045995    4.309    0.768
        31 -11.2099     13.0846     89.8163   8.2253359357e+01   5.8148736105e+01    0.2206841    0.1841196  52.32  0.001235053    1.252    0.201
        32  -9.7946    240.3918     88.7494   2.1306880393e+01   1.8098270865e+01    0.1614043   0.08916864 -34.73 0.0009571692    1.711    0.416
        33 -13.3206     15.3658     73.3192   7.8261264594e+01   6.2144550592e+01    0.8996561     0.593225  32.12  0.004635456    1.506    0.336
        34 -11.3386      2.8823     88.6399   8.7067412073e+01   5.9075149955e+01    0.3773542    0.3162309  65.33  0.002191924    1.254    0.202
        35 -11.1010      2.8749     82.7278   8.6341163125e+01   6.0589070887e+01    0.4018582    0.1907366 -64.09   0.00155774    1.903    0.475
        36  -9.6880    193.6066     86.8036   2.6403431572e+01   2.6262888045e+01    0.1869755   0.09917591 -51.35 0.0007623844    1.704    0.413
        37 -10.5419    100.8967     83.5892   4.4740486857e+01   4.6169015830e+01    0.3235481    0.1977632 -54.25  0.001409368    1.732    0.422
        38 -12.4228     42.5499     81.3104   6.6372953177e+01   5.7232127822e+01     1.066042    0.6411312   7.32  0.004490418    2.199    0.545
        39 -10.0355    144.7975     80.8079   3.3156267391e+01   3.7174259263e+01    0.2045489    0.1578406 -78.65   0.00107994    1.366    0.268
        40 -10.0794    215.4924     79.4993   2.2179694382e+01   2.3453687069e+01    0.2248529    0.0827899 -48.50  0.001032546    2.305    0.566
        41 -11.8248    220.5708     77.3747   2.1207019993e+01   2.2893273484e+01    0.3683885    0.2074712 -70.27  0.001993636    2.166    0.538
        42  -9.6843    169.2117     75.5873   2.7512070742e+01   3.2883257033e+01    0.1824399    0.1197038  50.00 0.0009524036    1.720    0.419
        43 -10.3295    226.9358     71.7973   1.9478331381e+01   2.2613072551e+01    0.2811632    0.1445223 -59.52  0.001563087    1.898    0.473
        44 -10.2938     74.9458     69.3828   4.9243469427e+01   5.4458437236e+01    0.3440551     0.133582  42.73  0.001243973    2.413    0.586
        45 -10.9890    214.4554     66.5385   1.9703983719e+01   2.5505779001e+01    0.1997991    0.1437182 -40.56  0.001294688    1.321    0.243
        46  -9.5482    179.0060     66.0000   2.3830262496e+01   3.2383067839e+01    0.2010242   0.07048527  61.68 0.0008047412    2.958    0.662
        47 -10.8380    233.5769     63.9818   1.7377863157e+01   2.2582210479e+01    0.1923272    0.1522008  52.97  0.001388951    1.717    0.418
        48 -12.6790      4.6050     74.9080   8.4345267520e+01   6.2469693279e+01    0.8454527    0.4308146  82.69  0.003617814    2.496    0.599
        49 -11.2091    227.4947     57.1757   1.6617747358e+01   2.4510458183e+01    0.3085322    0.1808008  38.89  0.001587433    3.548    0.718
        50 -10.6265    195.8661     56.3235   1.9567718637e+01   3.0426409270e+01     0.193106    0.1362762 -80.41 0.0008490164    1.367    0.268
        51 -10.8897    199.0278     51.7065   1.8226750274e+01   3.0451662633e+01     0.292962    0.1527722 -44.39  0.001604066    1.635    0.388
        52 -10.1377    164.5908     53.2390   2.2809860035e+01   3.7352355649e+01    0.1746291    0.1244515 -30.82 0.0009537927    1.690    0.408
        53 -10.4808    215.4508     50.6809   1.6410880636e+01   2.7498057714e+01     0.183169    0.1372233  50.63  0.001206925    1.840    0.456
        54 -11.0785     85.3562     47.8868   3.8440644026e+01   5.6333040898e+01    0.4811369    0.2550828  48.51  0.002145276    1.730    0.422
        55 -11.5207      3.2893     41.2056   7.8559565284e+01   7.0501794261e+01    0.4292796    0.3502477  26.47  0.002684085    1.265    0.209
        56 -11.5851     80.9944     37.0192   3.5889355586e+01   5.9066619138e+01    0.3723808    0.2583173 -28.39  0.001907976    1.803    0.445
        57  -9.6064    223.9937     40.2453   1.3620790134e+01   2.7302503624e+01    0.1342377   0.08659142  80.82 0.0008853924    1.597    0.374
        58  -9.7259    180.6602     39.2988   1.7413085870e+01   3.5845384108e+01    0.1337218   0.07816304 -69.10 0.0006352878    1.664    0.399
        59 -11.0473      5.7218     34.7498   7.4998872480e+01   7.1738929554e+01    0.3031245    0.1656733  32.92  0.001560623    1.845    0.458
        60 -11.0585    159.8271    231.2455   5.8358043212e+01   5.9878421755e+00    0.3322848     0.130835  18.93  0.001405852    2.959    0.662
        61 -11.2916    248.6684    224.4995   4.2243335669e+01  -1.9156895080e+00    0.3969343    0.1642011 -37.62   0.00249297    1.957    0.489
        62 -10.0891    229.4125     29.2421   1.1107673960e+01   2.7679186239e+01    0.1634648   0.07309779 -47.77 0.0009565286    1.661    0.398
        63 -10.6010    145.7487     27.6829   1.8752134857e+01   4.5102111692e+01    0.4357674    0.1885407 -72.15   0.00154565    3.791    0.736
        64 -13.4303    210.4722    217.0488   4.7019104051e+01   2.6508324113e+00    0.7790491    0.5921352   9.87  0.005749126    1.221    0.181
        65 -11.7094    172.7741     20.4167   1.3713881353e+01   3.9877282434e+01    0.2822973      0.16946  65.22  0.001300349    1.672    0.402
        66 -10.3462    224.5353     22.2251   1.0070673921e+01   2.9358899874e+01    0.2293937    0.1275676 -64.93  0.001476022    1.463    0.317
        67 -11.1343    187.4163     19.2987   1.2137452303e+01   3.6890957247e+01    0.2413077    0.1857508 -75.78  0.001196313    1.043    0.041
        68 -10.0020    129.0139     18.2709   1.8413758273e+01   5.0177478052e+01    0.1966558    0.1501672  80.53  0.001172602    1.112    0.100
        69 -13.3317    181.5567    218.1936   5.2296708756e+01   5.6151642926e+00    0.6153077    0.3498896 -26.11  0.003487154    1.801    0.445
        70 -10.5436     67.4812    217.4915   7.8315625185e+01   1.9818383139e+01    0.1356542    0.1171865  33.21 0.0001814135    1.019    0.019
        71 -12.5783    248.1829    185.9123   3.6693743867e+01   3.2010938635e+00    0.5741429    0.2984726 -47.43  0.003572485    1.991    0.498
        72 -13.4214    243.4420    199.6136   3.9404164810e+01   1.8002315953e+00    0.7866117    0.4875415 -38.72   0.00440592    1.397    0.284
        73 -11.6443    246.8033    192.3741   3.7857924307e+01   2.4557323839e+00    0.3202664    0.2780599  24.11  0.002013562    1.480    0.324
        74 -10.4549     80.3306    199.6625   7.3017887243e+01   2.2214899550e+01    0.1511023   0.09527501  55.82 0.0007052009    1.736    0.424
        75 -11.3878    158.8438    224.8918   5.7697857008e+01   7.1528570068e+00    0.1955808     0.146543  -7.82 0.0008671021    1.266    0.210
        76  -9.9794     79.0000     12.9803   2.6805052348e+01   6.2747424478e+01    0.1938813    0.0767179 -30.74  0.000807212    2.976    0.664
        77  -9.9591     37.3500    185.3097   8.3790942866e+01   3.0752694982e+01    0.1419737    0.1040279 -28.31   0.00061092    1.714    0.417
        78 -11.1561     50.8342    217.8441   8.2703306175e+01   2.1619006812e+01    0.2459604    0.2141943  36.29  0.001520832    1.040    0.039
        79 -11.4405    219.8082    155.7849   3.5804074819e+01   1.0910860011e+01    0.3246524     0.238309  75.14  0.001930242    2.445    0.591
        80 -10.1933     20.5031    155.4914   8.6594108144e+01   4.0068413775e+01    0.1408582    0.1315536  61.96 0.0001736079    1.021    0.020
        81  -9.7727     53.6168    143.2303   7.3743711805e+01   3.9769206733e+01    0.2156654    0.1322634 -55.88 0.0009503865    1.669    0.401
        82 -11.9581     11.1147    139.8295   8.8590965714e+01   4.4988472909e+01    0.5434799    0.2437094  56.43  0.002176426    2.332    0.571
        83 -12.8725    238.4804    125.7784   2.8105436430e+01   1.3006781206e+01    0.7423062    0.5929111 -82.87  0.005320611    1.666    0.400
        84  -9.9926      4.6459    124.3199   8.9780778872e+01   4.9567034375e+01    0.1554626   0.08907534  52.67  0.000704669    1.751    0.429
        85 -11.3901    189.6082    115.1537   3.2877225131e+01   2.2256960989e+01    0.5584049    0.3285922 -17.87  0.002282928    3.475    0.712
        86 -11.2475    212.4677    112.9247   2.9072847974e+01   1.8815461595e+01    0.4919059    0.2030084 -40.66  0.002356596    2.087    0.521
        87 -12.7559    242.7021    108.2555   2.4551397300e+01   1.4983302120e+01    0.8414648    0.5343921 -81.60  0.004954412    2.547    0.607
