#   1 NUMBER                 Running object number                                     
#   2 MAG_AUTO               Kron-like elliptical aperture magnitude                    [mag]
#   3 X_IMAGE                Object position along x                                    [pixel]
#   4 Y_IMAGE                Object position along y                                    [pixel]
#   5 X_WORLD                Barycenter position along world x axis                     [deg]
#   6 Y_WORLD                Barycenter position along world y axis                     [deg]
#   7 A_WORLD                Profile RMS along major axis (world units)                 [deg]
#   8 B_WORLD                Profile RMS along minor axis (world units)                 [deg]
#   9 THETA_WORLD            Position angle (CCW/world-x)                               [deg]
#  10 FWHM_WORLD             FWHM assuming a gaussian core                              [deg]
#  11 ELONGATION             A_IMAGE/B_IMAGE                                           
#  12 ELLIPTICITY            1 - B_IMAGE/A_IMAGE                                       
         1 -11.9255    127.0356     34.4854   4.0447180399e+01   4.9327467462e+01    0.7311438    0.4413291 -55.75            0    2.405    0.584
         2 -11.7127    122.2794     49.6558   4.7106659096e+01   4.8107605596e+01    0.9586273    0.3566502 -33.22  0.003389264    2.738    0.635
         3 -11.3388     84.5439     38.9815   5.4324818249e+01   5.7354779875e+01    0.6059094     0.405352 -53.82 -4.006329e-05    1.961    0.490
         4 -11.5190     62.4800     37.4158   6.1373180653e+01   6.1080704937e+01    0.4628728    0.3850102   8.93   0.00195587    1.209    0.173
         5 -10.4507      1.8586     21.1730   8.0703617203e+01   6.9693775350e+01    0.3604925    0.1019796 -52.87  0.001813706    2.326    0.570
         6 -11.4675     15.6516     26.5019   7.6303276298e+01   6.7898672210e+01     0.916007    0.4987716 -35.12  0.005725346    1.507    0.336
         7 -11.0580      7.5632     22.0609   7.8401100438e+01   6.9217629193e+01    0.3344755    0.2352969 -40.53  0.002261944    1.033    0.032
         8 -12.0274     30.7615     14.8410   6.5074691257e+01   6.8586176614e+01     1.296325    0.5705362 -22.04  0.005814123    3.127    0.680
         9 -11.5367     38.4534     17.3013   6.2770561103e+01   6.7386278233e+01    0.8302105    0.4492869  25.04  0.004797309    2.022    0.506
        10 -11.8016     37.2712      3.0482   5.6683594012e+01   6.9581776128e+01     1.487978    0.4231371  32.76  0.006260557    3.964    0.748
        11 -12.6162     15.0223     13.8680   7.1918781218e+01   7.0124257133e+01    0.6637392    0.3255535   2.55  0.001075263    2.738    0.635
        12 -10.4295     24.3326     12.4512   6.6966993754e+01   6.9578146022e+01    0.2640424    0.1627796 -36.03 0.0003129955    1.271    0.213
        13 -12.1805     45.9031      9.2209   5.5959260384e+01   6.7672592387e+01    0.2761398    0.2033156 -13.67 0.0003099609    1.104    0.094
        14  -9.9706     48.0932      2.4940   5.1781471526e+01   6.8256349656e+01     0.225146    0.1592954 -22.62 0.0002991538    1.235    0.190
        15 -11.7694      8.4422      8.4637   7.2903982591e+01   7.1478488135e+01    0.8152789    0.3026682 -27.34 0.0002585907    3.150    0.683
        16 -10.5910    231.1589     14.6944   1.7304312011e+01   2.5033450848e+01    0.4784909    0.3437129 -37.44  0.002609314    1.369    0.269
        17 -11.4861    236.3059     29.2259   2.0443457408e+01   2.2037167189e+01    0.6187428    0.4447254  15.11  0.003055514    2.008    0.502
        18 -10.4045    227.0953     17.9359   1.8551162072e+01   2.5680826678e+01    0.3424813    0.3039065  34.98  0.001501128    1.333    0.250
        19 -10.3728    223.2777     21.8310   1.9983467728e+01   2.6191906244e+01     0.511867    0.3163289 -52.20   0.00248023    1.609    0.378
        20 -11.4408    239.1049     20.5407   1.7972924520e+01   2.2402362567e+01    0.8146607    0.4719964 -20.90  0.003395691    2.001    0.500
        21 -10.2534    243.5323     17.9128   1.6896252934e+01   2.1637169593e+01    0.3402064    0.2541739 -33.07  0.001167289    1.348    0.258
        22 -11.8806     54.2806     34.5372   6.3343597172e+01   6.2672228457e+01    0.4996744    0.2276959 -48.14  0.001497132    2.189    0.543
        23 -10.3714     66.4424     23.0413   5.4154320946e+01   6.2798879248e+01    0.4946555    0.3227627  -7.96  0.001537091    1.640    0.390
        24 -10.3362     75.7915     21.3506   5.0130872069e+01   6.1529217563e+01    0.4729257    0.3031539 -50.73  0.001567537    2.242    0.554
        25  -9.9798    221.4831     15.6459   1.8555209602e+01   2.7360033113e+01    0.3084909    0.2636954 -78.44    0.0003601    1.085    0.078
        26 -10.7439    180.7039     22.5573   2.5802977351e+01   3.7239030394e+01    0.7750809    0.4298086 -62.52   0.00309398    2.440    0.590
        27  -9.4392    176.2482     13.0103   2.3502923768e+01   3.9469257822e+01    0.4223757    0.1983581 -23.79  0.001252904    2.311    0.567
        28  -9.3636    189.1297      8.0429   2.0228009309e+01   3.6579604384e+01     0.704275    0.4166465 -65.18  0.003165035    2.008    0.502
        29 -11.8235    182.6419     12.5848   2.2455622989e+01   3.7826334164e+01    0.4333739    0.3723023  15.24   0.00123019    1.332    0.249
        30 -11.7791     55.5592     19.4318   5.6698395103e+01   6.4923084045e+01    0.5797645    0.3336181   3.77 0.0008392063    2.375    0.579
        31 -11.9324     57.6001     13.3940   5.3210849786e+01   6.5492247785e+01    0.6303844    0.3736419  33.02  0.002845757    1.709    0.415
        32 -12.1626    111.2571     19.2204   3.8599205138e+01   5.4871031310e+01    0.5793825     0.367387  -4.76  0.002818022    1.796    0.443
        33 -11.1912    151.9876     17.7240   2.9067409865e+01   4.5285611964e+01    0.6676148    0.3760141  40.22   0.00259233    1.809    0.447
        34  -8.7778    157.7287      5.6901   2.3968273874e+01   4.5030044863e+01    0.2157619    0.1794798  36.47 0.0005627095    1.194    0.163
        35  -8.8078    149.4780     11.5908   2.7394904324e+01   4.6572301088e+01    0.2428876    0.1812257  46.73 8.516097e-05    1.230    0.187
        36 -10.1643    156.6026      9.7772   2.5532848969e+01   4.4928711870e+01    0.3081403    0.2210033 -47.23 0.0009088952    1.566    0.361
        37 -10.7929    153.0785      9.6613   2.6091628211e+01   4.5845772375e+01    0.3258439    0.2572778 -65.60 0.0003410866    1.484    0.326
        38 -10.3311    138.0626      1.9683   2.6027221257e+01   5.0341168984e+01    0.8176832    0.2532934  67.15  0.002766781    3.307    0.698
        39 -12.0057    122.3392     11.5474   3.2870545736e+01   5.3216459893e+01    0.7189885    0.3899395  35.75   0.00168885    1.859    0.462
        40 -12.1389    127.8536      4.6728   2.9020481898e+01   5.2584623205e+01     0.443324    0.3659413  66.90   0.00133101    1.248    0.199
        41 -10.5599     81.0566     19.3333   4.7499517986e+01   6.0887299901e+01     0.359281    0.1875124 -31.44  0.001779596    1.819    0.450
        42  -8.9933    103.3098      8.1358   3.6118058830e+01   5.7824561026e+01    0.3368922      0.14723  56.44 0.0007927102    2.252    0.556
        43  -9.4795     97.8279      7.7841   3.7435063983e+01   5.9013689716e+01    0.2916503    0.1925132  24.43 0.0008255916    1.477    0.323
        44 -11.4449    100.6078     15.9482   4.0128307990e+01   5.7531158159e+01    0.6337307    0.4544288  47.44  0.002995332    1.358    0.264
        45 -10.7256     91.7996      9.6125   3.9932733726e+01   6.0040145940e+01     0.436565    0.3618893  33.90  0.002290488    1.135    0.119
        46 -11.4171     89.4202      3.1641   3.7760754667e+01   6.1187593618e+01    0.4439464    0.3425522  55.52  0.001606351    1.445    0.308
        47  -9.1050    143.5796     12.2641   2.8725420310e+01   4.7993062426e+01    0.4072376    0.2703372 -34.20  0.002037915    1.618    0.382
        48 -10.1616    131.3687     13.2095   3.1527153036e+01   5.0900442375e+01    0.3223681    0.2043177  53.88  0.001028393    1.429    0.300
        49  -9.1700     76.1480     13.2645   4.6463793299e+01   6.2535596576e+01    0.2752329    0.1641276 -19.59  0.001190429    1.604    0.377
        50  -8.4180     72.1639      8.1947   4.5500797749e+01   6.3839683174e+01    0.3856486    0.2999482  87.00   0.00207881    2.675    0.626
        51  -8.7328    200.9853     12.4661   2.0033630303e+01   3.3007345983e+01    0.2033706    0.1796377 -45.96 0.0004551666    1.168    0.144
        52 -11.1018    208.6295     10.3537   1.8552061360e+01   3.1239563964e+01    0.7777529    0.4352022  29.84  0.002543472    2.682    0.627
        53 -11.0145    216.4987      7.3277   1.6889911657e+01   2.9531415113e+01    0.4222605    0.3508902  22.33 0.0009549201    1.503    0.335
        54 -10.3029    218.2983      3.3248   1.5659094537e+01   2.9483198800e+01    0.2459063    0.2221312  79.64  0.001076499    1.080    0.074
        55 -10.0265    116.8145      8.6931   3.3012224814e+01   5.4782450056e+01     0.237379    0.2150191  77.06 0.0005252892    1.304    0.233
        56 -10.0504    238.3822      7.0794   1.4736006565e+01   2.4094557136e+01    0.3874989    0.1933712 -57.03     0.001167    2.026    0.506
        57 -10.5457    167.8808      5.9533   2.2495149650e+01   4.2367867416e+01    0.4189819    0.3202477  -3.23  0.001522629    1.518    0.341
        58  -8.7320    137.5637      8.3231   2.8452726336e+01   4.9880900302e+01    0.1818193    0.1239384 -38.67 0.0007219213    1.635    0.389
        59  -9.8264     78.1603      6.1000   4.2536559130e+01   6.3019585081e+01    0.2644716     0.250517  -2.99  0.001691113    1.280    0.219
        60  -8.8760    191.3378      1.7160   1.8106915000e+01   3.6612202713e+01    0.2351245    0.1086337  83.54 0.0005449847    2.416    0.586
        61 -10.1763    198.9149      4.0264   1.7892159430e+01   3.4410559618e+01    0.5143275    0.2554598 -64.99   0.00200051    2.568    0.611
        62  -7.3311    176.6269      4.9794   2.0947368526e+01   4.0167622428e+01    0.4136505    0.2586113 -73.03  0.001904251    1.938    0.484
        63 -10.4564    105.5005      3.0069   3.3393922561e+01   5.7855497194e+01    0.6182498     0.411979 -77.80  0.002840447    2.842    0.648
        64 -10.4935    245.5912      1.7034   1.2849036712e+01   2.2932356984e+01    0.5284849    0.2055496  76.24  0.002236404    2.499    0.600
        65  -9.9322    118.0045      1.3594   2.9805341135e+01   5.5197880642e+01    0.2800673    0.1473226  68.32 0.0007108273    2.120    0.528
        66  -9.6323    205.2021      2.8672   1.6876731145e+01   3.2889098224e+01    0.4249052    0.1890292  40.32  0.001612273    3.058    0.673
        67 -12.4986    187.1093     13.6758   2.2169885833e+01   3.6531471064e+01    0.3277867    0.2754494  79.14 0.0003788324    1.119    0.106
        68  -9.4948    153.2097      3.1894   2.3847767918e+01   4.6419411521e+01    0.2779987    0.2036932  48.66 0.0009232875    1.239    0.193
        69  -9.3274    230.2719      2.3590   1.4296657257e+01   2.6579038970e+01    0.2479413    0.1793182 -59.09 0.0005540517    1.294    0.227
        70  -8.9901     64.2938      1.9936   4.5303515632e+01   6.5867734387e+01     0.176935    0.1356393  -9.51  0.001149413    1.134    0.118
        71  -9.7927    120.1721      5.0837   3.0813875703e+01   5.4358427302e+01    0.2172338    0.1827247  56.85 0.0003911447    1.178    0.151
        72 -11.7793      3.3697      3.8694   7.3547085352e+01   7.2546590457e+01    0.3785824    0.3392098  -6.03  0.003235296    1.406    0.289
        73 -10.5700     62.5255    111.7322   8.1585800166e+01   4.5682010606e+01    0.2454825    0.2051011 -88.33 0.0002726599    1.180    0.152
        74  -8.4011    143.4570    250.4946   8.4113437767e+01   6.0695278303e+00    0.1160475    0.0867452  50.83 0.0001001906    1.004    0.004
        75 -11.1385     21.4574    110.3684   9.2418808887e+01   5.0141137135e+01    0.4280983    0.2352537  45.87  0.002521141    2.068    0.516
        76  -9.9191     34.4839    104.9372   8.8107601430e+01   5.0240622621e+01    0.4775895    0.1993768 -78.55  0.001686593    2.939    0.660
        77 -10.7547     34.8037    111.1667   8.8997337304e+01   4.8822919799e+01    0.3120063    0.1970631  42.56  0.001873992    1.798    0.444
        78 -10.8292     28.2574    109.5624   9.0506941863e+01   4.9762348102e+01     0.293455    0.2698784 -35.17   0.00106466    1.349    0.259
        79  -9.1567     25.4160    107.1621   9.0920228069e+01   5.0531122957e+01    0.1663077    0.1452451 -75.62 0.0004545187    1.114    0.102
        80  -8.5901    139.0031    107.7673   6.0383876604e+01   3.3299775852e+01    0.2038187    0.1947592  56.47 -0.000430966    1.046    0.044
        81  -9.7687    120.4773    107.9018   6.5103856877e+01   3.7128477005e+01    0.3214772    0.2003571  54.25  0.001049709    1.745    0.427
        82  -9.5438    127.1138    106.2404   6.2974772563e+01   3.6141551362e+01    0.2782376    0.2078727 -53.62 0.0001919219    1.345    0.256
        83  -9.8782     57.8841    106.4968   8.1871416460e+01   4.7431506280e+01    0.4287711    0.1983176  51.60   0.00151598    2.762    0.638
        84  -8.0943    152.4794    106.5026   5.6804174940e+01   3.0551750530e+01    0.1536251    0.1508423  84.36 4.849889e-05    1.024    0.023
        85 -11.3489    108.0485    103.1528   6.7201612871e+01   4.0543747375e+01    0.3165774    0.2720017  60.16            0    1.235    0.190
        86 -10.2821    112.6315    101.1103   6.5450279407e+01   4.0123950575e+01    0.3160539    0.2382315 -70.00 0.0003802644    1.527    0.345
        87 -10.3055     68.0382    104.6929   7.8660613619e+01   4.6559408884e+01    0.2946709    0.2094251  37.49  0.001165472    1.585    0.369
        88  -9.3652    131.7668    104.4389   6.1325664051e+01   3.5550182491e+01    0.2164454    0.1441795  34.29  0.000949283    1.693    0.409
        89 -11.6211     80.8735    103.1103   7.4699775919e+01   4.5105206780e+01    0.2668293    0.2479633   5.96 -0.0006383859    1.265    0.209
        90 -10.3541     61.3646    102.1740   8.0032834474e+01   4.7980353920e+01    0.2862563     0.204244  81.02  0.001552562    1.726    0.420
        91 -10.3345     60.7850     96.5516   7.9023113392e+01   4.9309536285e+01    0.3376511    0.2243129 -33.19 0.0009629917    1.798    0.444
        92 -10.1769     68.5053     98.6780   7.7239132805e+01   4.7845224627e+01    0.4205362    0.2228228 -43.18  0.001201549    1.933    0.483
        93  -9.0389     54.3074     99.8669   8.1590434733e+01   4.9338880801e+01    0.2724878    0.1694675 -39.48  0.001439465    1.777    0.437
        94 -10.9866    116.7000     97.8022   6.3496329487e+01   4.0042057367e+01    0.4263207    0.3480819  69.91  0.001690434    1.410    0.291
        95 -12.5253    101.3670     97.7264   6.7656866166e+01   4.2938310548e+01    0.4098017    0.3222148  51.31 0.0004225974    1.361    0.265
        96 -10.0752    109.4722     96.5911   6.5129254994e+01   4.1696870254e+01    0.2931134    0.2615844  66.92 0.0005122517    1.209    0.173
        97 -10.0854     37.3170     97.2612   8.6002862672e+01   5.1685959385e+01    0.4089418    0.2415009  67.83   0.00210112    2.338    0.572
        98  -9.8299     16.6925     95.7824   9.1657558569e+01   5.3693390047e+01    0.2993843    0.1705295 -73.25  0.001178976    1.423    0.297
        99  -8.4248     11.5190     97.9632   9.3410407101e+01   5.3569461148e+01    0.1642326    0.0886978 -71.30 -4.237783e-05    1.423    0.297
       100  -8.9858     51.1401     97.1929   8.1975188427e+01   5.0292872054e+01    0.1806606    0.1475982 -53.88 0.0003914205    1.106    0.096
       101  -9.7508     26.9195     97.0015   8.8944337997e+01   5.2651696966e+01    0.2177339     0.167547  36.65 0.0003850939    1.578    0.366
       102  -9.5181     22.5321     96.0501   9.0042834216e+01   5.3207034159e+01    0.1879472   0.09447372 -68.72 0.0009399902    1.588    0.370
       103 -11.3838    137.2973     94.2353   5.7176986595e+01   3.6464006363e+01    0.9823834    0.4300247  56.35  0.002597224    2.835    0.647
       104 -10.3105    139.0059     87.0545   5.4708874591e+01   3.7521522606e+01    0.4281931    0.2683512 -55.68 0.0003319685    1.860    0.462
       105 -10.8773    126.4386     91.1604   5.9101507152e+01   3.9442263571e+01    0.4618952     0.374233 -51.13 0.0004415003    1.236    0.191
       106 -11.9040    131.2636     86.0239   5.6378365362e+01   3.9447315491e+01    0.3365364    0.2747635  41.15  0.000268619    1.249    0.200
       107 -10.8191    120.7876     87.5443   5.9575336759e+01   4.1363370272e+01    0.5830689    0.4146979  20.34  0.001656549    1.844    0.458
       108 -10.5488    120.9379     82.4636   5.8061948797e+01   4.2364244987e+01    0.3111401    0.2757128  73.22  0.000347034    1.278    0.218
       109  -9.6288     77.7940     94.3139   7.3532549883e+01   4.7514738141e+01    0.3280104    0.2071579  32.59  0.001259811    1.823    0.451
       110  -8.5798     48.8448     93.8627   8.1979438313e+01   5.1284004014e+01      0.16192    0.1313161 -81.91 -0.0006383859    1.245    0.197
       111  -8.6292      4.9865     93.8102   9.4661510204e+01   5.4869814666e+01    0.1456622    0.1194114 -68.80 0.0004431167    1.109    0.098
       112  -8.9275      1.3910     94.1230   9.5695685048e+01   5.5005475622e+01    0.1671819   0.08052976 -70.29 0.0004882776    1.519    0.342
       113  -9.5049     88.3708     92.2282   6.9936940622e+01   4.6342634298e+01    0.3487676    0.3075376  59.05  0.002018502    1.249    0.200
       114 -10.0355     55.4931     88.8206   7.8909408126e+01   5.1655713606e+01    0.4596263    0.3266476  13.54  0.002174431    1.862    0.463
       115  -9.1421     48.2870     89.5920   8.1263073391e+01   5.2288627086e+01     0.399721    0.2000623  50.94  0.001879821    2.675    0.626
       116  -9.3329     42.1875     90.9332   8.3375910884e+01   5.2619173350e+01    0.2508352    0.1826602  20.50  0.001086385    1.735    0.424
       117 -12.5325     34.8545     89.4428   8.5288692939e+01   5.3638287238e+01      0.33373    0.2377465 -72.07  0.002084372    1.251    0.200
       118 -10.4279     29.0508     84.9711   8.6204104126e+01   5.5115028452e+01    0.2560814    0.1904057 -88.11 0.0003370639    1.437    0.304
       119  -8.8502     62.9697     89.6851   7.6841851609e+01   5.0558287724e+01    0.1768945    0.1687954 -28.93  0.001151006    1.151    0.131
       120  -9.5900     11.7287     88.3559   9.1968539952e+01   5.5636106419e+01    0.3001268     0.202589  -0.72   0.00107525    2.115    0.527
       121 -10.0614    110.2730     87.9036   6.2547264337e+01   4.3384933545e+01    0.2880596     0.249154 -39.01 0.0003022369    1.120    0.107
       122 -10.8325    102.6373     84.3775   6.3705553759e+01   4.5557797556e+01    0.6970074    0.2647977 -40.11  0.002453833    2.769    0.639
       123 -11.4388    113.6257     81.2175   5.9694743962e+01   4.4104926822e+01    0.9106246     0.531754  20.60  0.003378887    2.954    0.662
       124  -8.2260    186.4907     88.5532   4.4436895823e+01   2.5761681771e+01    0.1545435     0.152351  86.58 0.0001516165    1.032    0.031
       125 -10.1946     87.9791     86.1834   6.8469617389e+01   4.7711475371e+01    0.5613828    0.2644775 -40.54  0.002312336    2.180    0.541
       126  -9.2758     84.6851     86.6863   6.9579085915e+01   4.8130554823e+01    0.2987052    0.1715304 -35.34  0.001340268    1.960    0.490
       127 -10.7408    156.6890     84.9943   4.9852473480e+01   3.3782263450e+01    0.3414089    0.3266508 -46.60 0.0009819521    1.058    0.055
       128  -9.2842     71.8142     83.7295   7.2694994670e+01   5.0681240257e+01    0.2852116    0.2361706  53.94 0.0003474818    1.399    0.285
       129  -9.3689     75.5097     83.4748   7.1498412589e+01   5.0210088671e+01    0.3715903    0.1516585 -51.98  0.001525731    2.189    0.543
       130 -10.7217     79.9221     81.0344   6.9500432608e+01   5.0076598791e+01    0.3141811    0.2671017  -3.88            0    1.360    0.265
       131  -9.3799     59.1422     83.7884   7.6623312449e+01   5.2323272175e+01    0.2399706    0.2278678  77.05  0.001587117    1.194    0.162
       132 -11.1895     54.0628     80.9396   7.7531803134e+01   5.3541503875e+01    0.2627889    0.2294495 -36.97 0.0002926606    1.143    0.125
       133  -9.3472     19.9508     83.0388   8.8639084099e+01   5.6232013187e+01     0.177304    0.1370504 -63.22  0.000475635    1.008    0.008
       134  -9.3587      1.8653     83.0377   9.4079087421e+01   5.7344720499e+01    0.1678703    0.1242232 -73.01 0.0004655537    1.065    0.061
       135  -8.9455     46.4434     80.8758   7.9925635868e+01   5.4389415687e+01    0.2437554    0.2342295 -66.20  0.001705213    1.152    0.132
       136  -9.2229     92.0799     79.6810   6.5452251313e+01   4.8404256790e+01    0.2640379    0.2298232 -60.76  0.000839331    1.187    0.158
       137  -8.5427      6.9095     79.9816   9.2110400686e+01   5.7720552279e+01    0.1275091   0.09982438 -64.82 0.0009274571    1.045    0.043
       138  -8.8652     40.9141     78.8788   8.1234688970e+01   5.5377471262e+01    0.1841421     0.138816  87.16 0.0008349125    1.627    0.385
       139 -11.3167    103.5394     78.9774   6.1887455340e+01   4.6506499265e+01     0.632858     0.568922   6.69  0.002364545    1.201    0.168
       140  -8.9389     36.4847     76.9031   8.2219839060e+01   5.6219293388e+01    0.1880316   0.09991149 -58.89  0.001008138    1.520    0.342
       141  -9.3245    188.0200     76.1209   4.0626576084e+01   2.7538102049e+01    0.2384672    0.2239096  61.99 0.0006855763    1.063    0.059
       142 -11.0075    152.0447     73.5100   4.7505848096e+01   3.7031375216e+01    0.3919318    0.2688673 -32.89  0.001759955    1.490    0.329
       143  -9.2777    110.8997     75.3474   5.8698543615e+01   4.5823394445e+01    0.2358105    0.1946948 -50.74 0.0003525922    1.226    0.184
       144 -11.1188     81.6310     64.7318   6.4205728417e+01   5.3162159610e+01    0.5575027    0.3671674  -8.06  0.002486343    2.246    0.555
       145 -10.7668     76.9207     74.9959   6.8755185907e+01   5.1799648097e+01    0.4838065    0.2856857  33.82  0.001627108    1.907    0.476
       146 -10.1596     83.1638     74.1454   6.6564773246e+01   5.1016463292e+01    0.2954306    0.2566671  -8.35 0.0007145603    1.247    0.198
       147 -11.5193     46.5447     73.3058   7.8103090160e+01   5.6004377823e+01    0.5109878    0.3617565  76.80 0.0008012921    2.094    0.522
       148  -9.6928     50.4860     69.4768   7.5823166637e+01   5.6387613306e+01    0.4422581    0.2554709 -71.52  0.002051287    2.276    0.561
       149 -10.7962     42.8397     62.9922   7.6709716004e+01   5.8544053248e+01    0.5059403    0.3425034 -58.09   0.00215804    1.322    0.243
       150  -9.5754      4.6975     75.7360   9.2115187084e+01   5.8742955650e+01    0.2117359    0.1480645 -78.20 0.0001782688    1.257    0.204
       151 -11.0029      8.3622     74.0387   9.0682466622e+01   5.8899356058e+01     0.343116    0.2182493  43.13  0.001672808    2.000    0.500
       152 -10.8498    140.0755     72.6175   5.0109511499e+01   4.0040813295e+01    0.5370107    0.2974575 -45.79   0.00146401    1.881    0.468
       153  -9.7209    143.4463     71.4595   4.8922019093e+01   3.9462897792e+01    0.2928412    0.2462857 -62.69 0.0005353375    1.349    0.259
       154 -11.3705    136.1805     73.0684   5.1224096661e+01   4.0855674347e+01     1.155301    0.3647678 -44.86  0.001760938    3.381    0.704
       155 -10.9797    136.9068     66.0150   4.8816217154e+01   4.1977765297e+01    0.6700697    0.4516272 -86.34 0.0004140307    2.687    0.628
       156  -9.8561     56.5715     72.8012   7.4684031767e+01   5.4988275164e+01    0.3908997    0.1925303 -35.58  0.001756163    2.332    0.571
       157  -9.9737    121.5742     73.3091   5.5119748146e+01   4.4033082658e+01    0.4804941    0.2307811  58.27  0.001719582    2.818    0.645
       158  -8.7851     61.1072     76.1776   7.4099118861e+01   5.3718367041e+01    0.1593298    0.1437661 -89.70            0    1.286    0.222
       159 -10.6435     17.4855     70.7509   8.7129024127e+01   5.9029756554e+01    0.3751345    0.2188216 -78.99  0.001643818    1.812    0.448
       160  -9.7876      9.9276     66.4433   8.8796052334e+01   6.0406283566e+01    0.3389678    0.1937444  61.92   0.00188556    2.686    0.628
       161  -9.6523     14.5232     66.4579   8.7258154166e+01   6.0125332162e+01    0.1913693    0.1556971 -56.66 0.0005544213    1.063    0.059
       162 -11.9034    164.5487     70.1513   4.3667426610e+01   3.4534186037e+01    0.9152809    0.4660813  49.19  0.003562666    1.915    0.478
       163 -12.7198    153.2511     65.6199   4.4780709508e+01   3.8131793825e+01     1.495782    0.8240139  63.69  0.005712379    2.150    0.535
       164 -10.3317    161.1672     64.8117   4.2761607649e+01   3.6298603457e+01     0.397703    0.3371741  51.98 0.0004998297    1.158    0.136
       165 -10.6842    147.0281     61.7177   4.4981376135e+01   4.0323150505e+01    0.3145792    0.2512681  37.30 0.0003692721    1.269    0.212
       166 -12.9301    150.7778     57.6585   4.2805089334e+01   4.0083868634e+01    0.4759174    0.3942194 -49.49 0.0004427493    1.290    0.225
       167  -8.7586     70.4715     71.8995   6.9925378858e+01   5.3375855861e+01    0.1775296    0.1714117  -7.86 0.0003915187    1.125    0.111
       168 -10.1804     64.1384     70.4420   7.1567897972e+01   5.4536416638e+01    0.3504555    0.2851004  32.13  0.001018469    1.396    0.284
       169  -9.7373     59.2382     66.1403   7.1977444465e+01   5.6050598400e+01    0.3038178    0.2379937  23.54 0.0007697596    1.461    0.316
       170 -10.8649    104.2330     58.6004   5.5248854652e+01   5.0326209729e+01    0.3370202    0.2616174  27.94 8.712647e-05    1.360    0.264
       171 -10.1631    102.1087     68.0952   5.8979921832e+01   4.8944133852e+01     0.527262    0.2355002 -45.89  0.002096885    2.183    0.542
       172  -9.9219    106.2304     68.5848   5.7931120514e+01   4.8062022666e+01    0.2972214    0.2287105  14.06 0.0006976806    1.548    0.354
       173 -12.2554    110.7324     65.4097   5.5619961050e+01   4.7778163353e+01    0.5132442    0.3458833 -54.05  0.002405161    1.693    0.409
       174  -9.7061    115.3644     60.8082   5.2802410712e+01   4.7676720819e+01    0.3714714    0.2404749 -27.86  0.001417436    1.622    0.383
       175  -8.6451     30.3268     71.3506   8.3009142702e+01   5.7940993148e+01    0.1398287    0.1100838  38.83  0.000928527    1.567    0.362
       176  -9.6388     34.9992     51.4261   7.6311707083e+01   6.1633701604e+01    0.2063926    0.1821611  68.91 0.0004435256    1.546    0.353
       177  -9.0983     27.0790     57.4220   8.0831964993e+01   6.1104053595e+01    0.3381701    0.1172449 -52.52  0.001603383    2.109    0.526
       178 -11.2114     30.2782     53.2822   7.8578937805e+01   6.1679181555e+01    0.5820726    0.3558496 -87.21   0.00140196    3.206    0.688
       179 -10.2654     33.8058     63.1796   7.9900449194e+01   5.9357923376e+01    0.3080902    0.1910885 -23.52 0.0003793185    1.939    0.484
       180  -8.6984     26.8134     66.6880   8.3144745523e+01   5.9208091543e+01    0.3493773    0.1271531 -69.41  0.001368023    3.440    0.709
       181  -8.6225     90.6601     67.3008   6.2179296703e+01   5.1161023315e+01    0.2036736    0.1800976  68.60 0.0009578223    1.387    0.279
       182 -10.0965     88.9319     62.6605   6.1240165738e+01   5.2362755708e+01    0.5871714    0.2010876 -45.02  0.002142763    2.731    0.634
       183  -9.6941     95.1792     57.7045   5.7666918241e+01   5.2196864976e+01    0.4034145    0.2822157 -18.39  0.001872892    1.616    0.381
       184  -9.3062     91.9917     56.2530   5.8161010995e+01   5.3038135052e+01    0.3764701    0.2449968 -13.53  0.001731645    2.025    0.506
       185  -9.5809     71.5814     66.4117   6.7967231346e+01   5.4344117810e+01    0.3483637    0.2295473  36.66  0.001776686    1.692    0.409
       186  -9.1169    129.1696     71.1522   5.2426340643e+01   4.2793831069e+01    0.1977684    0.1787559 -74.79 0.0003907556    1.266    0.210
       187  -9.5199    201.4125     49.7420   3.0659294314e+01   2.8207720170e+01    0.3778321    0.2401731  58.38  0.001705701    1.524    0.344
       188  -8.8598    191.0445     61.5695   3.5847961464e+01   2.9135733574e+01    0.4892519    0.1754636  52.22  0.001637413    2.630    0.620
       189  -9.5407    206.1285     52.3693   3.0662743072e+01   2.6598633362e+01    0.3836392    0.2965108   3.37  0.001839085    1.629    0.386
       190 -10.0269    195.6512     61.1504   3.4908960005e+01   2.8002720432e+01    0.8247341    0.3359612 -19.68  0.002343941    4.236    0.764
       191 -10.6326    199.9998     55.4990   3.2541258755e+01   2.7731705057e+01    0.5642287    0.3779746  27.58  0.002432157    1.948    0.487
       192 -10.3044    176.9926     63.9784   3.9217804731e+01   3.2397160353e+01    0.2988302    0.2807173 -28.45 0.0003209439    1.087    0.080
       193  -8.2874    118.7576     66.5993   5.3762642743e+01   4.5900480824e+01    0.1973343    0.1427745  57.91 0.0009349477    1.567    0.362
       194  -8.5353    211.9867     63.9652   3.2968973105e+01   2.3356317581e+01    0.1774468    0.1715532 -51.84 0.0003127961    1.019    0.019
       195 -11.2057     21.5813     61.2585   8.3711722951e+01   6.0731496115e+01    0.3389071    0.2070759 -26.32 0.0004709692    1.871    0.465
       196  -9.2604      2.2385     64.3089   9.0967929918e+01   6.1260519055e+01    0.1763754    0.1473633  38.24  0.001365697    1.570    0.363
       197 -10.0159    203.8283     63.0270   3.4044844151e+01   2.5593572147e+01    0.2478031    0.2164436  75.38 0.0003271107    1.170    0.145
       198  -9.1908    171.9159     62.7996   3.9878548304e+01   3.3897580404e+01     0.278506    0.2310307 -52.25  0.001368696    1.276    0.217
       199  -8.6182     67.0167     63.0037   6.8449105443e+01   5.5670299686e+01    0.1634012    0.1339788 -41.20 0.0003999936    1.066    0.062
       200  -8.8721    100.0965     62.1351   5.7653526833e+01   5.0461959216e+01    0.2113447    0.1799854 -10.68 0.0004156456    1.205    0.170
       201 -10.2782    219.1227     59.2952   3.0586920244e+01   2.2247349741e+01    0.3619116    0.2759873 -36.14  0.000502327    1.281    0.219
       202  -9.4424    222.2509     55.2452   2.9035319162e+01   2.2050442272e+01    0.2709886    0.2408479 -59.70 0.0005163813    1.103    0.094
       203  -9.2369    168.1327     60.5314   3.9955739316e+01   3.5238243103e+01     0.385881    0.2161773 -26.35  0.001538889    1.971    0.493
       204 -10.9098     60.3775     58.6020   6.9358575252e+01   5.7427941585e+01    0.4208921    0.3702703 -48.71  0.002195177    1.137    0.120
       205  -8.5083     12.3245     60.2861   8.6736627962e+01   6.1542752625e+01    0.1170321   0.06582254 -40.87 0.0007006453    1.603    0.376
       206 -10.0996     18.8015     42.7814   8.0036304461e+01   6.4634805991e+01    0.2369559    0.2000882  51.59  0.001391175    1.651    0.394
       207  -9.2874      4.0173     59.5173   8.9469177135e+01   6.2160144408e+01    0.2235175    0.1343901  13.92  0.001108386    2.173    0.540
       208  -9.8181      9.3364     56.7974   8.7046470206e+01   6.2432832539e+01    0.2787006    0.2135871 -38.48   0.00141269    1.241    0.194
       209 -10.6810     25.1750     49.1991   7.9365216497e+01   6.2906174265e+01    0.5824726    0.2096174 -39.33  0.002652909    2.660    0.624
       210 -11.4228     18.2318     48.5580   8.1822345140e+01   6.3540513489e+01    0.4205237    0.2626619 -24.71 0.0003268882    1.719    0.418
       211 -10.0871      9.5232     50.0412   8.5465240454e+01   6.3788872513e+01    0.2764046    0.1781622 -79.65  0.001708378    1.793    0.442
       212 -10.3966      6.5364     47.3175   8.5948625526e+01   6.4496482092e+01    0.6839392    0.1972678 -41.28  0.003113721    3.036    0.671
       213 -10.8273    184.7596     55.0127   3.5044662553e+01   3.1790795170e+01    0.8260252    0.5493313 -59.66  0.001959589    1.813    0.448
       214 -10.9523    174.3121     53.9196   3.6672891085e+01   3.4686166268e+01    0.4042852    0.3701948 -81.18 0.0007794049    1.160    0.138
       215 -12.0975     91.0564     43.0673   5.3769452492e+01   5.5521745091e+01    0.4921656    0.3601844 -24.93  0.001173144    1.301    0.231
       216 -10.3609     77.9520     55.5429   6.2428886371e+01   5.5519020688e+01    0.3524684    0.1891095 -43.36  0.001677534    1.694    0.410
       217 -10.3517     81.7144     52.3769   6.0116296175e+01   5.5505748274e+01    0.5182738    0.2086144 -45.76  0.002096412    2.398    0.583
       218 -10.2862     85.0470     48.9525   5.7831161358e+01   5.5567305750e+01    0.4173358    0.2306946 -45.30 0.0009626978    1.795    0.443
       219 -10.9240    161.0516     56.4165   4.0147780427e+01   3.7708798015e+01    0.4145062    0.3613571  79.96 0.0006823323    1.252    0.201
       220  -8.3686     74.2146     58.4192   6.4612503798e+01   5.5541663310e+01    0.1592056    0.1289789  46.57 0.0004342154    1.459    0.315
       221 -11.0799     34.6889     67.3415   8.0617255041e+01   5.8412160036e+01    0.3501716    0.2576798 -83.10 0.0008104882    1.641    0.391
       222 -11.2099    128.4197     53.0651   4.6682856126e+01   4.6165473021e+01     0.688091    0.3625295  48.57 0.0005200992    1.866    0.464
       223  -8.3934     83.5102    249.4528   9.3895900273e+01   1.5247283215e+01    0.1089744   0.07864603  62.07 0.0002383297    1.031    0.030
       224 -12.8997    137.6168     47.1114   4.2356508557e+01   4.4971876727e+01    0.7170313    0.5376152  74.05  0.001132169    1.633    0.388
       225 -12.4783    140.7400     38.3000   3.8572858485e+01   4.5522234633e+01    0.6981005    0.4905204  77.72 0.0008230573    1.822    0.451
       226 -11.4316    117.1691     51.8270   4.9242156126e+01   4.8863193291e+01     1.607191    0.5826645  59.65   0.00434634    5.333    0.812
       227  -9.2327    245.9452     55.8480   2.6015892027e+01   1.6169561945e+01    0.2003523    0.1892447 -57.85  0.000304808    1.026    0.025
       228  -9.0621    239.0816     55.9961   2.6928363058e+01   1.7786739882e+01    0.2186758    0.1991317 -52.07 0.0007088448    1.029    0.028
       229  -8.9352     96.5936     70.9142   6.1499577316e+01   4.9403230196e+01     0.261085    0.2380694 -77.18  0.001490482    1.279    0.218
       230  -9.9375    180.6287     64.1444   3.8555435739e+01   3.1430165271e+01    0.4202169    0.2882934 -19.25  0.001032798    1.678    0.404
       231  -8.6004     51.4704     54.5213   7.1230032663e+01   5.9318517604e+01    0.1259856    0.1070835 -40.80 0.0008090315    1.051    0.048
       232  -9.7717    162.0266     52.4955   3.8692106107e+01   3.8077523294e+01    0.3217412    0.2457213  55.23 0.0008143001    1.271    0.213
       233  -9.2691     65.0111     52.2157   6.5708774960e+01   5.8051573394e+01    0.2247247    0.1618372 -41.56 0.0004884835    1.220    0.180
       234  -9.6714     44.0900     51.0013   7.2824080865e+01   6.0823016902e+01    0.3474318    0.2266851 -73.47  0.001764208    2.320    0.569
       235 -10.1020    154.7825     50.7955   3.9681437817e+01   4.0179835290e+01    0.2608837    0.2454032  87.41 0.0002278751    1.142    0.124
       236 -10.8254    211.5599     49.3359   2.8983589649e+01   2.5628174661e+01    0.3600909    0.2844692  82.31 0.0005983114    1.323    0.244
       237  -9.5535     55.0793     49.7486   6.8416826311e+01   5.9812532374e+01    0.2216828    0.1551265 -38.90 0.0004717752    1.211    0.174
       238 -11.3043    233.0445     48.2080   2.5706095282e+01   2.0350768096e+01    0.2576785     0.240247 -65.99 0.0002982303    1.010    0.010
       239  -9.0904    193.6261     49.1001   3.1741521699e+01   3.0341695035e+01     0.355363    0.1789346  57.21  0.001421373    1.885    0.470
       240  -9.3499    171.4344     48.7360   3.5613332258e+01   3.6218225017e+01    0.4609967    0.2413519  58.73  0.001855324    1.843    0.458
       241  -9.9724    246.4576     47.6213   2.3903467030e+01   1.7184248807e+01    0.2488564    0.2313284   7.88 0.0007267423    1.253    0.202
       242  -8.9135     97.2846     47.2997   5.3386753461e+01   5.3653112714e+01    0.2662858    0.2075927 -81.09  0.001318254    2.083    0.520
       243  -9.6943    228.0044     44.3587   2.5350479892e+01   2.2131633123e+01    0.6365997    0.1895391 -35.04  0.002172365    2.940    0.660
       244 -10.4746    230.6342     39.3630   2.3709017491e+01   2.2143755872e+01    0.3998865    0.2819103  79.66 0.0005421945    1.468    0.319
       245 -12.0749    163.5209     42.4633   3.5153617980e+01   3.9185128808e+01    0.5214042    0.4158705 -76.51 7.938253e-05    1.499    0.333
       246  -8.8674    106.9460    246.3521   8.9808879096e+01   1.2351194794e+01     0.179389     0.128958  77.90 0.0007796572    1.343    0.256
       247 -10.3339     67.7414     44.5785   6.2116943755e+01   5.9075255198e+01    0.4591017    0.2941124  18.08  0.001497487    1.870    0.465
       248 -10.2753     73.5733     35.8935   5.6835294524e+01   5.9683058196e+01    0.3809251    0.2464337 -12.60  0.001031339    1.766    0.434
       249  -9.9016     73.6312     44.2349   5.9945155004e+01   5.8254745106e+01    0.2858592    0.1818217 -28.26 0.0006601942    1.513    0.339
       250  -9.3035     74.2324     40.5983   5.8398254251e+01   5.8791607087e+01    0.2368999    0.1759496  -0.63 0.0006487119    1.456    0.313
       251 -10.3348     33.9773     44.1881   7.4529241730e+01   6.3136757405e+01    0.3411323    0.2904453 -40.86  0.002420569    1.099    0.090
       252  -8.8360     38.7191     44.0037   7.2644851374e+01   6.2719013058e+01    0.2098101     0.139877 -45.95 0.0003380627    1.232    0.188
       253  -9.6478    177.0375     43.4990   3.2928717083e+01   3.5510160405e+01    0.5384039    0.3161808  85.79  0.002045467    2.489    0.598
       254  -9.6556     79.0142     44.6098   5.8255492224e+01   5.7335368020e+01    0.2974069    0.2267206  24.01  0.000679677    1.372    0.271
       255  -8.1493    116.6909    237.2744   8.7270015236e+01   1.2268772156e+01    0.1175145    0.0709777  64.52 0.0002304127    1.551    0.355
       256  -9.5987    209.4995     43.4021   2.7630506972e+01   2.6990662550e+01    0.3345265    0.2614585 -46.43  0.001705825    1.269    0.212
       257  -8.2965    191.6490     44.3099   3.0653889603e+01   3.1544591308e+01    0.1604128    0.1124582 -69.31 0.0006332372    1.717    0.418
       258 -10.5351    107.5949     43.4928   4.8947643906e+01   5.2245140294e+01    0.4264337     0.246634  51.46 0.0008715838    1.840    0.457
       259 -11.6552     76.7694    219.9346   9.2560267664e+01   2.1110018425e+01    0.8607203    0.4074858  51.08  0.004930569    1.696    0.410
       260  -9.4589     28.3724     41.8965   7.6005358055e+01   6.4067922032e+01      0.20602    0.1702952 -68.88 0.0008511411    1.455    0.313
       261  -9.5793     55.3871     42.4908   6.5836084249e+01   6.1125383195e+01    0.5029314    0.2327315 -28.49  0.002152885    2.699    0.629
       262  -9.0508    240.9488     39.3677   2.2481674524e+01   1.9607116706e+01     0.547564    0.2924561  26.88  0.001905833    3.966    0.748
       263 -11.3271    246.7069     32.7452   2.0200510871e+01   1.9076287586e+01    0.5859604    0.3207173 -51.49  0.002742398    1.775    0.437
       264 -10.3039    149.7808     33.6100   3.4982235050e+01   4.3918257538e+01      0.73505    0.4105126  33.39   0.00247847    2.128    0.530
       265 -10.0184    157.7201     39.0725   3.5198774938e+01   4.1155799119e+01    0.2868195    0.2626309  27.85 0.0004137388    1.096    0.087
       266 -10.5259    155.2455     35.9882   3.4668875218e+01   4.2211870789e+01      0.55926    0.4155045  -5.47  0.001807643    1.561    0.359
       267  -8.8692    113.5723     40.1591   4.6042991102e+01   5.1510942996e+01     0.288472    0.1681098  33.58  0.001178582    1.868    0.465
       268  -8.2267     47.4370     40.5060   6.8130412690e+01   6.2441456978e+01    0.1260592    0.0997219 -29.30 9.622119e-05    1.054    0.051
       269 -10.7075    201.9600     37.5950   2.7085964750e+01   2.9743957943e+01    0.3083746    0.2967633 -42.62  0.001746215    1.079    0.073
       270  -9.8006      3.7478     38.3540   8.4836773746e+01   6.6396351690e+01     0.380748    0.1560774  30.89   0.00147354    3.120    0.680
       271 -10.0709    194.6770     37.1048   2.8040408684e+01   3.1727292962e+01    0.3106337    0.2480225 -54.60  0.000352996    1.296    0.229
       272  -8.8370    190.4825     35.9990   2.8366253372e+01   3.2981944401e+01    0.4392557    0.2629404  -1.82   0.00161753    2.546    0.607
       273 -10.2664     39.4480     34.8271   6.9247716572e+01   6.4338908996e+01    0.5963777    0.3333604 -12.97  0.002424567    2.454    0.592
       274 -10.0962     47.1638     28.6575   6.3845468510e+01   6.4548146960e+01    0.3263145    0.1945435  22.16  0.001069244    1.872    0.466
       275  -9.6678     32.9788     37.1015   7.2629536509e+01   6.4560844910e+01    0.1714131    0.1351187 -36.14 0.0002672092    1.014    0.014
       276  -8.7975    185.2933     35.3576   2.9003941850e+01   3.4439492941e+01    0.2509157     0.219996 -38.30 0.0008778211    1.178    0.151
       277  -9.7280    115.1578     34.6496   4.3558868507e+01   5.1984116544e+01    0.4100524    0.2121904 -39.87  0.001260405    2.033    0.508
       278 -10.6131     73.7262    213.8833   9.2552840561e+01   2.2620595680e+01    0.3759573    0.3040847  53.04  0.001745157    1.287    0.223
       279  -9.1125     91.3917    214.5253   8.9417183924e+01   1.9979520392e+01    0.2327725   0.09758645  44.37  0.000704146    2.034    0.508
       280  -9.5465    123.9802    206.0214   8.2302054980e+01   1.6319156020e+01    0.1781486    0.1471658  60.04            0    1.006    0.006
       281  -8.9161     90.5893    206.1519   8.8682840761e+01   2.1631539698e+01    0.2109114    0.1341978  58.50  0.001102644    1.317    0.241
       282 -11.3688      5.2318    203.2265   1.0359379596e+02   3.2396594683e+01    0.3404053     0.130313  56.65  0.002090131    2.053    0.513
       283 -10.8430      2.8812    195.0540   1.0356190052e+02   3.4123637866e+01    0.2900345    0.1285135 -62.78  0.001788077    2.415    0.586
       284  -9.8258      1.3499    184.9240   1.0327943406e+02   3.6178351584e+01     0.302601   0.07365388 -77.79  0.001308574    3.214    0.689
       285  -9.4944     25.0142    173.9426   9.8194574382e+01   3.6204481354e+01    0.1644902    0.1252413  84.51  0.001211168    1.037    0.036
       286 -10.9675      9.6453    163.6860   1.0040193106e+02   3.9691914260e+01    0.3071984    0.1796239  30.42  0.001663639    2.203    0.546
       287 -12.0719     18.0546    158.2354   9.8296587825e+01   4.0091705692e+01    0.5058532    0.2465153 -68.57  0.003026963    1.698    0.411
       288 -12.1305     30.7432     31.3374   7.1550885612e+01   6.5813304131e+01    0.3486801     0.215669 -42.23 0.0003165059    1.280    0.219
       289 -12.1177     34.0630     27.1896   6.8641327701e+01   6.6225308451e+01     0.547225    0.3128639  29.01  0.003277346    2.006    0.501
       290 -11.5461     14.0454    151.7167   9.8576707769e+01   4.1801122275e+01    0.3607588    0.2314263 -66.80  0.001749423    1.410    0.291
       291  -9.4779    106.9297     34.7669   4.5870257468e+01   5.3723153578e+01    0.2226106    0.1874388  -8.65 0.0005060536    1.141    0.123
       292 -10.6731     97.0429     33.2464   4.8173602167e+01   5.5941707614e+01    0.2330804    0.2084607  11.09 0.0001975484    1.039    0.037
       293  -9.3554    218.0892     41.8320   2.5989790743e+01   2.4987385596e+01    0.3614719    0.2146155 -22.93  0.001267927    1.869    0.465
       294 -10.5265      6.6349    158.8267   1.0064147190e+02   4.0932320325e+01    0.2092899    0.1239454 -62.67  0.001183093    1.659    0.397
       295 -10.2329     11.5895    144.6687   9.8492070975e+01   4.3486316942e+01      0.28595    0.1537932  71.20 3.281493e-05    1.783    0.439
       296 -10.9622      2.4065    153.3879   1.0109180544e+02   4.2377598819e+01    0.3049329    0.2717459 -73.38  0.002204644    1.387    0.279
       297 -10.7937      6.7184    148.2117   9.9817361112e+01   4.3122563587e+01    0.3067032    0.2078785  38.63  0.001482282    1.740    0.425
       298  -8.8027     39.4362    154.5236   9.3430564816e+01   3.8800952241e+01    0.1195853   0.09386256 -89.63 5.735907e-05    1.007    0.007
       299  -9.7282     29.5432    150.5655   9.5167926042e+01   4.0652351213e+01    0.1815975    0.1616687 -69.54 5.582328e-05    1.314    0.239
       300 -10.0892    236.1942     16.8214   1.7337913989e+01   2.3547238267e+01     0.258924    0.2352489 -78.17 0.0006218543    1.034    0.033
       301  -9.5506     66.5379     31.4787   5.7594580511e+01   6.1482468864e+01    0.3176136    0.2526253 -79.37  0.001314549    2.359    0.576
       302  -8.8913    143.2104     31.1121   3.5504838799e+01   4.5891289953e+01    0.2893794    0.1846505 -38.45  0.001343231    1.655    0.396
       303 -11.4749    131.9759     29.5182   3.7447009161e+01   4.8834388283e+01    0.3490873     0.272971 -19.52  0.001837266    1.315    0.240
       304 -10.4469     30.9366    147.0530   9.4499521309e+01   4.1273654360e+01    0.2610076    0.2053345  88.07 0.0006886537    1.036    0.035
       305  -8.6143    223.9656     30.5614   2.2208691443e+01   2.4955245935e+01    0.2131637    0.1332432  68.11  0.000799028    1.555    0.357
       306 -10.1210    215.8284     29.5186   2.2931766900e+01   2.7167246802e+01    0.3347587    0.2655205  79.54 0.0008847484    1.224    0.183
       307  -8.6816    201.4184     29.9260   2.4961028882e+01   3.0872606237e+01    0.2103906    0.1390393 -33.03 0.0004784494    1.538    0.350
       308  -9.4033    179.9949     29.0625   2.7930318173e+01   3.6645337357e+01    0.2709785    0.2201288 -52.89   0.00117494    1.302    0.232
       309  -9.2318    110.4749     30.0197   4.3058129546e+01   5.3650050640e+01    0.2895864    0.1772175  33.55  0.001370977    1.682    0.406
       310  -8.1581     72.2941    149.3268   8.5367680377e+01   3.5945371649e+01    0.1220188   0.09669949 -40.86 0.0007021272    1.625    0.384
       311 -10.4560     81.6300     27.3992   5.0702275211e+01   5.9659112828e+01    0.5250229    0.3241807  18.11  0.002226876    1.918    0.479
       312  -9.9648     71.8894     25.9511   5.3429271424e+01   6.1510102625e+01    0.4945354    0.2314867  24.51  0.002013126    3.109    0.678
       313  -8.9610     60.7775    148.1624   8.7870063780e+01   3.7718692570e+01    0.1808417     0.142702  87.78 0.0003385914    1.106    0.096
       314  -9.6379      4.1055     29.4493   8.2247964945e+01   6.8065636680e+01    0.2421775    0.1852313 -39.39 0.0009062872    1.084    0.077
       315 -11.2321     18.5026    118.9090   9.4257018783e+01   4.8496970756e+01    0.4649503    0.2738268  -2.92   0.00250377    3.239    0.691
       316  -9.5529    206.8566     26.1091   2.3141302526e+01   2.9915638270e+01    0.2856367    0.2044474 -19.47 0.0008947146    1.576    0.366
       317  -9.1337    189.3278     26.0604   2.5567768304e+01   3.4540167479e+01    0.2399879    0.1870665  53.92 0.0004869754    1.238    0.192
       318 -10.8688      9.9332    122.5383   9.6755246717e+01   4.8346068305e+01    0.4979614    0.3109762  41.25   0.00333275    1.836    0.455
       319 -10.4292     12.9428    134.9831   9.7305634202e+01   4.5443009034e+01    0.2309178    0.1805553 -70.19 0.0004083169    1.206    0.171
       320 -10.1665     17.5013    133.5635   9.6124543764e+01   4.5386730782e+01    0.2015382    0.1694994 -83.35 0.0006887162    1.133    0.117
       321 -11.2650     12.8706    129.2718   9.6756413033e+01   4.6677015167e+01    0.5281877    0.2219139  48.50  0.001676035    2.529    0.605
       322  -8.6782    119.7811     26.2896   3.9185475316e+01   5.2092199562e+01    0.1973047    0.1510535  19.82 0.0005885035    1.333    0.250
       323  -9.6252     99.2072     23.7080   4.3725087811e+01   5.6849702071e+01    0.3073403    0.2126771 -55.21  0.001519114    2.111    0.526
       324 -10.3837    164.5941     22.4811   2.8411175418e+01   4.1489353946e+01    0.5119607    0.2954656  36.14  0.002203289    1.957    0.489
       325  -8.4739    103.8916     24.0965   4.2544893141e+01   5.5836927001e+01    0.1848901    0.1409297  21.59            0    1.279    0.218
       326  -9.8275      9.1639    138.5510   9.8479327200e+01   4.4971066695e+01    0.2367039    0.1486665  84.53  0.001577913    1.331    0.249
       327 -11.3984      2.5121    141.3509   1.0015606532e+02   4.4869015661e+01    0.5981622    0.2564408 -86.00  0.002774584    1.940    0.485
       328 -10.0236    248.6912     22.3896   1.7486465220e+01   1.9877966420e+01    0.2733361    0.2153387 -89.79 0.0007418061    1.223    0.183
       329  -9.9378    212.3566     22.0253   2.1314220016e+01   2.8970990131e+01    0.3174807    0.2635763 -14.26 0.0007863761    1.386    0.279
       330  -9.3068    158.9516     22.9288   2.9562585273e+01   4.2904363605e+01     0.223828    0.1942403  42.94 0.0007670115    1.103    0.094
       331  -9.9470      4.4055    131.5652   9.8912550799e+01   4.6800668252e+01    0.2411337    0.1576206  57.99  0.001220697    1.559    0.358
       332  -8.6094    206.0006     21.0667   2.1836239624e+01   3.0736967827e+01    0.2137053    0.1609781  36.15 0.0006604138    1.538    0.350
       333  -9.0011    188.2584     21.0106   2.4209260536e+01   3.5417246018e+01    0.1878578    0.1825286 -36.38 0.0003120185    1.105    0.095
       334 -10.2002    192.8504     17.4155   2.2502550000e+01   3.4608780467e+01    0.4486656    0.2301108  45.90  0.001702448    2.070    0.517
       335  -8.1980    143.3119     21.6717   3.2139228214e+01   4.7031472429e+01     0.144936    0.1099273 -65.17 0.0007042293    1.667    0.400
       336  -8.9641     89.1773     20.0301   4.5207135192e+01   5.9298809036e+01    0.3145068    0.2195197 -63.32  0.001090252    2.638    0.621
       337  -9.7484     36.2532    142.6833   9.2820415451e+01   4.1698221205e+01    0.2446463     0.128933 -63.09  0.000982649    1.633    0.388
       338  -9.6234     57.2247    141.1991   8.7740911873e+01   3.9699926489e+01    0.2754098    0.1879605 -45.47  0.001567565    1.759    0.432
       339  -9.8083     44.4475    141.4083   9.0775006245e+01   4.1121508699e+01    0.2283138     0.189813  66.56 0.0008787049    1.199    0.166
       340  -9.7458     27.7147    141.0471   9.4581227983e+01   4.2878853602e+01    0.2962551     0.147666 -86.06  0.001524877    1.882    0.469
       341  -9.7938     28.8834    137.3142   9.3902588680e+01   4.3583454996e+01    0.2687835    0.1713564  36.04  0.001613545    1.833    0.454
       342  -8.7552    131.0609     19.7247   3.4034977741e+01   5.0257172168e+01    0.2053623    0.1721287  47.64 0.0007522177    1.110    0.099
       343  -9.0912    118.0067     19.1380   3.6861148981e+01   5.3374705712e+01    0.2954178    0.2399354  30.08   0.00166279    1.141    0.124
       344 -10.1424     41.6734    128.1003   8.9686345507e+01   4.4368619717e+01    0.2782589    0.1499984  45.65  0.000580137    1.983    0.496
       345  -9.8196     30.8153    133.7708   9.3041414495e+01   4.4179836823e+01    0.2386788    0.1535185  84.96 0.0007137671    1.452    0.311
       346 -10.7505     26.9911    130.6302   9.3578626817e+01   4.5218429763e+01    0.2920454    0.2086715 -52.53   0.00067818    1.498    0.333
       347  -9.6685     22.1726    130.3796   9.4693394665e+01   4.5691369963e+01    0.2404887    0.1461404  49.31  0.001507711    1.753    0.430
       348 -11.9159     29.8664    124.8930   9.2179620544e+01   4.6224037246e+01    0.4934492    0.4370492 -71.06  0.003578098    1.186    0.157
       349 -10.6168     35.6753    124.6039   9.0699711329e+01   4.5745795247e+01    0.3767158    0.2618185 -56.46  0.001835079    1.371    0.270
       350  -9.6215     67.0929    123.7409   8.2552757539e+01   4.2378286670e+01    0.2323046    0.1735207 -32.95 0.0009262864    1.744    0.426
       351 -10.5835     48.5589    126.4269   8.7726356216e+01   4.4008076487e+01    0.2916038    0.2604347  45.74  0.001992689    1.312    0.238
       352  -9.6991     97.7776    125.9444   7.5066784750e+01   3.7295489244e+01    0.2169706    0.1946802  52.98  0.000504869    1.156    0.135
       353  -8.6030     69.8953    126.0951   8.2242066527e+01   4.1473258533e+01    0.1665873    0.1449002 -47.79  0.001022297    1.267    0.211
       354 -10.6365     23.5322    124.3073   9.3663214178e+01   4.6905964665e+01    0.3699051    0.1593462 -67.53  0.001953221    1.800    0.445
       355 -10.0879    229.7271    123.0979   4.5226030045e+01   9.5068769073e+00    0.5928162    0.3479262 -53.16  0.002480494    2.240    0.554
       356  -8.6037     78.0072    123.0934   7.9602841368e+01   4.1021570419e+01    0.1585672    0.1431277 -80.10 0.0005001665    1.022    0.022
       357 -10.6868    170.0466     32.4869   3.0703480200e+01   3.8835954846e+01    0.5581943     0.365113   0.93 0.0008643092    2.060    0.515
       358  -9.1978    247.0266     13.3530   1.5478270937e+01   2.1323946323e+01    0.1878749    0.1602036 -86.22 0.0005419688    1.088    0.081
       359  -8.8536    135.8483    120.6052   6.4342996098e+01   3.1265940799e+01    0.2670177    0.1713307 -51.63  0.001191399    1.584    0.369
       360  -9.2863     83.9080     13.1139   4.3868443727e+01   6.1154752414e+01    0.1778588    0.1717421 -23.60 0.0005515766    1.316    0.240
       361 -10.6921     83.1604    118.9074   7.7439263343e+01   4.1207642506e+01    0.3414932     0.225869 -43.07 0.0007203806    1.632    0.387
       362  -9.0588     88.3705    120.0909   7.6307416027e+01   4.0138315536e+01    0.1918851    0.1582684 -64.20 0.0003283278    1.117    0.105
       363 -10.6406     58.0466    117.5285   8.3840235828e+01   4.4921277837e+01    0.3445559    0.2524101  66.86  0.001190794    1.492    0.330
       364  -9.8936     98.6150    117.4108   7.3053967331e+01   3.9064390569e+01    0.2326267    0.2255273 -68.46 0.0003480725    1.077    0.071
       365  -9.3413     67.6041    118.1220   8.1410198198e+01   4.3583159917e+01    0.2286722    0.1997534  32.53  0.000631574    1.355    0.262
       366  -9.6847     46.5843    116.6146   8.6720234866e+01   4.6427713672e+01    0.2310969    0.1905858 -69.87 0.0005953918    1.040    0.039
       367 -11.8580     21.1038    142.0845   9.6172518580e+01   4.3246766376e+01    0.6201191    0.3119696  64.59  0.001773657    2.089    0.521
       368  -9.0371      1.5714    101.5179   9.6538641766e+01   5.3411239377e+01     0.161898    0.1048109  79.21 0.0007535973    1.541    0.351
       369 -10.3545      2.1193    116.0220   9.7969260665e+01   5.0268820708e+01    0.2694775    0.1501934  78.77 0.0009668444    1.768    0.434
       370 -10.2372      1.2838    110.4581   9.7601311196e+01   5.1511491040e+01     0.391981   0.09293841 -76.54  0.001513992    3.708    0.730
       371 -10.5030     16.2497    104.5670   9.3019611518e+01   5.1805639029e+01     0.431411    0.3045712 -81.01  0.001544775    1.183    0.154
       372 -10.8023      9.1637    108.4809   9.5378732169e+01   5.1441772255e+01    0.4530453    0.2696981 -63.72  0.001645326    1.325    0.245
       373 -10.0122     15.4008    115.7439   9.4655110274e+01   4.9424410889e+01    0.2149623    0.1918408 -48.11 0.0003391156    1.358    0.264
       374  -9.1963     11.4848    115.5091   9.5608513652e+01   4.9758349991e+01     0.215546    0.1395283 -65.14  0.000964719    1.255    0.203
       375  -8.3456    103.2471    113.9682   7.1068326752e+01   3.9029353519e+01     0.181555    0.1166736 -54.23 0.0003132952    1.485    0.327
       376  -9.0177    116.8313    112.7887   6.7244157216e+01   3.6780938055e+01    0.2096696     0.201758   0.59 0.0004577769    1.156    0.135
       377  -9.1755     84.2158    113.0454   7.5950650368e+01   4.2369874926e+01    0.1960713    0.1705485 -47.35 0.0002689317    1.168    0.144
       378 -10.3970     45.9439    103.1331   8.4597305172e+01   4.9523263068e+01    0.3584387    0.2125007 -81.51 0.0006609681    1.868    0.465
       379  -9.6886     49.7993    111.9612   8.5088850229e+01   4.7126860157e+01    0.2734567    0.1663081 -73.25 0.0009231001    1.517    0.341
       380 -10.1539     46.8413    109.1748   8.5415203542e+01   4.8073319095e+01    0.2993876      0.21764 -66.58  0.001085618    1.150    0.130
