#   1 NUMBER                 Running object number                                     
#   2 MAG_AUTO               Kron-like elliptical aperture magnitude                    [mag]
#   3 X_IMAGE                Object position along x                                    [pixel]
#   4 Y_IMAGE                Object position along y                                    [pixel]
#   5 X_WORLD                Barycenter position along world x axis                     [deg]
#   6 Y_WORLD                Barycenter position along world y axis                     [deg]
#   7 A_WORLD                Profile RMS along major axis (world units)                 [deg]
#   8 B_WORLD                Profile RMS along minor axis (world units)                 [deg]
#   9 THETA_WORLD            Position angle (CCW/world-x)                               [deg]
#  10 FWHM_WORLD             FWHM assuming a gaussian core                              [deg]
#  11 ELONGATION             A_IMAGE/B_IMAGE                                           
#  12 ELLIPTICITY            1 - B_IMAGE/A_IMAGE                                       
         1 -13.0393    249.2724     15.6638   3.1469105252e+01   2.3087881124e+01     0.767992    0.6229553 -29.33  0.001969603    1.633    0.388
         2 -16.7186    228.4131    102.8335   5.1734228822e+01   1.4696655597e+01     8.604126     3.930665 -45.22   0.02130668    1.939    0.484
         3 -15.4238    237.3307     50.4917   3.9400631243e+01   2.1044956360e+01     3.154407     1.203166  65.92  0.006153561    2.703    0.630
         4 -16.0885    247.8325     47.8304   3.7844600511e+01   1.9313758165e+01     4.869076     2.427823 -80.39    0.0204193    2.638    0.621
         5 -15.7924    248.9024     64.5440   4.1103846036e+01   1.6745969804e+01     2.755663    0.6962711 -38.00   0.01022746    3.401    0.706
         6 -12.0578    140.3753     41.0828   5.0794792246e+01   4.4632300795e+01    0.4024134    0.2775314 -43.34  0.002087863    1.548    0.354
         7 -16.5065    246.5167     73.8703   4.3263202156e+01   1.5819264937e+01     9.102269     1.454467  52.41   0.02513331    7.750    0.871
         8  -9.3348    156.1094      9.0162   3.8817116770e+01   4.4481537254e+01    0.1909434    0.1559351  48.29 0.0006804529    1.312    0.238
         9  -9.7923    226.4809      6.1693   3.1221476171e+01   2.8769370759e+01     0.218264    0.1668974  49.93 0.0007985088    1.787    0.440
        10  -9.4697    233.9779      5.2429   3.0510216244e+01   2.7314091768e+01    0.2319001    0.1453084 -76.19  0.001473193    1.329    0.247
        11  -9.6502    249.4378      4.2842   2.9335219482e+01   2.4330954069e+01    0.1700918    0.1204963 -85.51  0.001198961    1.192    0.161
        12  -9.2056    182.4925      2.0600   3.4010304412e+01   3.8926592920e+01    0.1611789    0.1204208 -34.06 0.0006424447    1.532    0.347
        13  -8.8010    197.3127    249.2833   8.5711342083e+01  -5.1797431222e+00    0.1223948   0.08092062   4.71 0.0001986683    1.574    0.365
        14  -9.1914    196.5828    231.8097   8.3107837558e+01  -2.4378075845e+00    0.1599092    0.1202464 -51.04 0.0009403166    1.733    0.423
        15 -10.2631    216.4268    225.7069   7.8300570064e+01  -4.3685080334e+00    0.2142681    0.1808534   5.48 0.0003692826    1.056    0.053
        16 -13.2676    191.6943    153.5905   6.9334379512e+01   1.2544941540e+01    0.7090548    0.5525519 -56.46  0.003645669    1.408    0.290
        17 -13.2805     18.0768    147.3432   1.1370653605e+02   4.2578962402e+01    0.8538196    0.7170113 -83.26  0.003765682    1.018    0.018
        18 -11.2774    134.2221    146.9059   8.0971344884e+01   2.5522936539e+01     1.249823    0.3705095 -56.29  0.003063619    5.242    0.809
        19 -11.7855     46.0662    138.7769   1.0441189154e+02   4.1954819935e+01    0.4110502    0.3382169  18.86 0.0009456202    1.411    0.291
        20 -13.9230     57.8292    134.9395   1.0019204708e+02   4.1481294213e+01     1.990557     1.503355  21.66   0.00856599    1.515    0.340
        21 -10.5047    158.1145    143.1313   7.4303129034e+01   2.1489930604e+01    0.2409901    0.2160861   0.43  0.001107912    1.235    0.190
        22 -12.0766    176.9141    154.0987   7.2526365913e+01   1.5345371636e+01    0.3742851    0.3093244   9.72  0.001912557    1.381    0.276
        23  -8.6545    125.8378    141.1205   8.1856196808e+01   2.8532797222e+01    0.2006677    0.1797677  -9.13 -0.000430966    1.266    0.210
        24 -13.4263    200.9032    129.9101   6.2323610647e+01   1.5327622896e+01     1.034976    0.7195998  88.55  0.004539224    2.341    0.573
        25  -9.8917    150.2265    137.1270   7.4790793649e+01   2.4447582813e+01    0.2177468    0.1828902 -77.68  0.001056898    1.383    0.277
        26  -8.8854    184.3876    225.7837   8.4548583853e+01   3.8700834823e-01    0.1676953    0.1157519 -27.56 0.0002765482    1.536    0.349
        27 -11.4737    173.8020    132.0531   6.8239134450e+01   2.0542720658e+01    0.4150162    0.2514264 -48.54  0.001542233    1.643    0.391
        28 -11.9828    161.4273    128.7502   7.0195173081e+01   2.3878541028e+01    0.5045168    0.3825904 -82.67   0.00228089    1.774    0.436
        29 -12.0265    171.6687    123.3980   6.6650504125e+01   2.2779403502e+01    0.5964516    0.3894449 -73.54   0.00236695    2.395    0.582
        30 -11.1350    135.4192    121.5641   7.4733047306e+01   3.1029685161e+01    0.5981836    0.1499961 -49.31  0.001559055    4.306    0.768
        31 -12.6201    208.7915    127.5131   6.0355666986e+01   1.4193143127e+01    0.8275451    0.4431441 -61.35  0.003061116    2.880    0.653
        32 -12.3443    193.1578    170.2416   7.2524236025e+01   9.0165984969e+00    0.5637565    0.3892183  84.50  0.002271662    3.101    0.678
        33  -9.5897    185.9608    221.2754   8.3483165118e+01   9.0173087707e-01    0.1826825    0.1504317  20.72 0.0003209326    1.079    0.073
        34 -12.0870    166.1539    116.5921   6.6190579667e+01   2.5380024798e+01    0.6813891     0.438267  11.89  0.002438876    3.117    0.679
        35 -10.9859    178.9958    114.8501   6.3059800684e+01   2.2896833790e+01    0.2586313    0.2129605 -46.22 0.0004092389    1.171    0.146
        36 -11.7497    185.8146    170.4028   7.4067090604e+01   1.0341316872e+01    0.4243327    0.2063038 -51.97  0.001677226    2.374    0.579
        37 -11.0214    176.1113    107.6285   6.1876426170e+01   2.4951628610e+01    0.3256063    0.2614563 -69.94 0.0005148222    1.382    0.276
        38 -10.8594    146.4889    106.9634   6.8255450526e+01   3.1750205588e+01    0.3109965    0.2338403  46.81  0.000675377    1.336    0.251
        39 -10.1843    113.7806     94.2235   7.3351164352e+01   4.1544871751e+01    0.2133737     0.182998   3.27  0.001071437    1.343    0.256
        40 -10.1864     91.9901     92.0149   7.9285376816e+01   4.6328253154e+01    0.2113336     0.205483 -13.11            0    1.006    0.006
        41 -11.6826    176.6664    167.6766   7.5449424996e+01   1.2610625545e+01    0.5232162    0.2248769 -56.15  0.001723727    3.430    0.708
        42 -10.5263    126.8522     73.3561   6.3711219315e+01   4.2753198266e+01    0.2671822    0.2425078 -47.55 0.0004087477    1.140    0.123
        43 -10.0234    151.0734     71.4514   5.7509396640e+01   3.7441625713e+01     0.269201    0.2037903 -48.96 0.0005673617    1.353    0.261
        44  -9.9953    158.4277     71.4448   5.5984700043e+01   3.5695134923e+01    0.2532978    0.2372588 -54.78 0.0005468478    1.083    0.076
        45  -9.0753    110.8481     67.1614   6.6075885550e+01   4.7409137486e+01    0.1976219    0.1689803  -0.05 0.0006327783    1.306    0.234
        46 -10.3715    186.1040     64.3800   4.9141412705e+01   3.0285937605e+01    0.2187307    0.1901297 -35.40 0.0004388323    1.251    0.201
        47 -12.3517    198.9747    162.8166   6.9832492497e+01   9.3722167541e+00    0.5826088    0.3623844 -64.85  0.002413471    2.610    0.617
        48 -12.8143    184.5941     47.4675   4.5079715230e+01   3.3145728071e+01    0.6840853    0.4907892 -66.02 0.0009369453    1.406    0.289
        49 -10.7036    161.8735     45.1801   4.8035579789e+01   3.8897083853e+01    0.3487864     0.169001 -21.91  0.001348796    3.057    0.673
        50 -10.8045    159.1934     42.0938   4.7629003553e+01   3.9963532430e+01    0.2776765    0.2001327 -15.39  0.001419955    1.819    0.450
        51  -9.9184    235.4519    218.0063   7.3525263753e+01  -5.8505196549e+00    0.1814604    0.1426587  13.77  0.000370457    1.161    0.139
        52 -11.1383    122.9781     35.2496   5.2609869564e+01   4.9505018009e+01    0.2454723    0.2005067 -43.69 0.0002685857    1.349    0.259
        53 -11.5014    178.6965    163.1911   7.4080393163e+01   1.3134463218e+01    0.2860071    0.2355933 -75.95  0.001449617    1.561    0.359
        54 -11.4624    181.3837     34.4959   4.2224091077e+01   3.5629848859e+01     0.321837    0.2608823 -15.58  0.001662486    1.606    0.377
        55 -11.2952    169.9574     36.1961   4.4288918179e+01   3.8140508438e+01    0.4256553    0.2342513  39.53   0.00165389    2.472    0.595
        56 -11.6830    132.6708     39.6662   5.1930119888e+01   4.6655979542e+01     0.459157    0.2659987 -87.51  0.001760923    3.130    0.680
        57 -10.6882    185.3083     27.9697   4.0072337489e+01   3.5506465114e+01    0.2882069    0.2561457   5.29 0.0007216642    1.532    0.347
        58 -10.3290    179.5509     24.3037   3.9864385973e+01   3.7294394592e+01    0.4019507     0.290425 -86.13  0.002307545    1.305    0.233
        59  -9.5715    229.4367    216.1803   7.4276228304e+01  -4.7536829447e+00    0.1537933    0.1107021 -42.36 0.0004815108    1.579    0.367
        60 -10.0160    153.3425    210.7065   8.8619728189e+01   8.1728122943e+00    0.2301049    0.2135175   8.23 0.0004378008    1.069    0.064
        61 -11.9155    192.3460    193.8626   7.7314490050e+01   4.7083212812e+00    0.8901495    0.4449068 -62.73  0.002583124    6.055    0.835
        62  -8.8074    176.1442    196.1985   8.1123432025e+01   7.0561171521e+00    0.1772544    0.1615189  57.80 0.0002913919    1.283    0.221
        63  -9.7036    211.1237    163.0207   6.7543358887e+01   7.1258037682e+00    0.2039997    0.1856091 -20.31 0.0003850881    1.003    0.003
        64  -9.0349     37.7047    195.0033   1.1361488868e+02   2.9102151087e+01    0.1754669    0.1445186 -85.59 0.0002346916    1.105    0.095
