#   1 NUMBER                 Running object number                                     
#   2 MAG_AUTO               Kron-like elliptical aperture magnitude                    [mag]
#   3 X_IMAGE                Object position along x                                    [pixel]
#   4 Y_IMAGE                Object position along y                                    [pixel]
#   5 X_WORLD                Barycenter position along world x axis                     [deg]
#   6 Y_WORLD                Barycenter position along world y axis                     [deg]
#   7 A_WORLD                Profile RMS along major axis (world units)                 [deg]
#   8 B_WORLD                Profile RMS along minor axis (world units)                 [deg]
#   9 THETA_WORLD            Position angle (CCW/world-x)                               [deg]
#  10 FWHM_WORLD             FWHM assuming a gaussian core                              [deg]
#  11 ELONGATION             A_IMAGE/B_IMAGE                                           
#  12 ELLIPTICITY            1 - B_IMAGE/A_IMAGE                                       
         1  -9.7570    199.5195      4.5354   5.6126154785e+01   3.5059012015e+01    0.1607247    0.1137013 -41.69 3.237719e-05    1.564    0.360
         2  -9.8786    196.5987      1.8320   5.5827857426e+01   3.5977324543e+01    0.2699518    0.1065907 -58.14  0.001212878    2.846    0.649
         3 -10.3356    165.0525      1.5325   5.9159655152e+01   4.3163456318e+01    0.1929798   0.09841415  69.23  0.000535253    1.577    0.366
         4  -9.9232     92.9621    218.7333   1.2689172646e+02   1.6276882744e+01    0.1901138    0.1625714  62.78  0.000313189    1.046    0.044
         5 -15.0516    183.4369    247.5020   1.1180604802e+02  -4.6995942789e+00     2.204344    0.5804386  35.77  0.007484185    3.650    0.726
         6 -16.2014    161.5298     26.2283   6.5944667908e+01   4.1542648503e+01      3.18627      2.00509  68.95   0.01726447    1.391    0.281
         7 -17.6300    196.8275     42.6243   6.4945339913e+01   3.1213961269e+01     4.317724     2.200419  83.81   0.01381704    2.349    0.574
         8 -10.9650    249.3747    201.3583   9.0882093098e+01  -7.3143077937e+00    0.2703194     0.196274  13.46  0.001032314    1.464    0.317
         9 -13.8349     42.2700    192.9777   1.3515038613e+02   2.9515329107e+01    0.8211266    0.5829491  80.81  0.003219451    1.299    0.230
        10 -13.3621     54.7921    191.5233   1.3207639527e+02   2.8294033437e+01    0.9407991    0.6397862 -82.55  0.003491832    1.365    0.267
        11 -13.5711     57.7432    181.1705   1.3000352127e+02   3.0431643713e+01    0.8456399    0.5451465  81.85  0.002956713    1.701    0.412
        12 -13.4529     50.4997    176.3094   1.3112201983e+02   3.2562749330e+01     0.500955    0.4391033 -39.14  0.001329265    1.387    0.279
        13 -15.0593     59.3753    168.4960   1.2775455979e+02   3.3356100207e+01     1.327785     1.182597 -66.84  0.004343151    1.099    0.090
        14 -12.1816     37.5449    182.5794   1.3504692644e+02   3.2571485841e+01    0.2500713    0.1999447  25.15    0.0010062    1.585    0.369
        15 -12.2787     72.5586    177.5162   1.2578176287e+02   2.9261045680e+01    0.5116043    0.4620048  62.64  0.002076599    1.117    0.105
        16 -10.1521     24.1120    177.1997   1.3759742102e+02   3.5298183251e+01    0.1885351    0.1517231 -65.78 0.0005170452    1.201    0.167
        17 -12.8363    163.5387    156.6026   9.8883845526e+01   1.7391701214e+01    0.6491587    0.5463434  35.00  0.002122022    1.248    0.198
        18 -12.5265    171.5331    154.1915   9.6523977429e+01   1.6236171120e+01    0.6280782    0.5536052  61.53  0.001761617    1.194    0.163
        19 -10.8358     19.3624    151.8794   1.3579904938e+02   4.1855484300e+01    0.2957481    0.1402925 -81.33  0.001345004    2.117    0.528
        20 -12.3872     68.1341    144.6373   1.2131704556e+02   3.8112951855e+01    0.7250553    0.4187333  63.73  0.002809557    2.474    0.596
        21 -12.6287    142.0282    143.5497   1.0106929941e+02   2.4960307283e+01    0.6755621    0.4899313 -21.31   0.00274663    1.854    0.461
        22 -13.0899     24.8829    137.4235   1.3232467920e+02   4.4862202727e+01    0.6794961    0.4958987 -89.09  0.002342053    1.386    0.278
        23 -13.5915     25.2713    129.5425   1.3099687868e+02   4.6719017178e+01     1.135037    0.4941158 -48.66  0.004837337    2.057    0.514
        24 -14.7548     45.3358    115.7486   1.2238732188e+02   4.8006309086e+01     2.301757    0.7586634 -60.08   0.00856801    2.724    0.633
        25 -13.7272    144.8703    129.0075   9.6886937531e+01   2.7684698713e+01     1.492747     1.270224  71.97  0.007312783    1.282    0.220
        26 -12.8149    154.1465    122.4216   9.3012935895e+01   2.7089186827e+01    0.6506058    0.5006573  57.61   0.00201578    1.350    0.259
        27 -14.3152    153.8459    113.5117   9.0833705741e+01   2.9070460113e+01     1.463515     1.175044 -76.27  0.004964609    1.440    0.305
        28 -13.9143    157.2804    133.2544   9.4929690421e+01   2.4002214792e+01     0.830188    0.7285554  75.97  0.002152952    1.224    0.183
        29 -14.3353    164.4441    130.7481   9.2666964103e+01   2.2964529807e+01     1.107569    0.7461331  61.10  0.003276188    1.680    0.405
        30 -11.2336    210.1715    133.8478   8.3986078642e+01   1.2324036393e+01    0.4520196    0.2822487  45.18  0.001613595    1.748    0.428
        31 -11.0100     12.1806    130.8332   1.3493356801e+02   4.7463750169e+01    0.2949015    0.2820346 -65.89  0.001709891    1.190    0.160
        32 -10.8632     12.6662    127.3410   1.3429697531e+02   4.8250822294e+01    0.2274667    0.1843808  57.60   0.00102913    1.437    0.304
        33 -11.8010    213.7807    128.6780   8.2172735452e+01   1.2595199095e+01    0.2788539    0.2383422 -71.92 0.0006863749    1.218    0.179
        34 -13.7460      3.0720    244.1832   1.4711287789e+02   2.2475999160e+01    0.6285411    0.2708914 -84.87  0.003113967    1.955    0.488
        35 -12.5151    178.8978    115.5180   8.5808560280e+01   2.2922821070e+01     1.028401     0.633652  72.54  0.003238833    2.272    0.560
        36 -10.1351    179.6335    109.6527   8.4217777726e+01   2.3941291085e+01    0.1542886    0.1523429 -44.28 0.0008331294    1.098    0.089
        37 -11.8332    167.0952    112.6496   8.7612246593e+01   2.6218889100e+01    0.4800759    0.3212512 -55.43  0.001173088    1.563    0.360
        38 -11.2142    134.5514    113.0501   9.5446969755e+01   3.3475472784e+01    0.4794262    0.1506345 -44.13    0.0014476    3.183    0.686
        39 -10.5659    134.5102    106.5127   9.3736290330e+01   3.4882789088e+01    0.4609831     0.150197 -45.73  0.001429891    3.081    0.675
        40 -13.1900    204.9276    109.5148   7.9379419338e+01   1.8237743254e+01    0.5698503    0.4645677 -37.64   0.00279827    1.258    0.205
        41 -10.9997      2.8870    112.3725   1.3495571095e+02   5.2352476125e+01    0.2326028    0.1354544  34.99  0.001346019    2.096    0.523
        42 -12.5876    188.1526    107.3456   8.1965080032e+01   2.2441620999e+01    0.8011132    0.6411572 -50.78  0.002802695    1.199    0.166
        43 -12.8455    180.2440    100.0766   8.1723180013e+01   2.5681111613e+01     1.062259    0.6157718  36.27  0.004240828    2.312    0.568
        44 -12.6897    175.6576     74.7973   7.6206025815e+01   3.1342118858e+01    0.7244495    0.5190248 -52.19 0.0005170592    1.407    0.289
        45 -13.1714    185.0335     85.2241   7.7117724292e+01   2.7313779813e+01    0.7802322    0.5151929 -56.87  0.001405737    1.566    0.362
        46 -11.6454    184.5432     77.4686   7.5276777550e+01   2.8781925941e+01    0.4933659    0.2678027  53.09  0.001571048    1.825    0.452
        47 -12.8422      2.5440    214.4793   1.4538160392e+02   2.8781035998e+01    0.5341183    0.2298038 -70.86  0.002879292    1.918    0.479
        48 -10.7057    145.7164     98.7667   8.8896159225e+01   3.3960766231e+01    0.2569908    0.2327008  -4.86 0.0008793809    1.270    0.212
        49  -9.8681    132.4942     95.4435   9.1250829278e+01   3.7599396160e+01    0.1498824    0.1467447  66.91 6.052347e-05    1.017    0.017
        50 -12.3375    153.2149     91.8594   8.5302663836e+01   3.3580904693e+01    0.8149479    0.3823375  40.87  0.002684627    2.462    0.594
        51 -11.1470    139.1279     88.1351   8.7578038521e+01   3.7532639161e+01    0.3021847    0.2663861 -79.16  0.001425927    1.248    0.199
        52  -9.7480    200.8037     87.3742   7.4894670734e+01   2.3266434925e+01    0.1937504    0.1299441  49.14 0.0003964091    1.624    0.384
        53 -10.5438    211.3765     84.1638   7.2456309839e+01   2.1428989906e+01    0.2571065    0.1947298  45.55  0.000842486    1.569    0.363
        54 -12.0225    215.5265     80.8354   7.1076222826e+01   2.1070991305e+01    0.6369622    0.3427477 -54.44  0.002883508    1.828    0.453
        55 -10.9908    221.0022     79.2024   6.9922002946e+01   2.0135641294e+01    0.5211119    0.2973981  89.34  0.001972162    2.461    0.594
        56 -12.2799    169.0500     80.2151   7.8869167289e+01   3.1981017014e+01    0.5146239    0.3958278  25.13  0.002495391    1.737    0.424
        57 -12.4519    152.2606     80.9937   8.2573663520e+01   3.5811271959e+01    0.3179477    0.2533451 -35.01  0.000579246    1.340    0.254
        58 -11.8116    219.0361     71.0424   6.8390648731e+01   2.1911446158e+01    0.4273987    0.3833646 -87.35  0.002065015    1.093    0.085
        59 -11.2060    221.4970     66.9793   6.7167346604e+01   2.2015783112e+01    0.2793559     0.185207  82.81 0.0009997806    1.556    0.357
        60 -11.8904    183.7444     68.2538   7.3117555795e+01   3.0500166086e+01    0.2885968    0.2419461  47.45 0.0008991159    1.316    0.240
        61 -12.2143    187.8367     65.0973   7.1656279299e+01   3.0035039955e+01     0.426105    0.2646437  41.36  0.001311943    2.033    0.508
        62 -13.5384    167.0232     64.4603   7.5119631239e+01   3.5087940571e+01    0.6010936    0.4590631  -7.27    0.0017343    1.874    0.466
        63 -17.9010    236.9612     13.6294   5.4659315243e+01   2.5967542202e+01     3.909856     2.718024 -83.96   0.02326102    1.141    0.123
        64  -9.8692    145.9930     55.0429   7.6667692448e+01   4.1503974860e+01    0.1601726    0.1566161 -75.56 0.0003061245    1.088    0.080
        65 -11.1731     76.8842     52.0949   9.4015910429e+01   5.6341966141e+01    0.1828809    0.1795296  10.69 0.0003835088    1.252    0.202
        66 -15.4885    200.9358    233.1163   1.0588623334e+02  -5.1115582438e+00     1.761282     1.520976  43.99  0.007578743    1.303    0.233
        67 -17.0969    170.0433    226.9432   1.1119850162e+02   1.2062017017e+00     4.902077     2.100531  29.45   0.01085128    2.861    0.650
        68 -16.3894    231.5923    219.6266   9.7521342426e+01  -7.6664626764e+00     2.667587     1.481146  39.43   0.01011778    1.881    0.468
        69 -17.4593    229.8679    182.7610   9.0742082102e+01  -9.5075728789e-01     4.432141     2.737412  11.90   0.01949324    2.486    0.598
        70 -10.0930     91.6973     22.6793   7.9187910570e+01   5.7378950784e+01    0.1298011   0.08249255  25.13 0.0002654498    1.630    0.386
        71  -9.2579     16.7036     18.3052   1.0487939396e+02   6.9158279876e+01   0.08939845   0.08281343  -2.35 0.0002575704    1.584    0.369
        72 -17.4943    240.7616    149.5611   8.2033281543e+01   3.3174061112e+00     6.356479     1.677621 -42.90   0.01715304    3.301    0.697
        73 -14.6418     21.4372    198.3334   1.4030113938e+02   3.0570855128e+01    0.9015049     0.708913 -89.75  0.003710799    1.021    0.020
        74 -10.7391    250.4092    229.9820   9.5977623032e+01  -1.1964494176e+01    0.2745892    0.1336271 -23.27  0.001319384    2.270    0.560
        75 -13.4955    142.5525    210.1223   1.1435487153e+02   9.5630818463e+00    0.6007014    0.3061325  45.74  0.002528835    1.879    0.468
