#   1 NUMBER                 Running object number                                     
#   2 MAG_AUTO               Kron-like elliptical aperture magnitude                    [mag]
#   3 X_IMAGE                Object position along x                                    [pixel]
#   4 Y_IMAGE                Object position along y                                    [pixel]
#   5 X_WORLD                Barycenter position along world x axis                     [deg]
#   6 Y_WORLD                Barycenter position along world y axis                     [deg]
#   7 A_WORLD                Profile RMS along major axis (world units)                 [deg]
#   8 B_WORLD                Profile RMS along minor axis (world units)                 [deg]
#   9 THETA_WORLD            Position angle (CCW/world-x)                               [deg]
#  10 FWHM_WORLD             FWHM assuming a gaussian core                              [deg]
#  11 ELONGATION             A_IMAGE/B_IMAGE                                           
#  12 ELLIPTICITY            1 - B_IMAGE/A_IMAGE                                       
         1 -11.7292    213.9271     33.6183   4.0626588766e+01   2.7923620901e+01    0.8959267     0.673295 -74.33  0.004374417    1.231    0.188
         2  -9.5229      2.3339     38.5372   1.0426734067e+02   6.8135248508e+01    0.2829603   0.07456468 -57.31  0.001229007    2.794    0.642
         3 -11.5894    234.4640     14.8734   3.4474437740e+01   2.5582166965e+01    0.6885741    0.5330353 -69.24  0.002847302    1.053    0.050
         4 -10.1127      1.8972      5.4656   9.2149010861e+01   7.3952258097e+01    0.7046342    0.1073502 -48.52  0.002529033    5.222    0.809
         5  -9.0200    114.9910    245.2339   1.0580067018e+02   8.2295107096e+00    0.1650625    0.1382649 -23.24 0.0009746373    1.628    0.386
         6  -9.9911     91.6949    245.2291   1.1050696466e+02   1.1676652128e+01    0.4003486    0.1529128  35.17  0.001791195    2.378    0.580
         7 -10.0925     51.4402    250.1484   1.1872425430e+02   1.6148717208e+01    0.6777231    0.1869435  32.28  0.002610447    4.136    0.758
         8 -10.8194     60.3304    248.1046   1.1689989449e+02   1.5411821042e+01     0.550684     0.323834  46.49  0.003388347    1.358    0.264
         9 -10.8703     72.3231    248.9323   1.1466247754e+02   1.3686446134e+01    0.8109105     0.359704  45.94  0.004287395    1.762    0.432
        10  -9.4187     26.5025    249.8871   1.2324457573e+02   1.9096775749e+01    0.2539209    0.2135806  50.28  0.001623399    1.332    0.249
        11 -10.3970     31.1362    247.1114   1.2226108015e+02   1.9102029513e+01    0.5531153    0.2436026  50.44  0.002135142    1.725    0.420
        12 -13.7881      7.3050    146.6234   1.2018403231e+02   4.3309216946e+01     6.690325     1.718343 -82.90   0.02092022    4.815    0.792
        13 -13.1326     37.6531    196.9530   1.1739484529e+02   2.8732060239e+01     2.003788      1.09427  66.68  0.008576541    1.781    0.438
        14 -10.9836     84.0342    229.1744   1.1045325771e+02   1.5847239569e+01    0.8789502    0.4048843 -74.94  0.003998962    2.736    0.635
        15 -10.7910    125.0189    229.7101   1.0181138414e+02   9.4855864275e+00    0.3135698    0.2984762  71.29  0.001351877    1.149    0.130
        16  -9.3089    132.9672    231.0000   1.0029393283e+02   7.9712550602e+00    0.2273749   0.06501433  37.66 0.0008073292    2.976    0.664
        17 -11.3865     15.3317    214.7178   1.2335188363e+02   2.7205087665e+01    0.5105693    0.3602074  75.67  0.002318123    1.105    0.095
        18 -10.1159     96.7208    227.5024   1.0758424139e+02   1.4315494425e+01    0.2794345    0.1937794  19.62  0.001497181    1.873    0.466
        19  -9.6506    120.9693    223.6547   1.0188066267e+02   1.1284413667e+01    0.3451332     0.243707  -5.11  0.001691001    2.350    0.574
        20  -7.5478     48.6110    225.2336   1.1742344438e+02   2.1359325524e+01    0.1479294     0.103843 -71.31 0.0002829211    1.472    0.321
        21  -8.6568    167.4848    222.9971   9.1818320823e+01   3.7178762831e+00     0.164099    0.1206371 -82.92  0.000808647    2.419    0.587
        22 -10.5845    102.2223    243.4546   1.0819997719e+02   1.0464909288e+01    0.3382468     0.247291 -44.55  0.002055437    1.798    0.444
        23  -7.6080     74.2832    219.3577   1.1151190481e+02   1.9226518702e+01    0.1171883   0.09895628 -32.99 0.0007018242    1.670    0.401
        24 -12.4543     10.3083    207.1057   1.2390094276e+02   2.9288290991e+01    0.8417611    0.6476569  21.21  0.004048543    1.778    0.438
        25 -11.3118     83.9179    247.2198   1.1224443393e+02   1.2413388128e+01    0.6484845    0.5100656  76.41   0.00337912    1.238    0.193
        26 -10.8008    114.4858    231.1587   1.0423671617e+02   1.0880651340e+01    0.3612247      0.29107  83.01  0.002206914    1.399    0.285
        27 -11.1323    109.1674    231.0313   1.0534952114e+02   1.1731736651e+01    0.4072466    0.3033671  47.66  0.002435205    1.136    0.120
        28 -10.6373     87.3089    225.4223   1.0936121163e+02   1.6124610449e+01    0.5929968    0.3080188  89.60  0.002559107    2.979    0.664
        29 -10.0107     56.8723    179.8151   1.1113924356e+02   3.0412156788e+01    0.4213985    0.2901377 -30.03   0.00196734    2.217    0.549
        30 -10.0394     62.4359    174.2122   1.0905366888e+02   3.1030699206e+01    0.3116708    0.2640775 -21.03 0.0008782963    1.584    0.369
        31  -8.3942     60.4939    233.4696   1.1569769241e+02   1.8204016938e+01    0.2200235    0.1512447  79.36  0.001110836    1.368    0.269
        32  -9.7923    113.3852    240.7720   1.0561688422e+02   9.2721270498e+00    0.2977757    0.1359032  32.14  0.001267543    2.158    0.537
        33  -9.7983     72.9101    164.2931   1.0494331963e+02   3.1999969877e+01    0.2837669    0.2726607  85.36 0.0004672048    1.087    0.080
        34 -11.2675     79.8266    157.4851   1.0200111316e+02   3.2656778268e+01    0.8525634     0.714673  59.67  0.002811886    1.184    0.155
        35 -11.7969     68.3724    144.8096   1.0305369231e+02   3.7457828460e+01    0.9540884    0.6050457 -88.25  0.003377035    1.939    0.484
        36 -11.6472     59.7284    160.5793   1.0790765818e+02   3.4699452414e+01    0.5167255    0.3084195 -43.16  0.001469606    2.005    0.501
        37  -9.1298     33.0962    154.8751   1.1426742720e+02   3.9131970488e+01    0.3914751    0.1252034 -70.54  0.001505219    2.736    0.634
        38  -8.1802    124.3152    153.3796   8.9274442498e+01   2.5968147276e+01    0.2689209    0.1866943 -74.27  0.001002528    1.848    0.459
        39  -8.9282     95.3648    143.1294   9.5041595422e+01   3.3703091965e+01    0.2839115    0.2216043  13.85  0.001369024    1.584    0.369
        40 -10.3809     83.6679    141.8732   9.8128390112e+01   3.5927295600e+01    0.3064393    0.2748956 -54.32 0.0004748319    1.103    0.093
        41  -8.3104     77.6702    138.2973   9.9182361577e+01   3.7737926832e+01     0.150967    0.1095444  71.08 0.0002040177    1.638    0.389
        42  -9.0397    107.1828    131.6554   8.9226527685e+01   3.4389159099e+01     0.345527    0.3165532  22.06  0.001152556    1.163    0.140
        43 -10.1691     57.9890    130.7638   1.0365295868e+02   4.2339412275e+01    0.4403628    0.1850036 -68.10  0.001670947    2.480    0.597
        44  -8.0578     95.0262    128.0135   9.1932276696e+01   3.7460566140e+01    0.2338221    0.1803126 -22.12 0.0005649938    1.600    0.375
        45  -7.8500    114.6726    125.6836   8.5706217830e+01   3.4380549473e+01    0.1594069    0.1242561  -9.89 0.0007045119    1.675    0.403
        46  -8.0932    105.4830    120.0621   8.6990693987e+01   3.7477676933e+01    0.2242915    0.2025454  33.90 0.0003930293    1.138    0.121
        47 -13.3969      5.1642    239.6690   1.2650223510e+02   2.3209718249e+01     4.366998    0.8785639 -79.36    0.0175265    4.559    0.781
        48  -7.6392    168.3310    113.6468   6.8957736812e+01   2.5415824339e+01    0.1639791     0.124314 -80.08 0.0007046259    1.779    0.438
        49  -7.9405    205.5245    110.4600   6.0647372179e+01   1.7653590331e+01    0.1471287    0.1383616 -47.21 0.0002612046    1.019    0.019
        50 -11.4400     27.3971    207.5505   1.2044204329e+02   2.7505730749e+01    0.4727687    0.4071103 -38.17 0.0009924676    1.684    0.406
        51  -7.9135     61.5303     71.5376   8.8362616776e+01   5.5801381593e+01    0.1393563    0.1236854 -23.22 0.0001087424    1.013    0.013
        52 -10.5669      2.3844     60.6653   1.0978397353e+02   6.3600093955e+01    0.7254238     0.104229 -66.56  0.002033428    6.414    0.844
        53  -9.4410     13.1666     60.4368   1.0509088426e+02   6.3070787103e+01    0.2181711    0.1457992 -54.84 0.0004927731    1.241    0.194
        54  -8.2124     31.5731     53.8955   9.5151715251e+01   6.2978191657e+01    0.2297592    0.1548426  40.75  0.001284788    1.903    0.474
        55 -11.4684    206.3692     39.1780   4.2852071219e+01   2.8968226395e+01    0.6968964    0.4956861 -70.02  0.003137873    1.386    0.278
        56  -9.5574     20.7606    239.3489   1.2371045936e+02   2.1704048529e+01    0.2224325    0.1669247 -84.69 0.0004073675    1.313    0.238
        57 -10.9753    220.8778     27.7811   3.8534710953e+01   2.7062773771e+01    0.5024195    0.3580707  44.30  0.001626524    1.838    0.456
        58  -8.5023     21.0050    248.9974   1.2416795852e+02   1.9854023292e+01    0.1842407    0.1090892 -78.00  0.001235736    1.654    0.395
        59  -8.0974    131.8719     31.2354   5.2653349180e+01   4.8318091786e+01    0.2044105    0.1802708  86.52 0.0005595986    1.221    0.181
        60  -8.2186     13.2946     43.3518   1.0032131231e+02   6.6555020620e+01    0.1311253    0.0678286 -33.07 0.0007032251    1.683    0.406
        61  -8.6064     33.0000     29.0084   8.5436315722e+01   6.7387630210e+01    0.1951923   0.06145955 -44.64 0.0008022034    2.941    0.660
        62  -8.9388     20.1799    244.1872   1.2406880524e+02   2.0842073161e+01    0.2250778     0.131515  56.01  0.001047041    1.300    0.231
