#   1 NUMBER                 Running object number                                     
#   2 MAG_AUTO               Kron-like elliptical aperture magnitude                    [mag]
#   3 X_IMAGE                Object position along x                                    [pixel]
#   4 Y_IMAGE                Object position along y                                    [pixel]
#   5 X_WORLD                Barycenter position along world x axis                     [deg]
#   6 Y_WORLD                Barycenter position along world y axis                     [deg]
#   7 A_WORLD                Profile RMS along major axis (world units)                 [deg]
#   8 B_WORLD                Profile RMS along minor axis (world units)                 [deg]
#   9 THETA_WORLD            Position angle (CCW/world-x)                               [deg]
#  10 FWHM_WORLD             FWHM assuming a gaussian core                              [deg]
#  11 ELONGATION             A_IMAGE/B_IMAGE                                           
#  12 ELLIPTICITY            1 - B_IMAGE/A_IMAGE                                       
         1 -14.2368      5.7632     19.1883   1.2435486170e+02   7.1236325586e+01     3.789205    0.4577029 -51.83   0.01430779    4.037    0.752
         2 -13.9290    189.3814     22.4585   6.9495275259e+01   3.5081269690e+01     2.096064     1.239424  -1.57  0.007642568    2.574    0.611
         3 -14.2882    197.0661     17.2630   6.7021693673e+01   3.3653690039e+01     1.971772      1.55348  46.32  0.007980451    1.380    0.275
         4 -13.9395    202.0053      9.7473   6.4357613522e+01   3.3175684952e+01     1.638783    0.7807283  51.08  0.001463469    2.209    0.547
         5  -8.9176    136.6903     94.2811   1.0205322132e+02   3.6906730001e+01    0.1536571    0.1228032 -87.16 0.0003084351    1.564    0.361
         6 -10.4713    219.5961    249.1599   1.1605280292e+02  -6.0280322877e+00    0.2066873    0.1040874 -43.47  0.001159355    2.878    0.653
         7 -10.6553    205.2245    249.6742   1.1855134123e+02  -3.8844797639e+00    0.1891829    0.1467899  41.01 0.0006072429    1.218    0.179
         8 -10.4361    152.6334    243.8353   1.2698275354e+02   5.2869957197e+00    0.2114762     0.161372 -76.66  0.001272543    1.792    0.442
         9 -11.3308    145.9622    240.6905   1.2780105395e+02   6.8252600562e+00    0.3678406    0.1869161  50.80 0.0009908126    1.657    0.396
        10 -11.1488    143.5170    249.3784   1.2924226444e+02   5.9607888311e+00    0.3895939    0.2325462  45.34  0.002136492    1.268    0.212
        11 -11.2035    150.2018    248.0906   1.2791849872e+02   5.0778133754e+00    0.4203893    0.1957917  44.17  0.002299611    1.631    0.387
        12 -11.0964    142.9920    244.7896   1.2881347503e+02   6.7043193908e+00    0.4260377    0.1420901  43.17  0.001951065    2.298    0.565
        13 -10.9199    133.6467    249.4732   1.3098505759e+02   7.5029480551e+00    0.4548427    0.1679244  51.18  0.002157691    2.347    0.574
        14  -9.4088    115.9381    240.7067   1.3320257670e+02   1.1598561552e+01    0.2491295      0.14389  67.72  0.001412936    1.911    0.477
        15 -10.2511    122.8571    250.0816   1.3293510519e+02   9.0876640252e+00    0.2468648    0.1933989  46.94  0.001781255    1.137    0.120
        16 -10.0385    126.2681    248.8599   1.3221400077e+02   8.7434122935e+00    0.3051446    0.1484911  60.97  0.001569652    2.310    0.567
        17 -11.0573    121.4561    244.8629   1.3264839748e+02   1.0094669757e+01    0.3461396    0.1683279  56.83  0.001764763    1.912    0.477
        18 -12.1235    126.1977    240.8374   1.3137590817e+02   9.9742692208e+00    0.4557327    0.3639201  67.62  0.001972989    1.200    0.167
        19 -11.8138    111.8031    248.6148   1.3471708342e+02   1.0992810408e+01    0.8650941    0.2193605  47.28  0.003659969    2.932    0.659
        20 -10.5354    107.9644    240.2854   1.3458561260e+02   1.2887505576e+01    0.3039739    0.1781241 -72.20  0.001839434    2.066    0.516
        21 -10.3111    104.0640    238.0173   1.3506123335e+02   1.3846974359e+01      0.22882    0.1617337  45.28 0.0009011596    1.244    0.196
        22  -9.9619    100.6965    250.3096   1.3679370251e+02   1.2377734423e+01    0.2045595    0.1193019  56.08 0.0008288947    1.330    0.248
        23 -11.1589     98.1712    246.7647   1.3691515138e+02   1.3305096420e+01    0.3400057    0.1631427  57.87  0.001397734    1.804    0.446
        24 -11.0670     87.6490    250.5334   1.3903845636e+02   1.4211863467e+01    0.4495896    0.2107012  43.20  0.002213723    1.722    0.419
        25 -10.9464     88.0266    247.3070   1.3871037331e+02   1.4675156699e+01    0.2670395    0.1679234  38.00  0.001255588    1.647    0.393
        26 -11.0143     81.5117    246.9657   1.3979575056e+02   1.5641358607e+01    0.5307836    0.2160514 -76.35  0.002719091    3.168    0.684
        27 -11.2290     84.6200    241.8346   1.3884361546e+02   1.6051249653e+01    0.4337569    0.2871006  17.54  0.002255769    3.465    0.711
        28 -10.4279     90.2866    236.2810   1.3736321100e+02   1.6173093502e+01    0.3045794     0.141265  58.27  0.001073664    1.912    0.477
        29  -9.6379     83.5032    238.4268   1.3875218580e+02   1.6779149932e+01    0.2400374    0.1303315  52.98  0.001034033    1.407    0.289
        30  -9.8590     86.4568    237.4232   1.3814492857e+02   1.6530107528e+01    0.2239494    0.1430158  58.13 6.988657e-05    1.205    0.170
        31  -9.5590     74.8893    250.5823   1.4118787770e+02   1.5958608982e+01    0.2063431   0.08709688  40.68  0.001143141    2.070    0.517
        32 -12.9274     61.6995    245.8722   1.4305345484e+02   1.8465486082e+01     1.025228    0.5054257  44.50  0.004972135    1.661    0.398
        33 -13.3193     47.9535    228.4689   1.4421235417e+02   2.3199019074e+01    0.6514114     0.447845  29.15  0.001699554    2.108    0.526
        34 -14.9606     56.9865    216.9406   1.4175654361e+02   2.4192224724e+01     2.661523     2.027276  58.59   0.01913109    1.155    0.134
        35 -12.3117    129.4757    234.4864   1.3007158669e+02   1.0447673489e+01     0.548849    0.4065982  89.65  0.003552776    1.621    0.383
        36 -10.8897    136.1747    227.8178   1.2803580008e+02   1.0418909062e+01    0.3126574    0.2071151 -49.65   0.00188549    1.890    0.471
        37 -11.1465    132.5105    224.3247   1.2829360542e+02   1.1597529868e+01    0.3092373    0.1920246  50.11  0.001540736    1.314    0.239
        38 -10.9710    135.3584    241.3456   1.2978571794e+02   8.4390349763e+00    0.2443727    0.1732443  45.81  0.001055068    1.112    0.101
        39 -12.2957    135.0069    236.3673   1.2927723356e+02   9.2582168376e+00    0.5003015     0.326767 -74.02  0.002996587    2.065    0.516
        40 -10.9085    173.3501    240.1515   1.2281469342e+02   2.4112361788e+00    0.2498981    0.2023672 -76.55 0.0009738346    1.798    0.444
        41 -11.4610     96.4695    239.1903   1.3652801406e+02   1.4784231357e+01    0.3781325    0.2617035  82.47  0.001988386    1.467    0.318
        42 -13.5649     45.8819    246.1580   1.4567146318e+02   2.0381956578e+01    0.6080995    0.5551121  88.73  0.005198103    1.562    0.360
        43 -10.6814     73.0388    237.7152   1.4052514507e+02   1.8346241142e+01    0.4349816    0.1903574  71.49  0.002047609    2.841    0.648
        44  -9.7137    184.0209    249.8287   1.2221430977e+02  -5.6839406428e-01    0.1453522    0.1260129  76.20  0.001047633    1.592    0.372
        45  -9.6823    150.9232    239.3168   1.2673951655e+02   6.2172718627e+00    0.1739263    0.1219428  43.86 0.0005939387    1.118    0.105
        46 -10.7292     92.9392    226.5598   1.3596867941e+02   1.7462136515e+01    0.3757398     0.185317  53.41  0.002065635    1.656    0.396
        47 -10.6493    110.5815    222.3078   1.3221491724e+02   1.5504072128e+01     0.259141    0.2439894 -49.69 0.0008504877    1.445    0.308
        48 -10.0362     93.8082    217.1613   1.3485429084e+02   1.9019810292e+01    0.2994924    0.1787436  86.50  0.001651941    1.953    0.488
        49 -12.2721    110.4832    230.1674   1.3309201710e+02   1.4170404376e+01    0.7317511    0.3392722  41.82  0.003827464    1.820    0.450
        50 -10.9723     98.5567    231.4684   1.3541715811e+02   1.5773051475e+01    0.3204517    0.2981293  86.58 0.0008777204    1.327    0.247
        51 -11.3646     98.8726    223.2016   1.3452360674e+02   1.7164319882e+01    0.3810943    0.2463987  55.52 0.0002529149    1.244    0.196
        52 -11.5912    105.1317    219.5146   1.3294180121e+02   1.6854691803e+01    0.3450961    0.2098775 -66.41 0.0004853511    1.849    0.459
        53 -11.2090    121.6284    232.6790   1.3130936216e+02   1.1996805398e+01    0.2943067    0.2507885  29.73 0.0005608206    1.425    0.298
        54 -10.6324    101.4984    241.6667   1.3586710443e+02   1.3634861408e+01    0.5997581     0.164377 -65.10  0.002384703    5.035    0.801
        55 -10.8489    156.6676    231.5509   1.2470322457e+02   6.4118830744e+00     0.222915    0.1999809  36.61 0.0004429678    1.156    0.135
        56  -9.4741     92.4980    231.6952   1.3654250955e+02   1.6633222518e+01    0.2147702    0.1096797 -65.37  0.001219902    2.208    0.547
        57 -12.5339    142.1649    229.3888   1.2711268157e+02   9.1726946161e+00     1.109705    0.4715115 -49.89  0.005423824    2.915    0.657
        58 -10.4124    141.5714    212.8624   1.2504656355e+02   1.1982298778e+01    0.3929519    0.2935934  75.82  0.002312097    1.552    0.355
        59 -10.4862    137.5664    214.7793   1.2608957705e+02   1.2347222944e+01    0.3207631    0.2197038 -81.64   0.00150592    1.970    0.492
        60 -11.4702    141.9959    221.9616   1.2619110792e+02   1.0391939614e+01    0.1906087    0.1515827  43.94 0.0003364769    1.091    0.084
        61 -11.5790    142.3146    218.7005   1.2569772253e+02   1.0873630122e+01    0.2802646     0.191177  52.48 0.0002971519    1.256    0.204
        62 -10.4211     84.3647    230.3003   1.3788917351e+02   1.8053446538e+01    0.2460967    0.1551166  63.18 0.0008406295    1.310    0.237
        63 -10.0017     72.9351    230.4245   1.3995630975e+02   1.9627338258e+01    0.4511711    0.2038134  50.85  0.002541829    1.716    0.417
        64 -10.3568     79.2734    228.9836   1.3869415630e+02   1.9005409428e+01    0.1816109    0.1191804  69.77  0.001096346    1.306    0.234
        65 -10.8614    181.9413    229.3738   1.1976876156e+02   2.4547128179e+00    0.4191471    0.1357405  36.61  0.001652124    2.980    0.664
        66 -10.6020    190.9549    228.2452   1.1796881358e+02   1.0872796883e+00    0.1805045    0.1749004  36.81 0.0003052089    1.263    0.208
        67 -11.3197    164.9803    226.8623   1.2253049562e+02   5.7022135453e+00    0.3277005    0.2218386 -67.39  0.001527791    2.196    0.545
        68  -9.6986    164.2542    221.0200   1.2184064238e+02   6.7102671898e+00    0.2463106    0.1882384 -13.18   0.00146449    1.833    0.455
        69  -9.0914    175.0442    228.0492   1.2083911566e+02   3.8117615197e+00    0.1971984     0.140915  66.59  0.001143972    1.826    0.452
        70 -10.6227    117.3793    224.4422   1.3116999238e+02   1.4051520650e+01    0.2321441    0.1911294  50.15 0.0005751546    1.119    0.107
        71  -8.9466    220.1482    223.4237   1.1202882669e+02  -3.1402424704e+00    0.1530621   0.09984112  45.88 0.0002504219    1.525    0.344
        72  -9.2650    155.7591    223.5607   1.2379882520e+02   7.7848979741e+00    0.1722152   0.09908435  50.62 0.0002731181    1.520    0.342
        73 -10.4927    150.0410    222.3701   1.2471718662e+02   8.9533070919e+00     0.191652     0.184795 -65.68 0.0003018055    1.264    0.209
        74  -9.7577    149.5573    218.5426   1.2428625825e+02   9.6521530635e+00    0.2089887    0.1666412  60.79 9.604004e-05    1.218    0.179
        75 -10.1765    246.0244    218.8037   1.0685322579e+02  -6.6919519734e+00    0.2063756     0.109719  19.54  0.001090314    1.990    0.498
        76 -10.1467     89.3878    218.8221   1.3586666262e+02   1.9375905424e+01    0.2165787    0.1669631  71.00 0.0005434744    1.095    0.087
        77 -10.4446    176.7577    218.1579   1.1906553130e+02   4.9604773292e+00    0.3216097    0.2341143 -75.46     0.001784    2.226    0.551
        78 -10.2399    233.6697    217.2727   1.0867479898e+02  -4.5755503195e+00    0.2104206    0.1453184 -65.61 0.0007740295    4.067    0.754
        79  -9.3340    134.0563    217.8809   1.2718019216e+02   1.2417833198e+01    0.2009095    0.1444081  60.27 0.0005909209    1.289    0.224
        80 -10.0530    183.0836    214.1835   1.1726398102e+02   4.4382301547e+00    0.2326417    0.1549122  53.65 0.0008154092    1.545    0.353
        81 -10.6848    101.9672    212.2220   1.3273535637e+02   1.8675214514e+01    0.3963203    0.2274563  56.49  0.001724405    1.519    0.342
        82 -10.6444     88.3660    213.0282   1.3547039586e+02   2.0599334615e+01    0.2376663    0.1883796  84.49  0.000353924    1.178    0.151
        83 -13.0127     42.3926    237.1271   1.4570835266e+02   2.2336277359e+01    0.6190882    0.2773892  44.17  0.001002211    1.838    0.456
        84 -12.1352    131.9576    211.5638   1.2675612114e+02   1.3865156676e+01    0.3380292      0.28507  -8.42  0.000472538    1.751    0.429
        85  -9.6053    152.1605    211.9153   1.2284503631e+02   1.0285598570e+01    0.1947197    0.1565572  62.51 0.0005435609    1.246    0.198
        86 -15.2545     11.8146    207.2653   1.4925160056e+02   3.1086508774e+01     2.827388     1.340547 -81.32   0.01796094    1.763    0.433
        87  -9.1424    197.7667    208.2036   1.1354770315e+02   2.7099320038e+00    0.1670944    0.1297205  18.61 0.0002628829    1.261    0.207
        88 -10.7068    174.7250    206.0978   1.1756948227e+02   7.1795098059e+00     0.323798    0.2281422 -20.39  0.001121426    1.912    0.477
        89 -11.7478     93.1533    205.1539   1.3367539601e+02   2.1373827480e+01     0.634658    0.2818476  49.43   0.00180582    1.908    0.476
        90 -11.3863    247.2936    205.5723   1.0433244651e+02  -5.3404581316e+00    0.3735081    0.2260263  23.43  0.002158804    1.518    0.341
        91 -10.0591    107.4993    206.0227   1.3090665924e+02   1.8952450593e+01    0.2938382    0.1670872  87.00  0.001373699    2.558    0.609
        92  -9.3033    108.7012    202.5867   1.3023654084e+02   1.9408055416e+01    0.2143939     0.151668 -81.58 0.0008822407    1.543    0.352
        93  -9.9169    149.4268    204.4938   1.2228842599e+02   1.2030966382e+01    0.2924617    0.2138339 -12.33  0.001268284    2.227    0.551
        94 -10.0175    125.9355    205.9029   1.2719188909e+02   1.5907453635e+01    0.2006099    0.1615064  56.93 0.0004402004    1.050    0.047
        95  -8.6498    114.2716    206.6747   1.2963136850e+02   1.7725127880e+01    0.1285809   0.08631632  71.71 0.0001954634    1.577    0.366
        96  -9.0383    163.3304    205.3089   1.1966346509e+02   9.3788592159e+00     0.265302    0.1670684  22.48  0.001025269    2.096    0.523
        97 -10.1816    166.9426    203.2387   1.1862667060e+02   9.0620041911e+00     0.227278     0.196699 -24.02  0.001060481    1.377    0.274
        98 -10.0278    169.8934    200.4852   1.1760050983e+02   8.9740172584e+00    0.2101177    0.1914847  47.70  0.000367539    1.083    0.077
        99 -10.0301    103.6873    203.3571   1.3134731479e+02   2.0070874437e+01    0.2210484    0.1968759  48.79 0.0007392039    1.228    0.186
       100  -9.5263     75.5542    203.7783   1.3702905797e+02   2.4229398084e+01    0.3844425    0.1780488  34.94  0.001806567    2.428    0.588
       101  -9.6280    224.9302    202.5129   1.0762869099e+02  -1.2547448907e+00    0.1770168    0.1504224  11.91 0.0004224225    1.056    0.053
       102  -9.8707    133.0270    202.9708   1.2535762825e+02   1.5213706658e+01    0.1941956    0.1672959  58.68 0.0003318178    1.031    0.030
       103 -11.1274    134.1023    197.6716   1.2437133801e+02   1.5995147511e+01    0.3052026    0.2358223 -77.46 0.0002691903    1.492    0.330
       104  -9.7740    192.0337    198.0152   1.1288527428e+02   5.2721520659e+00    0.2183869    0.1744551  47.37 -0.003769674    1.213    0.176
       105 -10.7836    197.3493    200.8815   1.1237690641e+02   3.8623114407e+00    0.3854623    0.2066253  50.37  0.001796743    1.898    0.473
       106  -9.2290    122.9589    200.9796   1.2712329765e+02   1.7325577544e+01    0.1851516    0.1593778   7.76 0.0006104116    1.632    0.387
       107  -8.7068    158.5523    199.5021   1.1969300983e+02   1.1232155826e+01    0.1338371    0.1158888  46.08 6.840146e-05    1.006    0.006
       108 -10.0440    100.6454    198.1057   1.3131968027e+02   2.1573497871e+01    0.2123878    0.2042856  32.79 0.0003941802    1.360    0.265
       109 -10.2893     83.7467    193.2596   1.3422956441e+02   2.5142574182e+01    0.4129929    0.2691042  36.90  0.001785573    1.656    0.396
       110  -8.8350    141.9864    198.0242   1.2281102925e+02   1.4517568004e+01    0.1550313    0.1375076  56.01 0.0003227032    1.037    0.035
       111  -9.6568     86.1703    198.8981   1.3437593337e+02   2.3651358320e+01     0.334185    0.1627098 -68.24  0.001300154    2.155    0.536
       112 -11.9358     76.5033    187.8878   1.3512645223e+02   2.7299973144e+01    0.2844074    0.2538042 -53.10   0.00082061    1.470    0.320
       113 -11.9157     71.8916    194.8261   1.3684325393e+02   2.6528304415e+01    0.3756865    0.2428413 -48.82  0.001894236    2.113    0.527
       114 -10.6803     70.8000    190.1944   1.3657571130e+02   2.7626640997e+01    0.2045683    0.1741116  77.11 0.0002355271    1.092    0.084
       115  -9.0932    107.5321    196.0111   1.2962924775e+02   2.0869359357e+01    0.1806948    0.1241387 -67.87 0.0008945024    1.555    0.357
       116  -9.3608    113.5736    196.1096   1.2838892819e+02   1.9846334554e+01    0.3079259    0.1105253  51.32  0.001198815    2.707    0.631
       117 -10.3931     38.6545    193.0925   1.4334910235e+02   3.1073173036e+01    0.3238466    0.1805783 -73.89  0.001806094    1.623    0.384
       118  -9.9035    177.4879    194.2849   1.1506003649e+02   8.5826284314e+00    0.3182409    0.1970071  22.51  0.001441149    2.066    0.516
       119 -10.5101    159.4194    194.1513   1.1865059147e+02   1.2000595187e+01     0.363011    0.2104238  52.30  0.000981195    1.651    0.394
       120 -10.2625    172.9366    192.5807   1.1566824644e+02   9.7264246465e+00    0.2925011     0.214936 -26.23 0.0009593494    1.675    0.403
       121  -9.4466     47.2527    192.9603   1.4163863115e+02   3.0098698868e+01    0.1611629    0.1337691 -79.35 0.0005046398    1.286    0.222
       122 -10.5849    191.4703    191.4553   1.1183066619e+02   6.4058230401e+00    0.2617221    0.2272933  27.94 0.0005966824    1.035    0.034
       123  -9.6813    112.9936    192.0498   1.2795306847e+02   2.0737384953e+01    0.1968789      0.16971  61.98  0.001222443    1.029    0.028
       124  -9.1865    101.9049    192.3123   1.3031944536e+02   2.2518275782e+01    0.1806983    0.1457569  55.07 0.0005168263    1.103    0.093
       125  -9.6213    135.3456    190.4117   1.2301408175e+02   1.7132121721e+01    0.2128373     0.165781 -66.17 0.0003810518    1.432    0.302
       126  -8.9286    197.9368    190.0113   1.1032677420e+02   5.4161377264e+00    0.1574192    0.1390135  26.60            0    1.015    0.014
       127 -11.5535    249.5796    187.6251   1.0062893761e+02  -3.4717757321e+00    0.3674173    0.2481098  -9.20  0.002139738    1.467    0.318
       128 -10.3552     44.2759    188.5293   1.4185274811e+02   3.1360421463e+01    0.3510801    0.2240444  19.19  0.001934554    2.700    0.630
       129 -10.1123    175.7731    186.9788   1.1411656247e+02   1.0137763742e+01     0.222244     0.179764  42.70 0.0003696599    1.101    0.091
       130  -9.2747     67.4637    186.8117   1.3690805616e+02   2.8785485874e+01    0.1761934    0.1361944  45.60 0.0003528513    1.339    0.253
       131  -8.7189    123.7419    185.9856   1.2478931579e+02   2.0072931480e+01     0.151324    0.1159759 -61.57 0.0002256747    1.412    0.292
       132 -10.3871    120.7711    194.5595   1.2667749017e+02   1.8920197244e+01    0.4210027    0.1736912  50.50  0.001749731    2.243    0.554
       133 -10.7447    141.1197    183.8526   1.2074369846e+02   1.7319548925e+01    0.4687233    0.2411956  59.34  0.001441472    2.361    0.576
       134 -10.0844     87.0422    183.6283   1.3236501777e+02   2.6629885407e+01    0.4262212    0.2014107  41.35  0.002029477    1.989    0.497
       135  -9.8227    217.3055    183.2709   1.0543253742e+02   2.8219432185e+00    0.2110978    0.1684687  38.25 0.0003194897    1.182    0.154
       136  -9.1409    158.1550    241.8639   1.2575400300e+02   4.6675713693e+00    0.1560664    0.1227661  27.12 0.0004073169    1.329    0.247
       137 -11.7905    104.3523    180.9027   1.2823285029e+02   2.4440270022e+01    0.2355514    0.2034985  67.80 0.0002467356    1.011    0.011
       138  -9.2912     65.9652    182.0238   1.3670370579e+02   2.9993732656e+01    0.1591069    0.1474656 -45.90  0.000370991    1.504    0.335
       139  -9.7568    144.4823    180.9762   1.1954505776e+02   1.7238103448e+01    0.2843108     0.179553  58.01  0.001374373    1.633    0.388
       140 -10.8419    135.1501    179.7328   1.2133906275e+02   1.9233549278e+01    0.3820038    0.2358914 -57.78   0.00188147    1.794    0.442
       141  -9.7199    115.5203    180.6851   1.2575917065e+02   2.2583457768e+01    0.2774926    0.1709782  82.81  0.000709239    2.291    0.564
       142  -9.7795    174.9395    179.9498   1.1300400043e+02   1.1519539935e+01    0.2999811    0.1676102  39.43   0.00125596    1.661    0.398
       143 -10.2805    128.9843    179.4829   1.2263464817e+02   2.0420817908e+01    0.2352237    0.2015485 -63.56 0.0003266394    1.254    0.202
       144  -9.8182     48.1448    179.9256   1.4026979328e+02   3.2703398011e+01    0.1786873     0.139409  74.60  0.000507906    1.040    0.038
       145 -10.8099    181.9484    177.3979   1.1110510506e+02   1.0582676014e+01    0.3569854    0.2770092  47.41  0.001720437    1.210    0.173
       146 -11.6218     96.3360    158.8685   1.2670527190e+02   3.0500869920e+01    0.6607378    0.2908691 -58.37  0.002804847    2.245    0.554
       147 -11.1221     80.5868    163.4735   1.3110919275e+02   3.1946720593e+01    0.2661003    0.2239087  72.33 0.0001440605    1.054    0.051
       148 -12.7921     90.6428    167.1888   1.2931751435e+02   2.9586707904e+01    0.6955552    0.5393147 -67.11  0.003027413    1.277    0.217
       149  -9.9031    109.0875    176.1832   1.2649146308e+02   2.4623911089e+01    0.2371648    0.1859458  88.55 0.0007266814    1.299    0.230
       150  -9.1951     95.4467    175.8403   1.2947715673e+02   2.6957861863e+01    0.2017591     0.179835  33.13 0.0006549717    1.361    0.265
       151 -10.7161     77.1090    175.5391   1.3351296599e+02   2.9821203459e+01    0.2220936    0.1809735  86.60 0.0003997294    1.080    0.074
       152 -12.2400     71.7849    174.4530   1.3455751617e+02   3.0813291348e+01    0.3150986    0.2662941 -57.55  0.000661624    1.401    0.286
       153  -9.2999     67.5188    174.5874   1.3551695367e+02   3.1373376137e+01    0.1986834    0.1132381 -72.04 9.026184e-05    1.657    0.397
       154 -12.7925     18.1563    170.4609   1.4574107336e+02   3.7893222723e+01    0.8745945    0.2971586  87.80  0.003552376    3.566    0.720
       155 -11.1389     12.4756    161.4830   1.4626452802e+02   4.0312178074e+01    0.2266486    0.1568473  77.98  0.001265241    1.150    0.131
       156 -12.2397    248.1307    172.0609   9.7816210208e+01  -1.1496591706e+00    0.5493134    0.3314352  32.11  0.002927486    1.605    0.377
       157 -10.2571    154.5901    172.8999   1.1594991052e+02   1.6832223417e+01    0.3078869    0.2366813  19.53 0.0009544689    1.600    0.375
       158 -10.0525     48.4105    169.7255   1.3919033725e+02   3.4864294886e+01    0.2265216     0.158946 -63.14  0.001397082    1.460    0.315
       159 -11.1125     43.7458    169.4041   1.4018218830e+02   3.5477423497e+01    0.2998338    0.2614789 -37.16  0.000968876    1.676    0.403
       160 -14.6913     27.3579    248.1189   1.4871913786e+02   2.2182648483e+01     1.022592    0.6717183  48.79  0.005050722    1.402    0.287
       161  -9.0675    133.0005    171.2364   1.2036326599e+02   2.1337101031e+01    0.1847826    0.1099017  44.57 0.0004079624    1.552    0.356
       162 -10.6458     85.0096    165.6492   1.3039321254e+02   3.0799098817e+01    0.3797874    0.1929419 -61.23  0.001223896    1.919    0.479
       163 -11.0348     68.9803    167.9122   1.3437454562e+02   3.2628330161e+01    0.3501981    0.2039304 -61.97 0.0007486471    1.666    0.400
       164 -15.6017      6.5649    246.7763   1.5183617250e+02   2.4573306807e+01     1.677998    0.8534992 -77.56   0.01235034    1.883    0.469
       165 -11.4085    249.3455    150.4169   9.3113878742e+01   1.7008105766e+00    0.5940492    0.3877222 -30.66  0.003177745    1.436    0.304
       166 -11.8971    240.3660    150.6559   9.4651737879e+01   3.3606343990e+00    0.5584549    0.3432933  22.86  0.002284615    1.928    0.481
       167 -12.6074    245.0601    162.3403   9.6339981331e+01   7.6451818366e-01    0.5761254    0.4425347 -11.84  0.003005388    1.228    0.186
       168 -12.2910    246.5797    157.5835   9.5091374345e+01   1.1714816126e+00    0.8554665    0.6265566  75.88  0.004267009    2.464    0.594
       169  -9.8246    107.4309    168.2815   1.2563379885e+02   2.6579864095e+01    0.2403652     0.173736  47.14 0.0004832814    1.305    0.234
       170  -9.6564    175.9531    166.2752   1.1016101418e+02   1.3772043728e+01    0.2021131    0.1744381  44.31 0.0003698177    1.079    0.073
       171 -13.8076     13.2518    238.9566   1.5050380977e+02   2.5219166541e+01    0.7144932    0.2179507  37.73  0.002458426    3.071    0.674
       172  -8.7907    124.2922    165.3336   1.2128871932e+02   2.4188259179e+01    0.1339811    0.1140358  -9.57 0.0001755313    1.635    0.389
       173  -9.4537     58.4039    167.6325   1.3673324891e+02   3.4092361676e+01    0.1896961    0.1206378  71.67 0.0006583629    1.509    0.337
       174 -10.3992     47.1750    163.4368   1.3879544680e+02   3.6388907832e+01     0.218362    0.1482294 -79.92 0.0005403471    1.269    0.212
       175 -10.0095     37.0808    162.7801   1.4099598040e+02   3.7663333756e+01    0.1871148    0.1304521  72.04 0.0006414544    1.249    0.199
       176  -8.6514    153.7408    161.3109   1.1392481881e+02   1.9263041108e+01    0.1401131    0.1118063  85.92 0.0001852448    1.528    0.346
       177 -11.6403     24.1452    149.1397   1.4260722018e+02   4.1970881762e+01     0.410997     0.183642 -61.56  0.001718268    1.994    0.498
       178 -11.5942     34.6509    148.8459   1.4010789306e+02   4.1015755749e+01    0.3935966    0.2786797  40.01  0.001930214    1.564    0.361
       179 -14.0358     32.8477    142.0834   1.3979020899e+02   4.2723833513e+01      1.44183    0.5913312 -80.33  0.006518645    2.397    0.583
       180 -12.4754     23.2416    155.3533   1.4339555584e+02   4.0681462636e+01    0.4230737    0.3874917 -26.25  0.002862961    1.607    0.378
       181 -13.1773     31.6029    155.0851   1.4146984651e+02   3.9931273737e+01    0.6981359    0.4353674 -71.77  0.002202127    1.370    0.270
       182 -11.4944     73.4315    157.3653   1.3192822547e+02   3.4352624461e+01    0.4402039     0.344678  72.22  0.002620788    1.174    0.148
       183  -9.3845    119.8740    159.1414   1.2120673873e+02   2.6322911554e+01    0.2093153    0.1754971  74.33 0.0002638911    1.175    0.149
       184  -9.5525     52.7242    158.4551   1.3695374985e+02   3.6835955002e+01     0.198842    0.1571284  71.13 0.0006206518    1.127    0.113
       185  -9.5265     46.9320    157.7801   1.3822151058e+02   3.7673689218e+01    0.2330389    0.1539412 -54.70  0.001351457    1.663    0.399
       186  -9.6936     89.1010    157.0681   1.2814170548e+02   3.2068258228e+01    0.1902688    0.1813824 -60.39  0.000360839    1.239    0.193
       187 -10.0278    134.4106    155.6604   1.1717880714e+02   2.4291257807e+01    0.2527399    0.2429584  85.36    0.0005862    1.056    0.053
       188  -9.1545    228.4262    155.4902   9.7757264896e+01   4.9383086308e+00    0.1374466    0.1244386   2.23 0.0001383597    1.013    0.013
       189  -9.7590     62.1868    153.1233   1.3403420818e+02   3.6845450274e+01     0.322366    0.1582469 -74.93 0.0009354464    2.032    0.508
       190 -10.3743     13.9894    154.5364   1.4539267123e+02   4.1682537069e+01    0.1465766    0.1082992  40.64  0.000388517    1.548    0.354
       191 -10.4325    112.9977    152.3746   1.2160352238e+02   2.9054859899e+01    0.3594769    0.2886267  61.67  0.000986698    1.198    0.165
       192 -12.0311     85.4102    175.8304   1.3170911639e+02   2.8527467789e+01    0.4301486     0.332678  65.93  0.001168434    1.146    0.128
       193 -10.9628    102.7465    151.2070   1.2386950400e+02   3.1127601986e+01     0.323311     0.296621  83.21  0.001243303    1.025    0.025
       194  -9.8011    105.4497    146.2103   1.2230129880e+02   3.1776232157e+01    0.3268109    0.2194005 -39.26  0.001029797    1.851    0.460
       195 -13.3785      3.2291    140.8691   1.4672905750e+02   4.5503342984e+01    0.9094059     0.461015 -77.47  0.005456916    1.512    0.339
       196  -8.8881    119.6042    151.4852   1.1985586972e+02   2.8031794081e+01    0.1436509     0.131405  82.00 7.629504e-05    1.035    0.034
       197 -11.6830     56.2321    150.1452   1.3507654270e+02   3.8280918509e+01    0.5893078    0.3684778 -55.01  0.002618938    1.650    0.394
       198  -9.8724     53.0253    146.4745   1.3537510678e+02   3.9510589857e+01    0.2022892    0.1623518 -60.08  0.000364082    1.296    0.228
       199 -10.3814     46.4915    150.8898   1.3751896303e+02   3.9273448976e+01    0.2513501    0.1792786  36.17  0.001230205    1.603    0.376
       200  -9.2731     91.1154    150.5242   1.2659224007e+02   3.3219496161e+01    0.1920747    0.1307014  44.41 0.0003484809    1.463    0.317
       201 -12.3600     66.3252    128.3198   1.2918682559e+02   4.2020338416e+01    0.7615734      0.48843  80.34  0.003759147    1.876    0.467
       202 -12.2598     74.5354    139.1145   1.2885266445e+02   3.8365225031e+01    0.7895849    0.5067748  84.95  0.002566211    1.831    0.454
       203 -10.6472     61.1437    137.2355   1.3200694676e+02   4.0627414747e+01    0.2610806    0.2255272  87.01 0.0004447944    1.041    0.040
       204 -13.3967     67.3208    143.9443   1.3145584861e+02   3.8259722908e+01     1.043881    0.6188559  81.49  0.004961657    2.054    0.513
       205 -10.6538     65.0570    134.0156   1.3047841746e+02   4.0862766489e+01     0.269573    0.2229768  84.53  0.000370621    1.127    0.113
       206 -11.4547    133.4969    142.9253   1.1482282438e+02   2.7186908748e+01    0.9410385    0.3228836 -54.49  0.003009487    3.397    0.706
       207  -9.0687    142.4897    147.4873   1.1366255708e+02   2.4386899347e+01    0.1481467    0.1402315  63.67 0.0008104703    1.003    0.002
       208 -10.3013    236.2857    145.9805   9.4324319478e+01   4.8668487608e+00     0.297233    0.1642697  32.25  0.001331025    2.029    0.507
       209 -11.1139     47.8515    143.4376   1.3625532752e+02   4.0813799390e+01    0.3700044    0.1964333  38.06  0.001934794    1.997    0.499
       210 -12.2545    248.3432    101.4924   8.2168586375e+01   9.3007989709e+00     0.930648    0.4650353 -29.19  0.004037366    1.927    0.481
       211 -10.3398    250.3262    125.0334   8.7344692764e+01   5.2963380177e+00    0.4696011    0.1766362 -34.66  0.001844098    2.404    0.584
       212 -11.2283    244.9630    121.4461   8.7356726639e+01   6.9261279105e+00    0.5385567    0.4708595  75.06  0.003101665    1.416    0.294
       213 -10.2457    249.6077    117.7554   8.5787771290e+01   6.5479597111e+00    0.2897634    0.2219456 -33.50 0.0007249748    1.198    0.165
       214 -11.5185    248.1391    113.0447   8.4917107457e+01   7.5699198623e+00    0.5264212    0.4347589  16.85  0.002965819    1.322    0.244
       215 -11.7400    248.5738    141.2026   9.1237896931e+01   3.2048096479e+00    0.8949102    0.2984956  40.36   0.00321814    3.383    0.704
       216 -12.4462    248.3650    134.4446   8.9773480638e+01   4.2586719051e+00     0.872233    0.7808105 -39.38  0.005000603    1.201    0.168
       217  -9.3761     82.6818    143.1498   1.2745127036e+02   3.6224840935e+01    0.2031518    0.1115349 -53.75 0.0009432044    1.795    0.443
       218 -11.8390     27.0506    140.9986   1.4108503454e+02   4.3525192344e+01    0.4137915    0.2126194 -87.08  0.001688474    1.813    0.448
       219 -10.5431    164.1872    139.5582   1.0700101600e+02   2.1401269986e+01    0.2531353    0.2458489 -50.83 0.0003095945    1.066    0.062
       220  -9.9411     53.5311    140.0453   1.3437032572e+02   4.0925827510e+01    0.2059663    0.1552092  78.08  0.000435549    1.256    0.204
       221 -11.1615     47.6377    138.6653   1.3567568722e+02   4.1933960556e+01     0.481672    0.2359755  21.60  0.002146301    3.176    0.685
       222 -10.2734    119.9111    137.6179   1.1701826984e+02   3.1029631771e+01    0.4185652    0.2927838 -16.24  0.001759861    2.491    0.599
       223 -12.7577      2.2062    126.4555   1.4576142998e+02   4.8743147885e+01     1.168484    0.2082726 -77.22  0.003829385    4.953    0.798
       224 -11.2115    112.9123    136.2938   1.1849510250e+02   3.2652603002e+01    0.4319479    0.3135722  41.89  0.001427693    1.405    0.288
       225  -8.7762     82.3416    136.2464   1.2633888105e+02   3.7868880378e+01    0.1260639    0.1091848 -16.97 0.0003897399    1.567    0.362
       226  -9.9187    133.9912    135.2775   1.1305608243e+02   2.8738184097e+01    0.2920215    0.1787338  25.20  0.001143319    2.426    0.588
       227 -10.3131    118.0063    129.1842   1.1568624325e+02   3.3278111979e+01    0.2783689    0.1848766 -40.00  0.001180549    1.684    0.406
       228 -12.7224     45.0280    130.7818   1.3525622724e+02   4.4046450870e+01    0.6943335    0.3801241  58.48  0.003411586    2.028    0.507
       229  -9.3200    106.5255    129.5501   1.1872291075e+02   3.5354574019e+01    0.2693834    0.1254358  52.29  0.001026017    2.397    0.583
       230 -12.3617     31.6911    126.7928   1.3822972235e+02   4.6327742731e+01    0.4548785    0.2346596  41.80  0.002307182    2.061    0.515
       231 -12.5529      2.2531    110.6788   1.4421902264e+02   5.2245224477e+01     1.079517    0.1785486 -75.24  0.003428707    5.135    0.805
       232 -10.4118    209.8112    125.8179   9.4411462946e+01   1.3762448806e+01    0.2600433    0.2375125 -16.37 0.0005403283    1.079    0.073
       233  -9.0175    160.3071    126.3179   1.0477213849e+02   2.4936666775e+01    0.1545658    0.1233109   6.27 0.0006407779    1.633    0.388
       234  -9.1104    124.7130    125.6625   1.1318765036e+02   3.2734091826e+01    0.1479738    0.1209836 -12.26 0.0002494951    1.633    0.388
       235  -8.6255    114.6796    123.2516   1.1521460854e+02   3.5251749073e+01    0.1471484    0.1123926  76.29 0.0002091553    1.534    0.348
       236  -9.5630     50.2507    122.8344   1.3265025157e+02   4.5306996037e+01    0.2208688    0.1170113  72.54  0.000939353    2.728    0.633
       237 -10.0295     87.8550    133.0685   1.2431428092e+02   3.7740609320e+01    0.2015193     0.183053 -81.40 0.0003019619    1.019    0.019
       238 -11.2820     15.4587    122.8445   1.4202059598e+02   4.8613047265e+01    0.2183502    0.1194004 -43.11   0.00118892    2.261    0.558
       239  -9.7639    238.7996    121.7475   8.8407989620e+01   8.1524604990e+00    0.2790153    0.1814937  -7.73  0.001266054    1.972    0.493
       240  -8.7233     79.6747    122.2947   1.2443029382e+02   4.1517606352e+01    0.1423718    0.1020469  76.77 0.0003746706    1.623    0.384
       241  -9.5975    143.2668    120.7851   1.0742217807e+02   2.9880682944e+01    0.3647232    0.2296108 -71.43  0.001399124    2.414    0.586
       242 -10.8079     20.6916    120.8692   1.4040773569e+02   4.8648682738e+01    0.1835235    0.1636002 -35.85  0.001081189    1.427    0.299
       243  -9.3589     57.2940    120.3339   1.3028104280e+02   4.5051741827e+01    0.1322071   0.09363998 -40.81 0.0002615624    1.640    0.390
       244  -9.7391     86.1767    126.6231   1.2351506670e+02   3.9501510789e+01    0.3053856    0.2284066  -4.70  0.001074446    2.179    0.541
       245 -11.3269     30.3384    117.6973   1.3737231687e+02   4.8545702305e+01    0.2969061     0.167159  44.75 0.0009546495    1.935    0.483
       246 -11.8180     27.9981    114.7211   1.3760667273e+02   4.9439399528e+01     0.544427    0.1738674  32.02  0.001909222    3.338    0.700
       247 -10.8897    168.1508    113.4262   9.9785431997e+01   2.5718812686e+01    0.3726508    0.3084536 -82.45 0.0009403815    1.450    0.310
       248 -10.3421     72.8115    115.0695   1.2490701996e+02   4.4213756534e+01    0.2103029    0.2006395  35.16   0.00129183    1.205    0.170
       249  -9.3963    134.3076    114.3418   1.0803067069e+02   3.3205331243e+01    0.1550144    0.1242088  -3.48 0.0007043243    1.689    0.408
       250  -8.9994     82.4097    114.4633   1.2205218221e+02   4.2917521173e+01    0.1413306    0.1259791 -77.68 8.748958e-05    1.057    0.054
       251 -11.0312     55.4897    111.0805   1.2912793776e+02   4.7432096290e+01    0.2692922    0.2226574   7.39 0.0007835592    1.591    0.372
       252 -11.0078     69.2233    110.7678   1.2506186239e+02   4.5722081377e+01    0.3849151    0.2086721  60.93  0.001078825    2.587    0.613
       253 -10.0105     31.9918    110.5367   1.3586047732e+02   5.0045379023e+01    0.1635893    0.1248086  30.05 0.0005825592    1.589    0.371
       254 -10.8959     62.3206    107.0837   1.2633561651e+02   4.7506552827e+01    0.2014257    0.1598354 -67.14   0.00116042    1.125    0.111
       255 -10.2785    134.5101    105.0012   1.0555710012e+02   3.5157257348e+01    0.4153192    0.1512955 -44.15  0.001364809    2.737    0.635
       256  -9.1902    112.4790    104.4805   1.1124532814e+02   3.9872483436e+01    0.1493268    0.1429069 -73.38 0.0008099097    1.020    0.020
       257  -8.8235     42.6864    103.6990   1.3156568899e+02   5.0583248836e+01    0.1280804   0.08742718 -40.36 0.0004077388    1.611    0.379
       258 -10.1218     63.0501     99.6876   1.2454899370e+02   4.9121793970e+01    0.2785234    0.1754728 -51.99  0.001046624    1.423    0.297
       259 -12.2686      1.8931     84.9999   1.4121094845e+02   5.7967709048e+01     1.519363    0.1345438 -71.85  0.003494853    9.720    0.897
       260 -10.6464    239.1246    249.3914   1.1286301600e+02  -8.9313812479e+00    0.2127509    0.1197862  46.00   0.00129697    1.897    0.473
       261  -9.5686     44.8678     90.1646   1.2822384918e+02   5.3460179417e+01    0.1756605     0.134579 -40.92 0.0002998759    1.313    0.238
       262  -9.3389    102.0161     88.0431   1.0975393856e+02   4.5480795738e+01    0.2094758    0.1990333 -56.86            0    1.033    0.032
       263  -8.7735     64.4809     76.5827   1.1837389454e+02   5.4111096329e+01    0.1345374    0.1193516 -41.07 0.0002020492    1.041    0.040
       264  -8.6840    199.6673    245.7111   1.1895147494e+02  -2.5518087542e+00    0.1180488   0.07465152  20.97 0.0003569764    1.627    0.385
       265 -12.5153    248.9623    240.1502   1.0985605042e+02  -9.4149664631e+00    0.5174966    0.3448858 -12.77  0.003593738    1.514    0.339
       266 -10.5160    166.0599    241.6650   1.2431488228e+02   3.4014608236e+00    0.3149724    0.1473289  33.05   0.00132786    2.152    0.535
