#   1 NUMBER                 Running object number                                     
#   2 MAG_AUTO               Kron-like elliptical aperture magnitude                    [mag]
#   3 X_IMAGE                Object position along x                                    [pixel]
#   4 Y_IMAGE                Object position along y                                    [pixel]
#   5 X_WORLD                Barycenter position along world x axis                     [deg]
#   6 Y_WORLD                Barycenter position along world y axis                     [deg]
#   7 A_WORLD                Profile RMS along major axis (world units)                 [deg]
#   8 B_WORLD                Profile RMS along minor axis (world units)                 [deg]
#   9 THETA_WORLD            Position angle (CCW/world-x)                               [deg]
#  10 FWHM_WORLD             FWHM assuming a gaussian core                              [deg]
#  11 ELONGATION             A_IMAGE/B_IMAGE                                           
#  12 ELLIPTICITY            1 - B_IMAGE/A_IMAGE                                       
         1 -12.4543    204.6019     28.1611   5.1316947711e+01   3.0123843345e+01    0.7121479    0.5511289 -54.67  0.003795283    1.323    0.244
         2 -12.8773      4.9293      6.5804   1.0718395185e+02   7.5755935890e+01    0.9900482    0.4869274 -46.12    0.0054266    1.570    0.363
         3 -12.9822    219.6855     10.0944   4.4570005490e+01   2.8282249809e+01    0.7299588    0.6173117 -44.02  0.003072457    1.078    0.073
         4 -13.2571    211.0953    205.6962   9.1826983210e+01   5.5656590230e+00     2.476643    0.6740914 -28.98  0.009729411    5.038    0.801
         5 -13.3549    211.2529    246.3001   9.7416664242e+01   1.5334943415e+00     1.178332    0.6187046  35.11  0.008258045    1.435    0.303
         6 -14.3800    131.2642    233.0713   1.0920292107e+02   1.3421860820e+01      1.28211     1.203173  67.23  0.008777382    1.323    0.244
         7  -9.7855    153.4571    250.5411   1.0717136788e+02   8.4442395995e+00    0.2196091   0.07363888  37.50  0.001196563    2.129    0.530
         8 -12.5953    148.2864    236.1449   1.0655038099e+02   1.0783278185e+01    0.5789058    0.4980161 -76.69  0.004715621    1.722    0.419
         9 -14.6599    108.6080    238.3450   1.1368257103e+02   1.5630926457e+01     2.329422     1.592699  58.55   0.01750094    1.438    0.305
        10 -13.4102     36.7530    170.0217   1.2248289461e+02   3.5629214312e+01     1.533477     1.290237 -74.72   0.01102458    1.310    0.237
        11 -14.4320     62.7686    167.3671   1.1633384059e+02   3.3295449847e+01     1.331453    0.9692429  20.59  0.003511027    1.717    0.418
        12 -13.3095     51.7929    205.6621   1.2174253716e+02   2.7407437805e+01     1.029536    0.5500082  37.49  0.006611815    1.582    0.368
        13 -13.2167      3.5322    247.1226   1.3187354631e+02   2.5413683303e+01    0.4296843    0.1651212  48.08  0.003149992    1.596    0.373
        14 -15.0870     86.7446    223.2620   1.1637597891e+02   2.0497826145e+01     1.681658    0.8718352 -64.96   0.01043652    2.352    0.575
        15 -15.8836     16.1810    240.7375   1.2968958971e+02   2.5264113122e+01     1.841566    0.5516584  54.76   0.01142755    2.205    0.546
        16 -16.6738     63.0476    241.1525   1.2181817577e+02   2.0572652613e+01     2.724355     1.273584  46.36   0.01860729    1.501    0.334
        17 -15.2106     39.1847    228.3988   1.2532184075e+02   2.4984172730e+01     1.500509    0.6161416  66.51  0.009011844    2.352    0.575
        18 -12.7028    220.2065    214.9543   9.1743687816e+01   3.3364539222e+00    0.9848644    0.5542868  -0.90  0.006033281    2.020    0.505
        19 -13.4388    232.6340    200.2442   8.7499617308e+01   3.1054360352e+00     1.577925    0.5973788 -19.37  0.007299777    3.468    0.712
        20 -14.3223    225.2160    196.0398   8.7993782995e+01   4.5838590222e+00     2.007724    0.8336011 -25.00   0.01048123    2.611    0.617
        21 -13.5855    164.6513    235.4990   1.0367675326e+02   8.6780576230e+00     1.155796     0.962366  -9.56  0.009460608    1.417    0.294
        22 -13.0622    115.0581    193.0405   1.0786026782e+02   2.1548700122e+01     1.051993    0.7977917  21.89  0.006825532    1.449    0.310
        23 -12.1937    130.2945    200.1635   1.0569883112e+02   1.8208859994e+01     1.112476    0.7206487 -29.41  0.006543952    2.224    0.550
        24 -12.2899    123.1854    196.6666   1.0666793319e+02   1.9787554307e+01    0.8204421    0.5275208 -21.65   0.00440047    2.701    0.630
        25 -11.3449    200.3764    205.1441   9.3538025909e+01   7.1675301322e+00    0.3538368    0.2590378 -23.86  0.002491888    1.510    0.338
        26 -12.3039     82.7572    186.7307   1.1387179390e+02   2.7082268808e+01    0.8241699    0.6591012  71.23  0.005727432    1.192    0.161
        27 -10.3343     11.5292    206.0300   1.2943908934e+02   3.1244174722e+01    0.2681068    0.1284361  29.71  0.001307111    2.087    0.521
        28  -9.2726     16.3481    207.2006   1.2858433287e+02   3.0624094042e+01    0.1670188    0.1000337  83.28  0.001224528    1.484    0.326
        29 -13.6764    103.0520    196.4730   1.1069394953e+02   2.2665855416e+01     1.297528     0.801788  75.93  0.006483633    2.242    0.554
        30  -9.6679     58.1511    196.2449   1.1982518934e+02   2.8355415048e+01    0.2739352    0.1653967   9.90  0.001416973    3.211    0.689
        31 -10.8920    132.6236    182.5673   1.0288685596e+02   2.0651889290e+01    0.4181525    0.3102826 -66.78  0.002566265    1.730    0.422
        32  -9.9446     65.3191    184.3302   1.1736090264e+02   2.9700772499e+01    0.1668284    0.1577628  83.08  0.000650685    1.234    0.190
        33 -12.0856     69.7735    178.9242   1.1589551812e+02   3.0180145968e+01     0.513664    0.4561891 -27.85  0.002517058    1.561    0.359
        34 -14.6807     41.9825    190.5975   1.2274150740e+02   3.1135432860e+01     1.917885    0.9754826 -53.68   0.01099812    2.632    0.620
        35 -12.1775    167.5051    173.6904   9.4487439413e+01   1.6427282078e+01    0.6398816    0.4210488 -43.37  0.003673889    1.760    0.432
        36 -10.0047      5.9608    175.8863   1.2948125169e+02   3.7214485734e+01    0.2336362    0.1229373  86.51  0.001508194    1.621    0.383
        37 -11.8662    113.9938    173.3414   1.0552484542e+02   2.5105344441e+01    0.5675989    0.4533342   6.13  0.003458453    1.614    0.380
        38 -14.3142    186.2336    237.6842   1.0033493468e+02   5.5719214088e+00     1.696694     1.073144  19.53   0.01216128    1.391    0.281
        39 -11.1000    101.3693    170.9328   1.0797753852e+02   2.7431281861e+01    0.3980931    0.2464653  34.14  0.002200975    1.542    0.351
        40 -10.9304     97.2400    165.9875   1.0825001406e+02   2.8972728517e+01    0.3222664    0.2452935  12.71  0.001873497    1.734    0.423
        41 -12.8720     80.3885    166.5663   1.1218634243e+02   3.1215057180e+01    0.8836067    0.7594111  15.11  0.001286027    1.451    0.311
        42 -12.8010    239.0858    159.4609   7.9254058886e+01   6.5262267974e+00    0.7262411    0.3227762 -25.11  0.003679703    2.127    0.530
        43 -10.2913      1.6805    163.3561   1.2993524692e+02   4.0007718644e+01    0.3619773    0.1182059 -85.39  0.001801336    2.669    0.625
        44 -11.1202     23.5584    153.4582   1.2440116008e+02   4.0289225472e+01    0.3726976    0.2913682 -37.10  0.002509522    1.827    0.453
        45 -12.1137     11.2063    157.9089   1.2755799374e+02   4.0392555521e+01    0.6970919    0.3138655  73.29   0.00338006    1.975    0.494
        46 -12.9693     15.8389    145.8050   1.2578423581e+02   4.2575504427e+01    0.9121039    0.5944291  82.55  0.004487831    1.279    0.218
        47 -11.8386     85.5190    161.0815   1.1031724532e+02   3.1606087686e+01     0.351763    0.2606249 -41.69  0.001558616    1.702    0.412
        48 -12.3748    108.2713    150.2993   1.0335739547e+02   3.0362502325e+01    0.5839515    0.5065404 -66.30   0.00360799    1.224    0.183
        49 -11.0890     46.5605    151.0116   1.1859471985e+02   3.8551461181e+01    0.3557183    0.3015094  79.12  0.002444497    1.040    0.038
        50  -9.9829     55.2062    151.0621   1.1645831315e+02   3.7570562623e+01    0.2517359    0.1223268  56.50  0.001235366    2.053    0.513
        51 -10.9109     38.6304    147.7700   1.2026623663e+02   4.0080599866e+01    0.4191939    0.1943649  54.93  0.002135311    2.021    0.505
        52 -12.5048     97.8453    145.8392   1.0516061998e+02   3.2901425495e+01    0.5776252    0.2726366  32.80  0.002543012    2.244    0.554
        53 -11.6658     88.4327    144.0808   1.0722573694e+02   3.4686338721e+01    0.3306904    0.2926572 -29.95 0.0006714883    1.389    0.280
        54 -12.0444     94.6656    140.8920   1.0515390271e+02   3.4421094892e+01    0.3983752     0.348258 -13.75  0.002380833    1.453    0.312
        55 -11.5812     67.7352    143.5070   1.1240273421e+02   3.7666842503e+01    0.6655564    0.2936831  54.95  0.002894796    2.509    0.601
        56 -11.8275    103.3994    141.4140   1.0305879161e+02   3.2940834676e+01    0.2851488    0.2368808   0.31  0.001616872    1.565    0.361
        57 -10.9819     57.3685    131.0716   1.1350944230e+02   4.1718826046e+01    0.4293133    0.1877296  69.50  0.001482951    4.161    0.760
        58  -9.5462     97.9863    129.1211   1.0225266653e+02   3.6404796856e+01     0.211725    0.1658757 -16.79  0.001106388    1.759    0.431
        59 -12.0292     73.1210    126.9799   1.0857785903e+02   4.0611457047e+01    0.6256636    0.3895633  69.12  0.003064018    1.911    0.477
        60  -9.6817    107.3920    120.7957   9.8142792972e+01   3.6612000829e+01    0.1850682    0.1297105 -43.10 0.0002550299    1.514    0.339
        61 -11.5826     58.8457    118.7233   1.1132413843e+02   4.4374438369e+01    0.5592975     0.425143  -3.40  0.003058172    1.927    0.481
        62 -10.3953     52.4897     89.4805   1.0817394595e+02   5.2107630839e+01    0.1360427    0.1210483 -72.61 0.0002716848    1.006    0.006
        63 -11.8362      2.0000     80.5898   1.2487355189e+02   5.8532317075e+01    0.5641459   0.05640927 -78.18  0.001343732    7.956    0.874
        64 -10.8155    164.4945     59.0106   6.7192874376e+01   3.6134608031e+01    0.2235352    0.1330773  -0.55 0.0008106221    2.591    0.614
        65 -10.8531    194.9377     34.7739   5.4512288024e+01   3.1773314443e+01    0.2642681    0.2051917 -22.52 0.0008386504    1.219    0.180
        66 -11.8794    245.2651    226.3383   8.9565830460e+01  -9.5388956771e-01    0.2536344    0.1716344  -9.79  0.001991953    1.393    0.282
        67 -11.5984    210.7004     20.5369   4.8395898876e+01   2.9434104879e+01    0.4130383    0.2644694  26.63  0.001089881    1.943    0.485
        68 -12.2660    240.0348    223.2455   8.9895282286e+01  -3.5467926529e-02    0.3079753     0.171195   7.45  0.002053779    1.686    0.407
