#   1 NUMBER                 Running object number                                     
#   2 MAG_AUTO               Kron-like elliptical aperture magnitude                    [mag]
#   3 X_IMAGE                Object position along x                                    [pixel]
#   4 Y_IMAGE                Object position along y                                    [pixel]
#   5 X_WORLD                Barycenter position along world x axis                     [deg]
#   6 Y_WORLD                Barycenter position along world y axis                     [deg]
#   7 A_WORLD                Profile RMS along major axis (world units)                 [deg]
#   8 B_WORLD                Profile RMS along minor axis (world units)                 [deg]
#   9 THETA_WORLD            Position angle (CCW/world-x)                               [deg]
#  10 FWHM_WORLD             FWHM assuming a gaussian core                              [deg]
#  11 ELONGATION             A_IMAGE/B_IMAGE                                           
#  12 ELLIPTICITY            1 - B_IMAGE/A_IMAGE                                       
         1 -11.9187    206.9102     35.2925   3.8970010480e+01   2.9834024672e+01    0.5836025    0.5551358 -72.01  0.001265538    1.210    0.173
         2 -11.3990     33.0000      6.5364   7.0493083698e+01   7.0268786891e+01    0.6619011    0.1437148 -33.30  0.002439964    4.759    0.790
         3 -11.6281    232.0401      5.9280   3.0438844720e+01   2.7895719810e+01     0.719055    0.4809657  59.50  0.004632441    1.761    0.432
         4  -9.6486     41.0000     10.9561   6.8914439884e+01   6.8596323317e+01    0.1813824   0.06211675 -33.02 0.0008055597    2.964    0.663
         5 -11.2713    234.1727     11.6467   3.1417302550e+01   2.6832998481e+01    0.6084231    0.3258593  59.31  0.003475442    2.109    0.526
         6  -9.6391     40.4863      4.4901   6.5994238163e+01   6.9409119108e+01    0.1178695   0.09264794  13.58 0.0002328188    1.006    0.006
         7  -8.9437     59.6865      2.3249   5.7315844674e+01   6.6400773472e+01     0.104067   0.09512109 -77.31 0.0003862316    1.663    0.399
         8  -9.2347     73.5388    238.7278   1.0963875701e+02   1.4734493778e+01    0.2156332    0.1141105 -61.82 0.0005255769    2.055    0.513
         9 -10.4856    125.1560    245.1516   9.9438967226e+01   6.0666941339e+00    0.4154464    0.1275851 -56.06  0.001600986    3.870    0.742
        10 -10.4131    106.7855    249.8186   1.0382895024e+02   7.9257742928e+00    0.3317183    0.1621115  30.88  0.001605585    1.961    0.490
        11 -10.2545     72.0045    244.7528   1.1051782990e+02   1.3745302758e+01    0.4704716    0.2288945  47.49   0.00224654    1.709    0.415
        12 -17.1017      8.3245    244.0118   1.2291587957e+02   2.1283199496e+01     14.76993     4.058563 -78.24   0.01716991    3.359    0.702
        13 -10.3269     72.8351    217.2412   1.0760361200e+02   1.9338559589e+01    0.3725323     0.246398 -72.75  0.001519421    1.558    0.358
        14 -11.2654    133.7646    216.1114   9.3563769973e+01   1.0269630363e+01    0.4936808    0.1905236  31.49  0.001840612    2.708    0.631
        15 -10.5039    119.9752    212.4890   9.6164998083e+01   1.3256207765e+01     0.263764    0.1980394 -84.65  0.001298202    1.666    0.400
        16  -9.6932     75.9799    210.3418   1.0610552051e+02   2.0427610710e+01    0.3595366    0.1957629  80.00  0.001523741    2.597    0.615
        17  -9.3868     40.1235    212.6954   1.1448142332e+02   2.4484072065e+01    0.3789908    0.1602756  57.27  0.001697207    2.369    0.578
        18  -9.8520     41.3449    207.7491   1.1377964073e+02   2.5454450139e+01    0.3541095    0.2051255 -85.17  0.001873396    1.677    0.404
        19  -9.5167    111.2791    203.9572   9.6938133898e+01   1.6494908327e+01    0.1900134    0.1804491  57.00 0.0004280484    1.032    0.031
        20  -9.4729     31.1774    202.3614   1.1560603954e+02   2.7811442164e+01    0.3497881    0.2024881  49.40  0.001670846    1.561    0.360
        21 -10.4243    122.6209    199.6598   9.3583301293e+01   1.5565836951e+01    0.3920248    0.2488698 -79.63  0.001702874    2.323    0.569
        22 -15.6950      5.3120    210.3761   1.2174615083e+02   2.8547758611e+01     6.819123     1.193495 -71.53   0.01437448    4.192    0.761
        23  -9.1927     59.4707    197.1170   1.0848928766e+02   2.5690967416e+01    0.1988374    0.1800185  37.91  0.000379646    1.218    0.179
        24  -9.4967    192.5365    193.7634   7.6923438299e+01   4.7384789797e+00     0.312448    0.1293416 -52.21   0.00113835    3.235    0.691
        25  -8.8790    114.5033    195.4954   9.4867331967e+01   1.7843403837e+01    0.1430225    0.1338409  52.65 -0.0003011981    1.007    0.007
        26 -10.8314     94.3319    237.0770   1.0504689833e+02   1.2156641600e+01    0.3226986    0.2032452  84.64  0.001076821    2.081    0.519
        27  -7.9081    168.0000    231.9609   8.8575546893e+01   1.8424035148e+00    0.1898951    0.0742649 -47.19 0.0005713946    2.850    0.649
        28 -11.8978     57.5644    184.5307   1.0748447867e+02   2.8933583621e+01    0.7868297    0.6479194  89.69  0.003782775    1.123    0.109
        29  -9.1232     49.5202    180.5147   1.0903818715e+02   3.0904899093e+01    0.1880969     0.167952  79.78 0.0006778941    1.026    0.025
        30 -10.0760    139.6001    230.8105   9.4437500575e+01   6.4851647523e+00    0.1741341    0.1298899 -69.88 0.0009579576    1.736    0.424
        31  -8.9654     99.2187    180.7632   9.6307618722e+01   2.3771239629e+01    0.1947596     0.173986 -16.22  0.000696388    1.332    0.249
        32  -9.7910     42.1664    179.8208   1.1081866123e+02   3.1930977620e+01    0.2171838    0.1834808  48.20 0.0006162467    1.203    0.169
        33  -9.0239    185.9699    173.2714   7.4293884950e+01   9.8018976318e+00    0.2079555    0.1898533  23.35 0.0007040077    1.093    0.085
        34  -9.0701     64.6187    205.3378   1.0818698668e+02   2.3113137457e+01    0.4007463    0.1547065 -71.26  0.001591159    2.801    0.643
        35 -10.0991     70.5010    171.0043   1.0230800138e+02   3.0517749195e+01    0.3421465    0.2604971 -40.41  0.001086212    1.522    0.343
        36 -10.8383     74.9797    166.0295   1.0034188029e+02   3.1114514082e+01     0.464987    0.2928141 -36.97  0.002077219    2.028    0.507
        37  -9.4839     33.4259    165.7307   1.1150192808e+02   3.6331969067e+01    0.3743345    0.1992417  50.61    0.0015581    1.921    0.480
        38 -10.4078     83.2320    158.3478   9.6796251859e+01   3.1794686889e+01    0.4578427    0.2618971 -54.58   0.00118666    1.689    0.408
        39  -9.6295     59.7675    218.0558   1.1062007904e+02   2.0900774218e+01    0.2440708     0.196612  81.00 0.0004793875    1.140    0.123
        40 -11.8267     71.6818    152.5567   9.9051274193e+01   3.4968034331e+01    0.4849676    0.3985286 -60.81 0.0008830756    1.161    0.138
        41 -11.6253     70.0394    144.4971   9.8116739741e+01   3.7236394997e+01    0.7402374    0.4791143  66.85  0.002481517    1.956    0.489
        42 -10.0709     88.8614    152.4388   9.4152164963e+01   3.2379543314e+01    0.3656616    0.2798502 -11.07  0.001113473    1.778    0.437
        43 -11.1146     28.4262    149.8199   1.1099606120e+02   4.0782213389e+01    0.4579027     0.214268 -64.20 0.0006638946    1.809    0.447
        44  -9.6134     53.7203    149.6924   1.0375007264e+02   3.8081171587e+01    0.3006778    0.1823535  67.94  0.001197333    2.055    0.513
        45 -10.0110    134.3213    147.2169   8.0766919938e+01   2.5395538433e+01    0.6636102    0.1488586 -52.34  0.001589739    5.223    0.809
        46  -8.7368     39.4247    146.4699   1.0741445709e+02   4.0527893910e+01    0.2505335    0.1034202  40.70   0.00103538    2.478    0.596
        47 -11.0921     31.2560    139.2166   1.0880105369e+02   4.3172530343e+01     0.518815    0.3185243  48.53  0.002652721    1.767    0.434
        48  -9.9889     32.6639    131.5206   1.0726861635e+02   4.4969379508e+01    0.5274869    0.1297368 -71.12  0.001502374    4.673    0.786
        49  -9.8561    105.9810    131.3913   8.4896952505e+01   3.4594955034e+01    0.5639017     0.247247 -49.15  0.002058364    2.219    0.549
        50 -10.4199     91.1063    137.0793   9.0461000417e+01   3.5829007063e+01    0.2881036    0.2625684 -27.99 0.0003399438    1.178    0.151
        51 -11.0579     58.3259    131.1476   9.9227488187e+01   4.2192712183e+01    0.7536236    0.2781404 -67.95   0.00252512    3.145    0.682
        52  -9.4720    135.3479    129.1684   7.6362840081e+01   2.9333355039e+01    0.3432013    0.1994643 -70.90  0.001160463    3.018    0.669
        53 -11.8278     57.4775    210.3355   1.1036813662e+02   2.2909510188e+01    0.9088581    0.5087177  63.72  0.004494969    1.848    0.459
        54  -9.8192    112.4032    129.0232   8.2525648891e+01   3.3952629071e+01    0.2936381    0.2214341  18.55 0.0006565955    1.602    0.376
        55  -9.2129     99.4423    124.6986   8.5255616481e+01   3.7400900703e+01    0.2945483    0.2453159  -4.59 0.0002627154    1.443    0.307
        56 -12.1354     31.3853    118.6926   1.0564968952e+02   4.8286398934e+01    0.5409129    0.4510565  71.41  0.002415241    1.320    0.242
        57  -8.2209    108.4615    118.4045   8.1098388814e+01   3.7210721577e+01    0.1505973    0.1489238 -10.27 5.853105e-05    1.024    0.024
        58  -8.4146    231.0426    113.9702   5.3397869517e+01   1.2487822806e+01    0.1612221    0.1470766 -49.61 0.0006769669    1.048    0.045
        59  -8.0906    134.3322    113.6697   7.2782913466e+01   3.3008250905e+01     0.161049    0.1245563  89.65 0.0007051999    1.721    0.419
        60  -9.6722    114.8512    109.9868   7.7124821883e+01   3.7882557546e+01    0.3864705    0.1073209 -47.64  0.001103457    3.565    0.719
        61  -8.0326    205.5221    110.4238   5.6720244750e+01   1.8188844549e+01    0.1412975    0.1316408 -49.68 0.0008052251    1.018    0.018
        62 -10.4242     43.3486    109.3579   9.9917956753e+01   4.9382063072e+01    0.2997934    0.2514489  48.47  0.001725346    1.342    0.255
        63 -11.0512     32.5328    107.0327   1.0320076202e+02   5.1039659667e+01     0.605023    0.1668398 -62.59  0.002130347    3.028    0.670
        64 -10.5906     32.9118     99.6644   1.0163007668e+02   5.2777153261e+01    0.4158844    0.1648049 -61.93  0.001726375    2.211    0.548
        65  -9.8209     49.5595    108.0323   9.7508226807e+01   4.8999804091e+01    0.2966491    0.1509878  46.86  0.001251211    2.402    0.584
        66  -9.7237     46.2008    211.1140   1.1299259746e+02   2.4126147638e+01    0.2221012    0.1651159  58.90 0.0007137103    1.177    0.150
        67  -8.9010    155.7597     88.1184   6.0839910209e+01   3.3436764028e+01    0.3367433    0.2090646 -74.23  0.001081408    2.709    0.631
        68  -8.4202     74.4935     84.5792   8.2868155842e+01   5.0926370652e+01    0.1410815    0.1344015 -15.36 0.0001278868    1.028    0.027
        69 -11.1985    185.9585     53.0112   4.5976891679e+01   3.2202097991e+01    0.3920651    0.3154064  52.86  0.001139678    1.331    0.249
        70 -11.0969     48.1851    217.7692   1.1315069752e+02   2.2410681215e+01    0.8235661    0.5334304  -8.46    0.0037609    3.367    0.703
        71 -12.0795    197.9490     43.8078   4.2044668512e+01   3.0729846399e+01    0.7956875    0.6979995 -73.60  0.003308383    1.030    0.029
        72  -8.9879    140.6772    249.6844   9.6779733876e+01   2.9494436246e+00    0.1250355   0.09219633   2.79 0.0004291953    1.663    0.399
        73 -10.3614     32.8927     28.7828   8.0691337952e+01   6.7215327889e+01    0.4337508    0.0733272 -45.93  0.001246161    6.659    0.850
        74  -9.8998    119.5440    246.0123   1.0072418586e+02   6.7483452129e+00    0.1729054    0.1275705 -60.19  0.001010655    1.597    0.374
        75 -10.4446    114.2888    245.4673   1.0176392131e+02   7.6275575012e+00    0.2513714    0.1469685 -42.41  0.001299227    2.200    0.545
        76  -9.8930     72.0000    248.5128   1.1085584050e+02   1.3015602842e+01    0.3215747    0.2068028 -87.15  0.001059015    1.721    0.419
        77  -9.9266     83.3903    243.9175   1.0808043242e+02   1.2362095379e+01    0.3359295    0.1250529 -69.84  0.001392995    3.400    0.706
        78  -7.7812     66.2508    241.6578   1.1142572539e+02   1.5115982159e+01     0.126016   0.07821161  66.75  0.000283371    1.575    0.365
