#   1 NUMBER                 Running object number                                     
#   2 MAG_AUTO               Kron-like elliptical aperture magnitude                    [mag]
#   3 X_IMAGE                Object position along x                                    [pixel]
#   4 Y_IMAGE                Object position along y                                    [pixel]
#   5 X_WORLD                Barycenter position along world x axis                     [deg]
#   6 Y_WORLD                Barycenter position along world y axis                     [deg]
#   7 A_WORLD                Profile RMS along major axis (world units)                 [deg]
#   8 B_WORLD                Profile RMS along minor axis (world units)                 [deg]
#   9 THETA_WORLD            Position angle (CCW/world-x)                               [deg]
#  10 FWHM_WORLD             FWHM assuming a gaussian core                              [deg]
#  11 ELONGATION             A_IMAGE/B_IMAGE                                           
#  12 ELLIPTICITY            1 - B_IMAGE/A_IMAGE                                       
         1 -11.5761    110.2485     39.8610   1.3997247862e+01   5.1499416827e+01     1.343014     0.613364 -42.62  0.005546432    2.215    0.549
         2 -12.2119    119.6896     37.4649   1.1218981627e+01   4.9467049744e+01    0.7993706    0.4181865 -38.99  0.002555767    1.921    0.479
         3 -12.3311    149.2748     24.8642   2.7564521301e+00   4.3775447056e+01       1.4394    0.7477425  81.22  0.006916533    1.876    0.467
         4 -12.0876    164.7931     17.9783   3.5924173867e+02   4.0922214692e+01    0.4938498    0.3134972  41.88  0.002598976    2.308    0.567
         5 -12.7905    164.4937     27.1487   1.7544899450e+00   3.9957641375e+01    0.3775196    0.2733482 -66.46 0.0006415531    1.198    0.166
         6 -12.4395    112.9568     25.0062   8.0635130217e+00   5.2766453190e+01     1.188007      0.42391  51.29  0.004390793    2.887    0.654
         7 -10.2444     60.3176     23.5272   2.1722541164e+01   6.6070511078e+01    0.6280529    0.1908067 -34.67  0.002177095    3.601    0.722
         8 -11.5529     20.5593     21.6872   4.3772997479e+01   7.4174447989e+01    0.5427495    0.3746727 -25.60   0.00158595    1.572    0.364
         9 -10.9862    178.4472     20.9662   3.5887376546e+02   3.7556508901e+01     0.383065    0.2378782  43.15  0.001808813    2.437    0.590
        10 -10.8537    134.4146     21.7864   3.6431192588e+00   4.7740919477e+01    0.5270345     0.310161 -42.44   0.00270035    1.635    0.389
        11 -11.6196    127.5415     16.2043   2.7162646436e+00   5.0060582524e+01    0.5323159    0.3784762 -22.89  0.001594433    1.683    0.406
        12 -11.2355    135.3198     14.5201   1.2029466887e+00   4.8300412137e+01    0.5540175    0.2668648  71.87  0.002620787    1.847    0.459
        13 -11.6933     36.1024     17.8976   3.0497070670e+01   7.2110096160e+01    0.6333643    0.4577882 -42.20  0.002194515    1.584    0.369
        14 -12.4605     48.9378     12.8459   2.0600213158e+01   7.0071213837e+01    0.7529204    0.2733494  53.49  0.002989379    2.323    0.570
        15  -9.0921      5.6315      9.9724   5.0366528277e+01   7.8271633136e+01    0.5848714    0.2466159 -49.09  0.002708014    2.395    0.582
        16 -11.5270      8.7209     19.9921   5.3220436346e+01   7.6011564253e+01    0.6400006    0.3267332  -7.87  0.001394237    2.868    0.651
        17 -12.0535     22.8066     10.6061   3.4788440120e+01   7.5679771433e+01     0.572163    0.4689978  15.42  0.002373195    1.134    0.118
        18 -12.2161     15.5255     12.6547   4.2356075770e+01   7.6515724686e+01    0.9630547    0.6796603 -56.24  0.005351001    1.858    0.462
        19 -10.8768     88.7360      7.9740   5.8334193663e+00   6.0790443544e+01    0.3731758    0.2967223 -57.04   0.00131892    1.329    0.248
        20 -11.0213     85.8511     14.3600   9.3171071979e+00   6.0896631699e+01    0.4558844    0.3165707  -2.23  0.002014773    1.985    0.496
        21 -11.9326    241.4200     15.3647   3.5394093691e+02   2.6119472442e+01    0.3568425     0.177569  67.39 0.0006053699    2.444    0.591
        22 -12.0533    228.1765     15.1032   3.5448179742e+02   2.8409358649e+01    0.3463897    0.1778411 -69.26  0.001251857    1.725    0.420
        23 -11.5927    191.7707      9.8919   3.5525554519e+02   3.5906992093e+01    0.5953206     0.287971 -13.91  0.002632669    3.771    0.735
        24 -11.8602    104.6756     12.5774   4.8140321669e+00   5.6248353502e+01    0.4447884    0.3462759 -16.97  0.001480511    1.586    0.370
        25 -10.5935    120.7737     11.7640   2.0896446159e+00   5.2218025387e+01    0.3357294    0.2102992 -81.03 0.0009939558    1.542    0.351
        26 -11.7342    212.2384      9.3829   3.5405460190e+02   3.1910059836e+01    0.4428111    0.2793542 -14.92  0.002006643    2.329    0.571
        27 -11.1656    218.5453      3.4005   3.5251683372e+02   3.1324732607e+01    0.2542732    0.1768348 -88.70 0.0007192951    1.405    0.289
        28 -10.8129    223.6007      2.3602   3.5210617227e+02   3.0504289578e+01    0.2322726    0.1533154 -65.04 0.0005901764    1.165    0.142
        29 -11.3314     63.8494      8.9147   1.2625715915e+01   6.6980733838e+01     0.435292    0.3213622 -46.89 0.0007132215    1.555    0.357
        30 -11.7064    168.4606      9.3657   3.5664467161e+02   4.0985000498e+01    0.5427013    0.2010382  69.26  0.002501494    2.507    0.601
        31  -9.7931    145.0009      9.5689   3.5864931869e+02   4.6434049058e+01     0.207935    0.1819141  17.38 0.0006570871    1.585    0.369
        32 -10.8808    247.3559      6.2708   3.5200663423e+02   2.6063234910e+01    0.2060867    0.1708502  -7.40   0.00164243    1.915    0.478
        33  -9.7684      1.1427      7.3036   5.3709714641e+01   7.9233486387e+01    0.2101772   0.07915232 -53.06 0.0007756711    2.665    0.625
        34 -10.5997    232.7224      6.8620   3.5265224379e+02   2.8452855688e+01    0.2141903   0.08523512 -62.66  0.001223891    2.065    0.516
        35 -11.4964    184.8861      5.9157   3.5470694357e+02   3.7740870461e+01    0.4183306    0.2063956 -49.11  0.001727462    1.600    0.375
        36 -10.4621    176.0652      5.9017   3.5523437171e+02   3.9639524337e+01    0.2108193    0.1495289  79.35 0.0009201812    1.375    0.273
        37 -11.3628    155.9474      6.1143   3.5670028542e+02   4.4168803166e+01    0.4431411    0.2171925  69.95  0.002265569    1.898    0.473
        38  -9.8755    164.6137      4.7198   3.5568029723e+02   4.2304962692e+01    0.3070154    0.1731041  30.10  0.001362631    3.702    0.730
        39  -9.9250    148.5085      5.3768   3.5708869730e+02   4.5993016817e+01    0.2182159    0.1064137  80.00  0.001074842    1.828    0.453
        40 -10.7584    142.3436      3.5614   3.5706933004e+02   4.7639506125e+01    0.4292774    0.2123514 -86.66  0.001838951    1.888    0.470
        41 -10.1686    128.9831      4.9490   3.5878624256e+02   5.0796287110e+01    0.1933361    0.1611942 -82.92  0.001204174    1.011    0.011
        42 -10.4782    137.6025      3.8157   3.5757141042e+02   4.8769746751e+01    0.2626247    0.1884841 -73.95 0.0005845953    1.194    0.163
        43 -11.6564    133.7600      2.5411   3.5752413991e+02   4.9825966995e+01    0.6357647    0.2348555  80.96  0.002659512    2.454    0.593
        44  -9.0619     70.5899      5.1799   8.6679789778e+00   6.5664713904e+01    0.1703215    0.1291197   7.87 0.0005850079    1.664    0.399
        45 -10.7115     41.3273      3.9075   1.8404353156e+01   7.2805209440e+01    0.3929434    0.2095648  34.84  0.001846459    2.013    0.503
        46  -9.5133     30.4862      4.5269   2.4867071651e+01   7.5057554426e+01    0.2206485     0.125568 -35.42 0.0008509533    1.998    0.499
        47 -10.3422     28.8599      1.4423   2.3533473737e+01   7.5753708979e+01    0.2092443    0.1373436  52.77  0.000399129    1.388    0.279
        48 -10.4985    235.8143      4.1449   3.5200918532e+02   2.8188813045e+01    0.1744866   0.09937796 -54.80 0.0007993825    1.232    0.188
        49 -11.5614    206.3112      2.3004   3.5279789275e+02   3.3745228754e+01    0.4430931    0.1945808 -81.21   0.00243047    2.160    0.537
        50 -10.9586    113.4957      2.1489   3.5956266144e+02   5.4943524075e+01    0.4823985    0.2279374  88.95  0.001929485    2.046    0.511
        51 -10.2121    105.5495      2.2181   6.2008323286e-01   5.6968725065e+01    0.3184719    0.1858058 -56.15  0.001382969    1.746    0.427
        52 -10.5230    243.0446      3.5039   3.5163773957e+02   2.7037614723e+01    0.1426471   0.08489633 -83.11  0.001035676    1.609    0.378
        53  -9.2284     75.1307      3.0439   6.4474481612e+00   6.4704964211e+01    0.3973372     0.156556  81.81  0.001407469    3.224    0.690
        54 -10.2045      1.9109      2.1529   4.9028328496e+01   8.0083801894e+01    0.2271904    0.1598348 -28.01 0.0007979399    1.388    0.280
        55  -9.6155     77.9422      7.2333   7.8546143239e+00   6.3618217650e+01    0.2073678    0.1649497 -83.75 0.0007613465    1.277    0.217
        56  -9.5136    152.4161      1.3164   3.5560317109e+02   4.5438043464e+01    0.2044252   0.09976391  82.70 0.0005546008    1.816    0.449
        57  -9.9213    124.2876      1.3793   3.5807398389e+02   5.2280620287e+01     0.222964    0.1057331  74.54 0.0005931357    1.798    0.444
        58  -9.2927     82.1187      1.1433   4.0202354799e+00   6.3078785457e+01    0.1860468   0.07853322  69.60 0.0005156768    1.960    0.490
        59  -9.8926     22.8719    125.9566   7.1101278903e+01   4.7606565901e+01    0.3117552    0.2045082  86.06  0.001250258    1.619    0.382
        60  -9.9360      2.0056    125.4589   7.9568314272e+01   4.9227778537e+01    0.3007036    0.1800802  73.89  0.001369842    1.682    0.406
        61 -10.6760    104.8814    122.3843   4.0404201968e+01   3.6299940848e+01    0.3310183    0.3170254  63.72 0.0009433359    1.065    0.061
        62  -9.8642     49.0888    122.6435   5.9980143977e+01   4.5615912254e+01     0.379508    0.2404748  -2.59  0.001507367    2.139    0.532
        63  -8.8803     67.2601    122.7137   5.3031932668e+01   4.2925461581e+01    0.1548582    0.1190073  67.01 0.0002812867    1.486    0.327
        64 -10.3038     43.6661    117.3497   6.1209042970e+01   4.7784746530e+01    0.5249469    0.2797976 -77.90  0.001996921    2.198    0.545
        65 -10.3417     58.6637    115.1622   5.4712231267e+01   4.6284573187e+01    0.2776607    0.2557085  63.31 0.0003111001    1.103    0.094
        66 -11.1025     17.0942    100.1100   7.0186187667e+01   5.5374830869e+01     0.839987    0.2719691 -80.38  0.002517103    3.740    0.733
        67 -11.6544     15.5244    108.9769   7.2146375618e+01   5.3006909103e+01     0.729562    0.5923973 -14.91  0.002505448    1.330    0.248
        68 -10.8235     35.4088    102.8658   6.2058356197e+01   5.2802022584e+01    0.8158317    0.3220605  11.71   0.00220155    3.678    0.728
        69 -11.1677      7.8363    114.8530   7.6230645580e+01   5.1875488220e+01    0.3191498    0.2700522 -42.69 0.0003318928    1.214    0.176
        70 -11.6430     22.2872    113.9341   6.9789464211e+01   5.1052950507e+01    0.6280323    0.3461814  -0.63  0.002508675    2.226    0.551
        71 -11.9776      2.7095    111.5643   7.8180779509e+01   5.3090163719e+01    0.4813989    0.3547966  71.93  0.001220502    1.362    0.266
        72 -11.7247      4.5953    106.8155   7.6893055631e+01   5.4324292601e+01    0.6364771    0.4394438  77.96  0.003112938    1.482    0.325
        73  -9.7532     79.0997    114.7036   4.6952965985e+01   4.3000806763e+01    0.2955612     0.226776 -46.43 0.0006809785    1.347    0.257
        74 -12.4426     26.6798    110.6170   6.7359089175e+01   5.1578399611e+01     1.293668    0.6226876 -85.94  0.004604684    2.539    0.606
        75  -9.9143     48.8630    111.7371   5.7968532787e+01   4.8639832720e+01    0.3162029    0.2389707  34.93 0.0007321276    1.287    0.223
        76 -12.0603     79.5294    107.9875   4.5157892541e+01   4.4617334036e+01    0.6314928     0.413902  24.44   0.00264889    1.728    0.421
        77  -9.8156    105.8790    107.6661   3.6458830872e+01   3.9523411520e+01    0.2770875    0.2121743 -38.81 0.0008953949    1.380    0.275
        78 -11.3829     49.5509    101.3125   5.5413784607e+01   5.1363484071e+01    0.8549415    0.4695644 -27.75  0.003001554    2.773    0.639
        79  -9.8175     86.2807    103.6036   4.1654637642e+01   4.4412985183e+01     0.342315    0.2424893  41.33  0.001391283    1.377    0.274
        80  -9.7075     57.1864    102.9388   5.2549448781e+01   4.9771872617e+01     0.323527     0.221461 -78.36  0.001214949    1.750    0.429
        81 -10.4121     92.1884    101.6504   3.9142392041e+01   4.3706301194e+01    0.3984525    0.3155909 -52.65  0.001904703    1.287    0.223
        82 -12.2880    210.3954     98.2366   1.3376431442e+01   2.0808506255e+01    0.2524583    0.1959118 -31.67 0.0002670452    1.203    0.169
        83 -11.7363      9.1037     97.0103   7.3645598317e+01   5.6807814115e+01    0.5063176    0.4190932  45.16  0.000356409    1.246    0.197
        84 -10.1314     30.3440     97.4518   6.3363528944e+01   5.4866268093e+01    0.5907037     0.491821 -63.70  0.003028539    1.186    0.157
        85 -11.1510     23.1305     94.3703   6.6290941762e+01   5.6446938255e+01    0.4961636    0.3422671 -15.14  0.001908735    1.653    0.395
        86 -10.5223     18.7814     87.7134   6.7285961408e+01   5.8666059990e+01    0.7533465    0.4130617 -76.04  0.003184527    1.899    0.473
        87 -11.5548     27.9693     85.2510   6.2001802956e+01   5.8442301074e+01    0.6144925    0.5062682  16.08  0.001355691    1.223    0.182
        88 -10.3499     35.8544     92.5410   5.9689792655e+01   5.5566926024e+01    0.5839129    0.3108034  89.11  0.001731971    2.999    0.667
        89  -9.8030     38.8177     90.3736   5.7762449632e+01   5.5772969855e+01    0.2873521    0.2097002  -3.28 0.0006119091    1.605    0.377
        90 -11.5600     79.4867     93.5480   4.1308264000e+01   4.8167363769e+01    0.8474579    0.7628864 -43.70  0.004329322    1.154    0.134
        91 -12.5602     60.9510     83.4068   4.5713901018e+01   5.4118265130e+01    0.3334073    0.3054211  53.54 0.0003640387    1.099    0.090
        92 -10.2641     67.2437     81.6261   4.2521828684e+01   5.3384036765e+01     0.464725     0.354689  -9.14  0.002088428    1.750    0.429
        93 -10.3575     58.0375     78.0049   4.5341797875e+01   5.5947561530e+01    0.3012313    0.2312859 -52.28 0.0004707126    1.340    0.254
        94 -10.3616     81.4848     83.5543   3.7615536428e+01   5.0097326385e+01     0.536062    0.3381535  29.32  0.002213964    1.849    0.459
        95 -11.9169     75.2579     78.5844   3.8373563171e+01   5.2506052841e+01    0.6107595    0.5142412  71.31  0.001417482    1.317    0.241
        96 -10.4476     43.0295     94.4807   5.6746444803e+01   5.4113265361e+01    0.4258704    0.2779404  31.05  0.001869933    1.491    0.330
        97 -10.4693     43.5399     90.4502   5.5533487399e+01   5.5112870705e+01    0.2487683    0.2416768 -66.66  0.000246255    1.048    0.046
        98  -9.3252    125.7871     93.8195   2.7326862160e+01   3.8272765316e+01    0.2008541    0.1707225 -80.20  0.000319887    1.283    0.221
        99 -10.6004     49.6285     90.6662   5.2772406048e+01   5.4163931889e+01     0.472843    0.3837183  86.19  0.002283235    1.437    0.304
       100 -10.0605     52.1552     86.8544   5.0602586981e+01   5.4750132351e+01     0.310245    0.2549301 -81.61 0.0003697693    1.382    0.276
       101 -11.3829     44.9222     84.1058   5.3228711229e+01   5.6567841424e+01    0.5738885     0.466726  69.58  0.001854427    1.421    0.296
       102 -10.0435     37.3120     85.4523   5.7302573686e+01   5.7273815581e+01    0.4191564    0.2151559  11.48  0.001531648    2.507    0.601
       103 -10.6074     98.1357     90.5837   3.4114733151e+01   4.4995463736e+01    0.2664908    0.2588822 -89.23 0.0004104732    1.024    0.023
       104 -10.8259      2.4100     80.5360   7.4981788397e+01   6.1713378726e+01    0.6735511    0.2857486  85.41  0.002199569    2.930    0.659
       105 -10.7862      1.9676     71.2747   7.3902926330e+01   6.4224601338e+01    0.4275834      0.21813 -67.03  0.001903107    1.786    0.440
       106  -9.9752     10.9676     90.0268   7.1737384736e+01   5.8625415309e+01    0.2442813    0.1858157 -59.01 0.0004085223    1.244    0.196
       107 -11.4253      5.6323     88.2932   7.4274635503e+01   5.9427551093e+01    0.7364262    0.3889835   5.31  0.003105836    2.028    0.507
       108 -10.0216     66.7465     88.4275   4.4761495793e+01   5.1838029828e+01    0.3384625    0.2463398  -9.64 0.0008807215    1.933    0.483
       109  -9.9090    118.6042     86.2038   2.6999312573e+01   4.1399849118e+01    0.2766771    0.2418463 -50.42  0.001305243    1.140    0.123
       110 -10.8908    113.8919     83.8173   2.7541712869e+01   4.2941609079e+01    0.5861648    0.3817903 -83.72  0.002275526    2.514    0.602
       111  -9.6886    104.3216     86.9450   3.1162010000e+01   4.4434826988e+01    0.2168163    0.1994094 -44.76 0.0008212478    1.125    0.111
       112 -10.1886     90.4578     85.6011   3.5117404839e+01   4.7746774974e+01    0.3750101    0.2918761 -84.34  0.001723845    1.604    0.377
       113  -9.4565    143.4284     84.2871   2.0757295775e+01   3.6214907127e+01    0.1898843     0.130509 -51.51 0.0005483629    1.415    0.293
       114  -9.4336    162.2869     81.2243   1.6446050348e+01   3.2663224067e+01    0.1768299    0.1410125 -65.72 0.0002796878    1.246    0.197
       115 -10.8372     89.0784     77.2017   3.2951313203e+01   4.9874408471e+01    0.5218611    0.3397979  57.76  0.001777203    1.632    0.387
       116 -10.8172     94.6515     75.3638   3.0536008289e+01   4.9020271152e+01    0.4924968    0.4036254  82.45  0.001853032    1.384    0.277
       117 -11.0566     53.2683     76.3436   4.7000196382e+01   5.7180724069e+01      0.50306    0.4007522 -84.91  0.002416616    1.538    0.350
       118  -9.4066    118.9955     78.2453   2.4559321995e+01   4.2873865362e+01    0.2031387    0.1909701 -82.09 0.0003942561    1.025    0.025
       119  -9.3717     38.0036     77.4918   5.4856465304e+01   5.9248674885e+01    0.2328236    0.1437168  30.09  0.001020087    1.571    0.363
       120  -9.8364     46.7189     75.0643   4.9744329533e+01   5.8570998913e+01    0.3784682    0.2161505 -40.13   0.00127267    1.947    0.486
       121 -10.8576     14.2495     74.3281   6.7181359066e+01   6.2646759509e+01    0.3796036    0.3077366 -80.76  0.001199643    1.296    0.228
       122  -9.7445     13.4475     67.8301   6.6264850424e+01   6.4418497235e+01    0.5039766    0.3024919   5.33  0.002240135    1.755    0.430
       123 -12.0286     67.8741     94.8401   4.6110821586e+01   5.0045186846e+01     0.617589     0.374564  35.39  0.002141019    1.612    0.380
       124 -11.2063     27.4325     73.4321   5.9440936193e+01   6.1617127495e+01    0.5053658    0.3322203 -12.40  0.001277193    1.821    0.451
       125 -10.8466     50.9600     56.4959   4.1192315296e+01   6.2144833183e+01    0.8411993    0.4403901 -41.34   0.00345532    2.089    0.521
       126 -10.7836     35.0743     71.6051   5.4725243006e+01   6.1136820687e+01    0.5210366    0.2451597  39.65  0.001839189    2.122    0.529
       127  -9.8650     41.2067     72.6091   5.1777310477e+01   6.0021440465e+01    0.3658192    0.2403694  16.60 0.0009124583    1.672    0.402
       128 -11.3217     40.4375     68.9108   5.1029147271e+01   6.1044055298e+01    0.6114138    0.3052101  34.45  0.002478794    1.905    0.475
       129 -12.0335     43.1680     60.8930   4.6866505744e+01   6.2518169234e+01    0.6670976    0.4986918  22.84  0.001634592    1.347    0.258
       130 -11.6312     39.4623     56.6252   4.7333425921e+01   6.4087147961e+01    0.3350567    0.2401495  33.34 0.0005675829    1.332    0.249
       131  -9.3228    102.8358     74.0668   2.7630504209e+01   4.7418325787e+01    0.2572097    0.1728619 -72.57  0.001070616    2.028    0.507
       132 -10.2701     80.7127     71.6648   3.4045482718e+01   5.2877398909e+01    0.4002002    0.3070701 -51.07  0.001714092    1.363    0.266
       133  -9.3973     77.9835     67.4824   3.3606423348e+01   5.4348986480e+01    0.2323311    0.1418429  54.63 0.0009736997    1.692    0.409
       134  -9.5030    153.7269     72.1608   1.5534978032e+01   3.6035614706e+01    0.2635783    0.1019934  60.43 0.0009905846    2.762    0.638
       135  -9.7928     86.2734     69.5413   3.1359965596e+01   5.2097386937e+01    0.3153859    0.2457531  -9.91  0.001450609    1.773    0.436
       136 -11.0083    122.6900     68.4424   2.0688926705e+01   4.3826926714e+01    0.4422475    0.2465507  49.51  0.001120439    1.815    0.449
       137 -10.0939    102.0755     66.7171   2.5447357402e+01   4.9019838225e+01    0.3131537    0.2395063 -31.30  0.001515698    1.496    0.331
       138 -10.4240    105.3983     63.7339   2.3520827315e+01   4.8787833098e+01    0.3242424    0.2578715  36.38  0.001546396    1.419    0.295
       139 -11.1675     13.2099     57.3624   6.3848313147e+01   6.7110846317e+01     1.077481    0.6693966 -15.08   0.00505129    1.763    0.433
       140 -12.1912      7.2936     63.3328   6.9149805341e+01   6.6021588880e+01    0.3546056    0.2560737 -31.61 0.0004457276    1.344    0.256
       141 -12.4008      4.3216     61.2681   7.0660614724e+01   6.6729937183e+01    0.4092132    0.2621415 -45.84 0.0002139792    1.440    0.305
       142  -9.2241     51.7293     65.6363   4.4188104469e+01   5.9973890066e+01     0.208486     0.134385  43.22  0.000362748    1.519    0.341
       143 -11.0730     92.7806     62.6524   2.6836938689e+01   5.1968731194e+01    0.4895384    0.2880987  67.78  0.001032677    2.139    0.532
       144  -9.7021    202.1643     63.1233   6.7032257513e+00   2.7392505111e+01    0.1827959     0.154644 -34.75 0.0005673966    1.244    0.196
       145 -10.2220    158.8728     62.7492   1.2151689508e+01   3.6392727793e+01    0.2779218    0.1867017  45.44 0.0007704871    1.801    0.445
       146  -9.9562     58.3985     62.3245   3.9843632700e+01   5.9479961594e+01     0.343271    0.2861075 -86.22  0.001718519    1.481    0.325
       147  -9.6781    150.8685     60.9250   1.2932682439e+01   3.8486568804e+01    0.1931117    0.1877124 -18.36 0.0005337364    1.236    0.191
       148  -9.9768    113.6243     60.6368   2.0363987804e+01   4.7365799598e+01    0.2845924    0.2445451 -76.48 0.0008454786    1.176    0.149
       149  -9.4432     84.1737     61.1846   2.9134956118e+01   5.4237760625e+01    0.2146238    0.1790843  89.32  0.000608811    1.368    0.269
       150 -11.9354     75.2931     55.3695   3.0144531810e+01   5.7364640376e+01    0.7441306    0.4211159 -46.20   0.00318515    1.887    0.470
       151 -11.3891     25.7888     57.2841   5.5681840963e+01   6.5844261327e+01    0.7441631     0.523559  44.26  0.002438864    1.533    0.348
       152 -10.2397    124.9846     56.4915   1.6439535245e+01   4.5310962066e+01     1.073211    0.3839245  55.67  0.003886851    2.635    0.621
       153 -10.5032     51.4241    249.1769   7.3014794366e+01   1.4712241356e+01    0.2522082   0.08081596  20.87   0.00101112    2.737    0.635
       154 -11.8909    116.8857     47.9228   1.5359043489e+01   4.8646571082e+01    0.7116404    0.4776731 -23.52  0.001781398    1.886    0.470
       155  -9.8540    173.3981    246.7133   4.5849642620e+01   2.3192755996e+00    0.2630259    0.1289167  -5.33  0.001145878    2.502    0.600
       156 -10.3170    106.4993     58.1446   2.1333249972e+01   4.9519942942e+01    0.2761154    0.2020122  67.02 0.0003143332    1.353    0.261
       157 -10.1956     88.0000     55.9911   2.5950228200e+01   5.4328063547e+01    0.4767912    0.2009347 -38.69  0.001511489    2.592    0.614
       158 -10.7889     88.5286     51.3739   2.4045498467e+01   5.5026059696e+01    0.5933889    0.2424203 -42.09  0.002193422    2.567    0.610
       159 -11.4886     72.6237     46.5110   2.7593099167e+01   5.9598563695e+01    0.5859978    0.3814079 -67.54  0.002495398    2.243    0.554
       160 -10.2422    157.1440     54.8052   1.0251570218e+01   3.7980522513e+01    0.3814644    0.2450412 -54.06  0.001962418    1.460    0.315
       161 -10.3623    155.0845     48.9053   8.9143203461e+00   3.9305119944e+01    0.3892236    0.2067868 -23.30  0.001456492    2.556    0.609
       162 -10.7211     31.9914     52.6099   5.0201654753e+01   6.6123746745e+01    0.5525585    0.2571634  19.48  0.002057655    2.607    0.616
       163  -9.5218    237.7236     55.6541   1.9777498540e+00   2.2148234160e+01    0.0993783   0.08050125 -16.11 0.0003381484    1.629    0.386
       164  -9.1525     67.4299     55.0232   3.3108738933e+01   5.9154817936e+01    0.2113394     0.148893 -44.06 0.0005741844    1.512    0.339
       165 -10.6232     60.6348     51.8578   3.4755948191e+01   6.1209334793e+01    0.7651812    0.3612908 -59.01  0.002607383    3.353    0.702
       166 -10.1549     61.5144     46.4857   3.2112424162e+01   6.2056999207e+01    0.3445531    0.2610881 -21.39  0.001501234    1.612    0.379
       167  -9.3228    202.1472     52.5924   4.3304512340e+00   2.8819126249e+01    0.1512628    0.1087201  57.67 0.0007744912    1.683    0.406
       168 -10.1801    126.8664     50.4601   1.4131491605e+01   4.5802876287e+01    0.4322949    0.2033682 -30.12  0.001712645    2.515    0.602
       169  -9.4897     54.4081     51.4170   3.7465420718e+01   6.2551464553e+01    0.3826939     0.231068 -12.65  0.001324826    3.487    0.713
       170 -11.1070    242.9161     50.6837   6.4207684706e-01   2.1923608479e+01    0.3055617    0.1716092 -80.65  0.001919596    2.132    0.531
       171 -10.3234    145.5264     42.5656   8.4864016963e+00   4.2432637869e+01    0.2224626    0.1282901 -36.75 2.734703e-05    1.715    0.417
       172  -9.1043    188.9637     49.4814   4.9221312412e+00   3.1843398850e+01     0.164473    0.1175668  78.93 0.0003831312    1.455    0.313
       173  -8.7137    137.3156     49.3345   1.1845320114e+01   4.3436560184e+01    0.1371453    0.1097764  28.89 0.0007047181    1.691    0.408
       174 -10.4616     82.6904     47.1883   2.4299898608e+01   5.7136914500e+01    0.3877154    0.2806952  -7.51  0.001478838    2.057    0.514
       175 -10.6641     20.3605     45.9698   5.5317580425e+01   6.9144088421e+01    0.4539502    0.2497829 -35.66  0.001811538    1.960    0.490
       176 -12.3736     41.5380     44.0410   4.1036913055e+01   6.6447509005e+01     1.190985    0.3884862  37.12   0.00358516    2.911    0.656
       177 -11.1449     26.5674     42.6814   4.9741889825e+01   6.9095088419e+01    0.4284129    0.2960114  45.37 0.0005153604    1.587    0.370
       178 -10.7097     22.4665     37.0771   5.0185148088e+01   7.0851773402e+01    0.4845265    0.1943815  37.93  0.001270847    2.439    0.590
       179  -9.4995    220.4845     48.4879   1.8413303677e+00   2.5957370290e+01    0.1182388   0.08909994 -53.39 0.0005388926    1.020    0.020
       180  -9.6669     52.0204     48.0248   3.7209382247e+01   6.3699413459e+01    0.2313703    0.1758348   3.88 0.0006160616    1.673    0.402
       181  -9.0487      2.2102     48.6282   6.9374924339e+01   7.0036538565e+01    0.1901599    0.1196154  -7.15  0.000734603    1.593    0.372
       182  -9.1940     27.0451     47.4687   5.1361975143e+01   6.7971416906e+01    0.2199649    0.1346217  23.33  0.001024331    1.595    0.373
       183 -10.0272     13.2069     46.3596   6.0577853783e+01   6.9791689620e+01      0.31924    0.1760807 -37.28  0.001458017    1.826    0.452
       184 -10.4562    145.5275     49.2198   1.0446693251e+01   4.1493231261e+01    0.5244759    0.2861362 -17.39  0.002061505    3.132    0.681
       185  -9.5782    199.0690     44.5364   2.7806974310e+00   3.0460844074e+01    0.2807871    0.1080186  86.51  0.001036442    4.436    0.775
       186 -10.2684    156.0137     42.5814   7.0121648698e+00   3.9964901566e+01     0.281096    0.1902461 -36.38  0.001112275    1.478    0.324
       187  -9.7296    138.8274     44.0212   9.9680914593e+00   4.3838437973e+01    0.2686547    0.1631161  41.61  0.001223324    2.176    0.540
       188 -10.3919     55.8525     41.4419   3.2448843970e+01   6.4180344779e+01    0.3612458    0.2217151  53.70  0.001640662    1.661    0.398
       189 -10.4433     18.1504     40.7132   5.4885490938e+01   7.0587401736e+01    0.2995602    0.2056138 -31.68 0.0007128051    1.480    0.324
       190  -9.2498     99.2072     41.4039   1.7195813999e+01   5.4035276431e+01    0.2109262     0.131845  73.76 0.0009401474    1.704    0.413
       191  -9.7518     64.6574     60.5938   3.6423803104e+01   5.8603846808e+01    0.3333026    0.3257311  76.12  0.001854593    1.067    0.062
       192 -10.4061     79.4959     38.0099   2.1566095212e+01   5.9398266040e+01    0.4516119    0.3136546  89.62  0.002063864    1.926    0.481
       193 -10.6212     78.6409     33.7459   1.9998774897e+01   6.0251040964e+01    0.6173583    0.3942352  34.79  0.002828206    1.862    0.463
       194 -10.8210     10.4723     30.5478   5.6754444255e+01   7.3635978094e+01    0.4214085    0.3169742 -24.06  0.001692059    1.275    0.215
       195  -9.5793      4.6611     39.9679   6.5101655923e+01   7.1981097610e+01    0.2240951    0.1225869  58.21 0.0009428305    2.739    0.635
       196 -11.0810      3.9702     35.5094   6.4232496128e+01   7.3067228517e+01    0.4879673    0.3594333 -41.89  0.002211261    1.250    0.200
       197 -10.1689    249.7181     38.9399   3.5798783928e+02   2.2225311470e+01    0.1818387    0.1240445 -66.56 0.0003975111    1.319    0.242
       198  -9.5799     97.6801     49.9469   2.0802532927e+01   5.3058152313e+01    0.1968819    0.1852323 -76.69  0.000373559    1.075    0.070
       199 -10.5758    153.3851     35.8753   5.4534495180e+00   4.1459327307e+01    0.2626123    0.2145019 -57.61 0.0006896648    1.109    0.098
       200 -10.3066     61.2196     35.4742   2.7272906491e+01   6.4055093982e+01    0.4534749    0.3103598 -15.06  0.001774862    2.022    0.505
       201  -9.3255     70.6322     33.6851   2.2724632651e+01   6.2177852110e+01    0.2339115    0.1265881  50.06  0.000775208    1.664    0.399
       202  -9.2639     67.6117     31.8800   2.3007917270e+01   6.3161406278e+01    0.4026165    0.2462777  32.49  0.001786296    1.986    0.496
       203 -10.3993    220.0160     35.2998   3.5910378327e+02   2.7635052526e+01    0.1928234    0.1271214 -47.95  0.000322369    1.157    0.136
       204 -10.0992    216.9792     32.0195   3.5861459251e+02   2.8569550397e+01    0.1749062    0.1313058 -55.67 0.0003451069    1.003    0.003
       205  -8.9203     34.6821    244.6869   7.6754948982e+01   1.7174034584e+01    0.1160207   0.08847409 -15.28 0.0007036421    1.646    0.393
       206 -11.6246    125.8041    240.8576   5.4902961430e+01   8.2280098707e+00     0.327145    0.2060205  36.34  0.001910204    1.560    0.359
       207 -10.4378    175.3697     34.3293   2.5540751022e+00   3.6665573723e+01    0.3478489    0.1869471 -66.80 0.0007718161    1.884    0.469
       208 -11.4372    171.8773     30.4636   1.8995370897e+00   3.7904356163e+01    0.8450594    0.2094534  64.18  0.003172455    3.625    0.724
       209 -10.6713    169.4090     23.0087   1.7398132703e-01   3.9323052711e+01     0.260727    0.2198106  83.11 0.0005637697    1.204    0.169
       210 -10.7800    157.1418     29.1063   3.0806662135e+00   4.1419463412e+01    0.2850054     0.193421 -69.45 0.0004354624    1.357    0.263
       211 -10.7173     72.8809    237.8499   6.6980973779e+01   1.4652815055e+01     0.280163    0.2383662  38.77  0.001741971    1.140    0.123
       212 -11.6877    106.9710     31.5412   1.1654621902e+01   5.3470579526e+01    0.6545418    0.3408305  38.46  0.002601005    2.715    0.632
       213 -11.2014    146.8914    237.8967   4.9989995853e+01   6.3811292523e+00    0.3836295    0.2960699  45.63  0.002412412    1.784    0.440
       214 -12.4938    105.7368     19.9625   7.4979840083e+00   5.5193957103e+01    0.3661828    0.2795783 -75.63 0.0003622025    1.296    0.229
       215 -10.6222    239.8320     32.5179   3.5731969729e+02   2.4534161922e+01    0.2508532    0.1628195  52.85  0.001526298    2.280    0.561
       216 -10.7045    131.5731    240.5105   5.3594707680e+01   7.6461373125e+00    0.2548397    0.1001743  25.09  0.001191431    2.099    0.523
       217 -11.8991     58.2132     29.3842   2.5595626242e+01   6.5695006430e+01    0.4207301    0.3051522  26.80  0.002126386    1.566    0.361
       218 -11.5760     48.8673     30.1177   3.0350730353e+01   6.7599527762e+01    0.7004066    0.3041234  40.70  0.002192239    2.207    0.547
       219  -9.4237     36.2708     30.9637   3.7859506033e+01   6.9900830421e+01    0.1842666    0.1728734  -9.01 0.0005068487    1.101    0.092
       220 -11.7517     26.4659     27.8060   4.2721066428e+01   7.2136716914e+01    0.4693593    0.3573706 -57.98  0.001946657    1.614    0.380
       221  -9.2664     15.4108    233.7788   8.0947006429e+01   2.1077816825e+01    0.1511482    0.1122513 -66.36 0.0006092805    1.631    0.387
       222  -8.8965     22.2834     31.3169   4.7612903364e+01   7.2069623955e+01    0.1391367   0.09859888 -14.65 0.0002417615    1.583    0.368
       223 -12.1980    127.4201     28.4734   6.8363384306e+00   4.8695961353e+01    0.7992642     0.376431  79.51   0.00174253    2.261    0.558
       224 -10.7128    189.1355     27.2561   3.5956670774e+02   3.4572737346e+01    0.3062526    0.2530403  31.30  0.001908568    1.825    0.452
       225 -10.9504    229.8388     27.2772   3.5684508436e+02   2.6809469540e+01    0.2506605    0.2021945  79.87  0.001706542    1.463    0.317
       226 -10.0521    250.3857     26.9493   3.5571544480e+02   2.3447568763e+01    0.1474585    0.1000862 -46.45 0.0005874035    1.091    0.083
       227 -11.2194    183.4635     25.7467   3.5965859709e+02   3.5939451347e+01    0.3409111     0.203314 -52.92  0.001860095    1.388    0.280
       228  -9.5460     97.7230     25.9245   1.1500125574e+01   5.6539164641e+01    0.1920405    0.1761494 -84.61  0.000490319    1.074    0.069
       229  -9.5221     45.5919     24.6563   2.9108935083e+01   6.9155176524e+01    0.2219022    0.1365883 -30.41 0.0006579081    1.868    0.465
       230 -10.2188    201.0166     23.9640   3.5792098481e+02   3.2534573916e+01    0.1641787    0.1410361  38.71  0.001116282    1.719    0.418
       231 -10.8953     67.7675    240.5433   6.8454886181e+01   1.4682880890e+01    0.2641438    0.1855413   0.21  0.001068935    1.547    0.354
       232  -8.8429    189.7274    229.6443   4.0465699469e+01   3.0869788615e+00    0.1189591   0.06857171 -13.04  0.000406606    1.643    0.391
       233  -8.8719     75.6802    224.3005   6.5030322341e+01   1.7024502294e+01    0.1376414   0.08558184  48.01 0.0003229928    1.623    0.384
       234 -10.2131     10.0000    217.9881   8.1716173441e+01   2.4905593310e+01    0.1894809   0.07053341 -82.98 0.0006928152    2.928    0.658
       235  -9.2030     86.2029     23.5639   1.3314025137e+01   5.9753553168e+01    0.1869272    0.1172086  53.13 0.0001995287    1.459    0.315
       236  -8.6758    164.3231    211.3007   4.2623796912e+01   8.6879954720e+00    0.1292316   0.08185346  -8.32 0.0004458488    1.631    0.387
       237  -9.1086     79.7580    205.5058   6.1960494254e+01   2.0515785296e+01     0.266003    0.1211242 -82.44 0.0008832197    4.464    0.776
       238  -9.7027     13.8609     22.8393   5.0053393432e+01   7.4858938505e+01    0.2010188    0.1625559  -3.65 0.0005538985    1.155    0.134
       239  -9.5623     17.6669    206.0180   7.9147107797e+01   2.6991932936e+01    0.2266997   0.07031271  68.80 0.0007046936    4.492    0.777
       240 -11.5280      5.4008    200.8027   8.2304812610e+01   2.9200971024e+01    0.6097314    0.1579135 -65.26  0.002180266    3.911    0.744
       241  -9.9632      1.3777    199.8197   8.3382089264e+01   2.9729100087e+01    0.1805307     0.111814 -70.13 0.0009532874    1.761    0.432
       242 -10.8317    245.8662     20.6716   3.5475148657e+02   2.4838125078e+01    0.2604989    0.1543122  44.65  0.001576409    3.268    0.694
       243 -10.6567     68.6280     20.2813   1.7000556484e+01   6.4522517466e+01    0.3642071     0.330427 -38.19  0.001452433    1.240    0.194
       244  -9.7478    216.3550     19.9963   3.5609982596e+02   3.0028389978e+01    0.1635507      0.11382 -49.10 0.0005189233    1.119    0.106
       245  -9.9862     46.1816     20.0448   2.6190695812e+01   6.9720740571e+01    0.2980776    0.1808545  52.49  0.001246798    1.516    0.340
       246  -8.9604    135.4630    196.4872   4.6601520926e+01   1.5026769378e+01    0.1344861    0.1179123   5.90 0.0001028137    1.023    0.023
       247  -9.7456     74.8489     18.9917   1.4391033184e+01   6.3151392250e+01    0.2140664    0.1708849  36.63 0.0007178841    1.337    0.252
       248  -9.1605    198.8688     17.8040   3.5665791944e+02   3.3637955763e+01    0.1678561    0.1034828 -59.74  0.000401267    1.297    0.229
       249  -8.8764    233.6707    195.6890   2.8057496613e+01   3.3520848643e+00    0.1129421   0.06533821 -12.06 0.0007042015    1.667    0.400
       250  -9.7171     82.3282     18.7058   1.2160683787e+01   6.1311420023e+01    0.2844593    0.1233576  62.74  0.001095622    1.991    0.498
       251 -10.4760     16.3634    190.8591   7.8722866556e+01   3.0735757324e+01    0.2832857    0.2260121  65.79 0.0008030263    1.177    0.151
       252 -12.4801      4.5981    184.0351   8.1868398430e+01   3.3344710076e+01    0.7009476    0.4892747  75.23  0.003834533    1.365    0.268
       253 -10.3320      9.5148    182.0343   8.0300068370e+01   3.3485680887e+01    0.2533571     0.181419  28.95  0.000603229    1.282    0.220
       254  -9.1471     24.1478    181.6334   7.5806102832e+01   3.2371556638e+01    0.1973002    0.1284489   5.18 0.0009414821    1.729    0.422
       255  -9.7643    148.0570     15.4919   1.1949885078e-01   4.5100291572e+01     0.202536     0.114343  77.89  0.001040094    1.612    0.380
       256  -9.0607    175.5051    179.5194   3.5156222913e+01   1.2647588445e+01    0.1269995    0.1102029 -12.85  0.000809823    1.051    0.049
       257 -10.7925    186.9488     14.9604   3.5676522817e+02   3.6387811953e+01    0.1986267    0.1653363  82.99 0.0008080587    1.282    0.220
       258  -9.4274     28.2346    176.0156   7.4108064071e+01   3.3435575211e+01    0.1858896    0.1178329 -78.48 0.0008091812    1.640    0.390
       259 -10.5483     15.9736    173.9123   7.7839912242e+01   3.5060790994e+01    0.3429218    0.1960204  81.58  0.001581061    1.813    0.448
       260  -9.5276     39.3953    173.2006   7.0306136957e+01   3.3046017819e+01    0.2025202    0.1342833  84.12 0.0007712907    1.664    0.399
       261  -8.8295    170.6721    171.7033   3.4704402507e+01   1.4697810396e+01    0.1346308   0.09216272  -8.43 0.0003652255    1.633    0.387
       262  -8.7894     50.7465    170.3393   6.6362208474e+01   3.2514679214e+01    0.1526198    0.1033464  60.84 0.0002185945    1.573    0.364
       263 -11.0394      9.4833    155.1328   7.8783812137e+01   4.0551415514e+01    0.3657601    0.2467091  59.81  0.001354059    1.409    0.290
       264 -12.0247      9.4194    166.7953   7.9514908558e+01   3.7433931940e+01    0.7610393    0.3498585  17.88  0.003213528    2.136    0.532
       265 -12.9429     13.1579    160.7923   7.7902755131e+01   3.8752139553e+01      1.34492    0.6799946 -25.28   0.00350099    2.836    0.647
       266 -11.0090     16.5289    147.4970   7.5725867098e+01   4.2110814315e+01     0.358239     0.250904 -80.26  0.001415098    1.407    0.289
       267 -11.6412     21.0674    150.4919   7.4352227884e+01   4.0910302677e+01    0.4256718    0.2973968  -1.15 0.0004874595    1.644    0.392
       268 -11.4079     23.9944    148.0036   7.3066665094e+01   4.1338487463e+01      0.34357    0.3034782 -86.79 0.0004977328    1.121    0.108
       269  -9.0783     28.3148    167.2900   7.3352053159e+01   3.5713322149e+01    0.1441125    0.1070922 -32.02 0.0004593485    1.591    0.372
       270 -10.4368     18.3536    165.0809   7.6466899110e+01   3.7188979508e+01    0.3381258    0.2432515 -63.35  0.001732356    1.448    0.309
       271  -9.9518    205.0584    163.0826   2.6923141615e+01   1.1399857889e+01    0.2118787    0.1476807 -31.28 0.0006827482    1.192    0.161
       272 -10.8719     28.2670    161.0087   7.2803778977e+01   3.7395438029e+01    0.4037884    0.2456233 -89.08   0.00182714    1.745    0.427
       273  -9.2514     32.3013    157.6479   7.1096725014e+01   3.7908537160e+01    0.1634977    0.0985305  57.18 0.0005856329    1.699    0.411
       274  -9.7438    104.6276    154.4128   4.7267575421e+01   2.8739648152e+01    0.2718118    0.2459982 -64.04  0.001452412    1.196    0.164
       275  -9.5560    214.9628    161.3031   2.5043459542e+01   1.0392783587e+01    0.1608021    0.1323512 -16.23 0.0004805386    1.074    0.069
       276 -11.2754      4.3040    153.4666   8.0474727417e+01   4.1354122225e+01    0.3652735    0.2092836  38.26  0.001367636    1.595    0.373
       277  -9.1408     55.4927    152.5005   6.2463967046e+01   3.6630497982e+01    0.1516327    0.1456658  37.23 -4.329913e-05    1.024    0.023
       278  -9.7877     62.8193    151.0020   5.9744616537e+01   3.6048646386e+01    0.4215387     0.208281  -3.43  0.001092472    5.313    0.812
       279 -11.2769     47.5054    147.2037   6.4498592158e+01   3.9065239018e+01    0.7017865    0.4584301 -37.43  0.003082367    1.786    0.440
       280 -11.8700     12.0000    135.4759   7.6403234518e+01   4.5795747470e+01    0.7705491    0.4027729 -51.70  0.003273807    1.965    0.491
       281  -9.9688    104.2507    147.3757   4.6010002894e+01   3.0470055125e+01    0.2701952    0.2371918 -81.32 0.0003413958    1.308    0.236
       282 -10.5908     32.9329    143.9240   6.9357880236e+01   4.1606770548e+01    0.3162873     0.299411 -73.81 0.0007743746    1.080    0.074
       283 -10.8420     40.8170    138.2815   6.5691241504e+01   4.2312340301e+01     0.413742    0.3604009 -89.08   0.00139283    1.166    0.142
       284 -12.1298     24.3153    136.0910   7.1706092838e+01   4.4625543398e+01    0.7864401    0.3700665 -47.51  0.003038288    2.292    0.564
       285 -10.2567     20.6439    133.9104   7.2894731566e+01   4.5559662846e+01    0.3255992      0.28886 -41.85  0.001142374    1.197    0.165
       286 -10.9096     30.2503    132.5476   6.8972723645e+01   4.5053263340e+01       0.4267     0.334677  12.78 0.0008319227    1.336    0.252
       287  -9.4168    103.9731    130.5537   4.2548241433e+01   3.4532377425e+01    0.2236732    0.1497482  36.02  0.000337992    1.475    0.322
       288 -12.4320      3.6304    142.3819   8.0062144972e+01   4.4427288086e+01     1.073805    0.6090276  25.59  0.003340263    1.701    0.412
       289 -11.1520     10.6296    125.9319   7.6101707296e+01   4.8571540451e+01    0.7951834    0.3207532 -46.33  0.002897967    2.671    0.626
       290 -10.1886     26.7204    127.0553   6.9672973144e+01   4.6942927661e+01    0.3473235    0.1874027 -78.75 0.0002962041    1.911    0.477
