#   1 NUMBER                 Running object number                                     
#   2 MAG_AUTO               Kron-like elliptical aperture magnitude                    [mag]
#   3 X_IMAGE                Object position along x                                    [pixel]
#   4 Y_IMAGE                Object position along y                                    [pixel]
#   5 X_WORLD                Barycenter position along world x axis                     [deg]
#   6 Y_WORLD                Barycenter position along world y axis                     [deg]
#   7 A_WORLD                Profile RMS along major axis (world units)                 [deg]
#   8 B_WORLD                Profile RMS along minor axis (world units)                 [deg]
#   9 THETA_WORLD            Position angle (CCW/world-x)                               [deg]
#  10 FWHM_WORLD             FWHM assuming a gaussian core                              [deg]
#  11 ELONGATION             A_IMAGE/B_IMAGE                                           
#  12 ELLIPTICITY            1 - B_IMAGE/A_IMAGE                                       
         1 -14.4716     68.5608    144.3312   1.0019597284e+02   3.7402740015e+01     5.042555     2.581231  68.97  0.003068346    4.084    0.755
         2 -13.1131      2.8671     16.6044   9.1845469487e+01   7.2127883385e+01     2.503635    0.3964634 -49.12  0.009021519    4.754    0.790
         3 -13.5290    200.6921     41.6551   4.1906710911e+01   3.0182385018e+01     1.252309     1.178196 -26.72   0.00400699    1.257    0.204
         4 -13.5582    211.4816     31.2007   3.8169085329e+01   2.9069410798e+01    0.9497083    0.8278569  28.12  0.002071304    1.567    0.362
         5 -12.7672    236.7822      5.7128   3.0507670530e+01   2.6557128824e+01    0.8069457    0.5684701  89.67  0.005121543    1.251    0.201
         6 -13.0233    190.6531     48.9529   4.5079268589e+01   3.1525211337e+01     1.081137    0.8160957  35.34  0.001386044    1.687    0.407
         7 -10.2823    139.9834    249.9029   9.9070324677e+01   3.1679650945e+00    0.2976418    0.1765248  42.78  0.001641819    1.476    0.323
         8 -12.9288     53.6710    187.0342   1.1042534581e+02   2.8754741789e+01     1.684493     1.016917  83.95  0.008260965    1.824    0.452
         9 -14.3237     40.7143    195.8520   1.1442149919e+02   2.8209839289e+01     5.545348     2.197506  73.28   0.01020536    4.767    0.790
        10  -9.1527     39.0451    211.7914   1.1623764640e+02   2.4792543534e+01    0.2362026    0.1351205  72.43 0.0007234635    1.720    0.419
        11 -10.4996    194.3913    206.3814   8.0964576967e+01   2.1005120824e+00    0.4420665     0.230524  54.45  0.001702246    3.457    0.711
        12 -10.6560    111.5392    204.2373   9.8890264769e+01   1.6412352154e+01     0.340919     0.241177 -84.98 0.0009402661    1.799    0.444
        13  -8.2897     32.5190    205.4607   1.1711370596e+02   2.6921970986e+01    0.1241766    0.1030594  78.73 -2.177674e-05    1.023    0.023
        14 -10.8531    193.2658    195.5351   7.9161597896e+01   4.2109297155e+00    0.9555646    0.4816313 -61.38  0.002805241    5.947    0.832
        15 -10.9025    204.1793    199.5948   7.7741751748e+01   1.6914710517e+00    0.2782911    0.1901628   3.95  0.001434077    1.632    0.387
        16 -10.6139    121.3178    197.2302   9.5497847371e+01   1.6325109719e+01    0.4664082    0.2349983 -61.67  0.001280551    2.343    0.573
        17 -10.6143    107.3558    203.6375   9.9778259129e+01   1.7214317005e+01    0.4013365    0.2222058  55.83  0.001757088    2.067    0.516
        18 -10.0309     59.3898    197.0474   1.1021233309e+02   2.5679216732e+01    0.2850201     0.182114  38.65 0.0004947319    1.535    0.348
        19  -8.5221     82.1761    194.8201   1.0451044239e+02   2.3067465636e+01     0.180764     0.165469 -22.95  0.001060389    1.339    0.253
        20 -14.6207      9.6025    207.0252   1.2206088188e+02   2.8851218796e+01      1.09336     1.005935 -48.80  0.004325072    1.487    0.328
        21 -13.4762     20.5836    221.6510   1.2078299230e+02   2.4645637382e+01     0.838752    0.7071752  12.35  0.005844701    1.721    0.419
        22  -9.4703    147.5499    187.2462   8.7581452339e+01   1.3895616555e+01     0.270576    0.1451594 -53.25   0.00113348    2.034    0.508
        23  -8.9868     79.4885    182.5100   1.0344137664e+02   2.6362405707e+01    0.2518996    0.1335808 -77.63  0.001025912    2.335    0.572
        24  -9.6844     99.4029    180.8538   9.8163000426e+01   2.3687951332e+01    0.2691705    0.2301874  46.29  0.000557829    1.141    0.124
        25  -8.2713     89.2848    179.6951   1.0053756929e+02   2.5565395480e+01    0.1455345    0.1057411  72.15 0.0002534637    1.561    0.360
        26  -9.7089     64.5972    179.0288   1.0671208397e+02   2.9282833849e+01    0.2818493    0.1726594  53.23   0.00136976    1.660    0.397
        27 -11.0562     42.9711    176.7925   1.1187227942e+02   3.2485957286e+01     0.663594    0.4812259  -6.49  0.003171572    2.115    0.527
        28  -9.6920    187.4339    175.9139   7.6475644705e+01   8.9197595663e+00    0.3613968    0.2692606 -48.64   0.00133339    1.441    0.306
        29 -13.0287     69.4166    154.3757   1.0170712411e+02   3.4746077314e+01    0.6577827    0.5787966 -42.44  0.001105731    1.213    0.176
        30 -11.2941    115.7000    246.9646   1.0366495018e+02   7.2946281292e+00    0.5315294    0.2778529 -46.84  0.002720554    2.333    0.571
        31  -8.2645    193.6576    171.2898   7.4223805137e+01   8.6780651824e+00    0.1363244    0.1176533  86.74 0.0007024433    1.650    0.394
        32  -9.5185    240.4917    169.4657   6.5095092252e+01   9.9560539533e-01    0.1333203     0.111582 -20.79 1.471774e-05    1.017    0.017
        33 -12.5319     53.9911    146.3869   1.0476330412e+02   3.8782599474e+01     1.955895     1.074914 -43.39   0.00870325    2.000    0.500
        34  -8.7518    110.9334    167.9694   9.2944805988e+01   2.4812666938e+01    0.2364984    0.1789369  77.66 0.0004758693    1.645    0.392
        35 -12.3499     80.8907    159.3921   9.9394185052e+01   3.1822808439e+01      1.34974    0.7015473  62.99 0.0004197823    3.014    0.668
        36  -7.8479    130.3382    159.6511   8.6308327844e+01   2.3239589080e+01    0.1606971    0.1219251  79.98 0.0007046299    1.788    0.441
        37 -11.4075     68.0233    172.5842   1.0493104062e+02   3.0397112247e+01    0.4316953    0.2940895 -35.04  0.002086766    1.904    0.475
        38 -11.4881     88.0632    152.9185   9.6241810010e+01   3.2325483260e+01    0.6304469    0.4611771 -15.16  0.001663343    1.923    0.480
        39 -10.2694    134.1695    147.2372   8.2637772556e+01   2.5381833717e+01    0.7350984    0.2434882 -54.06  0.002124287    3.604    0.723
        40  -9.7632    132.6841    140.1625   8.1399817145e+01   2.7317544326e+01    0.4597511    0.2239905 -54.90  0.001666957    2.256    0.557
        41  -8.6070    111.1766    149.7573   8.9251421850e+01   2.9155020389e+01    0.2692462    0.1682515  74.99 0.0009617761    2.854    0.650
        42  -9.1716    174.8081    148.9319   7.3346711120e+01   1.6802601566e+01    0.2794672    0.2045781  73.97 0.0007337439    2.048    0.512
        43 -10.6367     32.5694    143.2591   1.1044619648e+02   4.1910262600e+01    0.4430854    0.2557494  82.94   0.00205333    2.058    0.514
        44 -10.4043     27.9472    143.8120   1.1183388408e+02   4.2205420807e+01    0.2566952    0.2170429  70.28  0.001054197    1.208    0.172
        45  -9.5843    111.2692    129.5329   8.4677961718e+01   3.4018072004e+01    0.3214005    0.2633951  -4.51 0.0006408147    1.480    0.324
        46 -10.3864    102.0060    138.5215   8.9367268578e+01   3.3542954888e+01    0.5641275    0.3727008 -18.69  0.002252013    2.320    0.569
        47 -10.0266    105.8887    130.9755   8.6546215644e+01   3.4677702538e+01    0.4625059    0.3228892 -51.92  0.001701761    1.387    0.279
        48 -11.5985     89.4587    138.2014   9.2902204524e+01   3.5769819861e+01    0.3074165    0.2602993 -39.65 0.0004368046    1.202    0.168
        49 -10.9054     25.9303    137.3625   1.1155743600e+02   4.4001832233e+01    0.3382355    0.2512096  38.06  0.001245954    1.510    0.338
        50 -11.1555     28.5993    129.1151   1.0958949800e+02   4.5832927173e+01    0.4140327    0.2368455 -56.07  0.002096654    1.495    0.331
        51 -11.3585     72.3200    168.0090   1.0311701741e+02   3.0930210297e+01    0.4703897    0.3033077 -55.60 0.0007200373    1.497    0.332
        52  -9.8363    135.5445    128.5143   7.7858024589e+01   2.9410859265e+01    0.3306439    0.1527589 -47.16  0.001056247    2.124    0.529
        53  -8.9015     34.8316    171.8108   1.1335001890e+02   3.4582836167e+01     0.192212    0.1631022 -68.04 0.0005880144    1.156    0.135
        54 -10.1533    118.1699    123.2336   8.1201441868e+01   3.4165775177e+01    0.5070707    0.3066239  10.59  0.001424985    3.312    0.698
        55  -9.1466     87.2790    120.7109   8.9633381363e+01   4.0447407159e+01    0.3906118    0.2575245  69.19   0.00158979    2.319    0.569
        56 -10.1657     98.5505    125.3789   8.7353627171e+01   3.7363987496e+01    0.3038251     0.249671 -17.87  0.001147585    1.403    0.287
        57 -11.2554     33.8125    109.2985   1.0456036234e+02   5.0286005611e+01    0.3748431    0.2781966  85.50  0.002026981    1.591    0.372
        58  -9.2716    107.7363    118.6173   8.2999806295e+01   3.7281312536e+01    0.2478966    0.2178395 -18.83 0.0003981582    1.218    0.179
        59 -10.0730    231.2379    113.8628   5.4702411865e+01   1.2202986558e+01    0.2905264    0.2446346 -43.08  0.000829064    1.046    0.044
        60 -11.6026     32.9647    118.3881   1.0649116035e+02   4.8116243272e+01     0.582341    0.2258684 -59.97  0.002433616    2.068    0.516
        61  -9.3407    205.3453    110.2337   5.8097683725e+01   1.8082276508e+01    0.2819245    0.2076452  45.45 0.0009130372    1.489    0.328
        62 -10.0533    115.1981    109.0151   7.8334445271e+01   3.8026658352e+01    0.4148901    0.1824196 -42.06  0.001472307    2.277    0.561
        63  -9.5362    246.6591    107.3323   5.1046291180e+01   1.0411824425e+01    0.1379465   0.09292989 -63.33  5.57545e-05    1.749    0.428
        64  -8.3534    137.8427    104.8474   7.1078480654e+01   3.4133353541e+01    0.2131672    0.1853779 -77.89 0.0004416808    1.332    0.249
        65 -10.3150     41.6592    104.0959   1.0081843266e+02   5.0774484270e+01    0.3296682    0.1969786  41.18  0.001235809    1.939    0.484
        66 -10.5905    242.1124    101.3009   5.0356005483e+01   1.2251433319e+01    0.2015779    0.1738177  23.46  0.001214817    1.462    0.316
        67 -10.6335     32.8464     99.7349   1.0299357391e+02   5.2702780751e+01     0.304997    0.2348489  49.91  0.001433152    1.571    0.364
        68  -8.7682    125.1668     92.8098   7.0997512164e+01   3.9428330529e+01    0.2303358    0.2110418 -81.51 0.0007306375    1.235    0.190
        69  -8.6120     53.2901     90.3627   9.3408486867e+01   5.2689189502e+01    0.1511641   0.09556331 -29.92 0.0007026251    1.698    0.411
        70 -16.9262     15.8213    243.3314   1.2295545506e+02   2.0736222422e+01     6.349732     2.163233  26.18   0.02698811    4.334    0.769
        71  -8.7935     74.9131     85.1086   8.4215604456e+01   5.0757014105e+01    0.2048629    0.1944347  81.10 0.0004670961    1.271    0.213
        72  -8.9770    158.9805     83.0079   5.9985457316e+01   3.3595329288e+01    0.2357374    0.1861858  11.91 0.0006692412    1.636    0.389
        73  -9.3998    112.7704     82.4863   7.1356133833e+01   4.4177738623e+01    0.3731231    0.2659523  81.12  0.001556671    2.308    0.567
        74  -8.9013     69.8789     81.6635   8.4956471010e+01   5.2300812377e+01    0.1911324    0.1719865  29.49 0.0005437147    1.191    0.160
        75  -9.1960     54.2309     65.3903   8.5707327623e+01   5.7977244343e+01    0.2146033    0.1932023  63.80 0.0004724874    1.515    0.340
        76 -11.6752      2.2337     60.7396   1.0641668438e+02   6.3759539868e+01    0.8271573    0.2433796 -64.27  0.003394942    2.931    0.659
        77 -11.5833      1.8170     48.1527   1.0340087817e+02   6.6401409902e+01    0.8377306    0.1969854 -62.12  0.003068845    3.938    0.746
        78 -10.6236    119.9331    244.7536   1.0252833270e+02   7.0628838825e+00    0.2617735    0.2103509 -58.94  0.000677514    1.455    0.313
        79 -15.3853      3.5369    185.0105   1.2190941596e+02   3.4316489566e+01     10.77845    0.1544497 -72.67     0.027009    7.494    0.867
        80  -9.1780    198.1417     23.3234   3.7710358644e+01   3.3035295663e+01    0.2011705     0.173583 -30.88  0.000563807    1.338    0.253
        81 -11.0094     13.2277     59.5536   1.0127135498e+02   6.3368076186e+01    0.3735993    0.2678179  62.86  0.000717188    2.253    0.556
        82 -10.7202     13.4870     31.8450   9.2203607330e+01   6.8736918106e+01    0.2425435    0.1521851  19.14  0.001505059    1.664    0.399
        83 -10.7549    125.6487    244.9433   1.0137173366e+02   6.1730751854e+00    0.3423463    0.1850724 -65.18  0.001689587    2.519    0.603
        84  -9.1616     89.2804    211.3658   1.0501746294e+02   1.8304299964e+01     0.218763     0.175076 -69.25  0.000509814    1.295    0.228
