#   1 NUMBER                 Running object number                                     
#   2 MAG_AUTO               Kron-like elliptical aperture magnitude                    [mag]
#   3 X_IMAGE                Object position along x                                    [pixel]
#   4 Y_IMAGE                Object position along y                                    [pixel]
#   5 X_WORLD                Barycenter position along world x axis                     [deg]
#   6 Y_WORLD                Barycenter position along world y axis                     [deg]
#   7 A_WORLD                Profile RMS along major axis (world units)                 [deg]
#   8 B_WORLD                Profile RMS along minor axis (world units)                 [deg]
#   9 THETA_WORLD            Position angle (CCW/world-x)                               [deg]
#  10 FWHM_WORLD             FWHM assuming a gaussian core                              [deg]
#  11 ELONGATION             A_IMAGE/B_IMAGE                                           
#  12 ELLIPTICITY            1 - B_IMAGE/A_IMAGE                                       
         1 -10.7452      1.9977     71.7131   8.6875170772e+01   6.1735510119e+01     1.280783    0.2419319 -59.49  0.004798788    3.086    0.676
         2 -10.4993     60.8991     48.1322   5.3692565210e+01   6.1373735250e+01     1.207752    0.5593817 -41.59  0.005018712    2.004    0.501
         3 -12.7068    119.2432     40.2501   3.0452153818e+01   5.0286300197e+01      1.10251    0.7388182 -16.76   0.00310151    1.670    0.401
         4 -11.4239     79.4093     33.7999   3.9898485185e+01   6.0570219602e+01    0.6667274    0.4739106  11.43  0.003220238    1.648    0.393
         5 -11.9963    164.3591     27.6721   1.6883432497e+01   4.0042132075e+01     0.448223    0.3470405  43.24 0.0004653828    1.364    0.267
         6 -12.1686    104.7594     13.5369   2.2558156034e+01   5.7382675121e+01    0.5376139    0.4082826  -2.13  0.002795091    1.397    0.284
         7 -11.6772     26.2011     28.6160   6.2738305819e+01   7.0011245425e+01    0.5272227    0.3550869 -43.19  0.002180649    1.251    0.201
         8 -11.0820      6.0673     10.8384   6.7522023906e+01   7.5293469029e+01    0.5005581    0.3802679   9.69  0.002989681    1.426    0.299
         9 -10.1322     12.8862      8.5302   6.1194480764e+01   7.5171896177e+01     0.444781    0.2272231 -59.44  0.001914815    2.654    0.623
        10 -11.7901     20.3935     21.8370   6.3122088881e+01   7.1946780303e+01    0.8257919    0.3419185 -38.88  0.003316803    2.116    0.527
        11 -11.8967     16.2272     14.0944   6.1936466986e+01   7.3833322546e+01    0.7592609    0.2941464 -33.21  0.003257021    2.679    0.627
        12 -11.2307    145.9925     25.3023   1.8994334905e+01   4.5252816502e+01    0.7151229     0.563171 -86.47  0.003594052    1.383    0.277
        13 -11.0906    134.7910     15.3268   1.7153402109e+01   4.9355545262e+01    0.6387051    0.3599485  52.75  0.002841707    1.644    0.392
        14 -10.8973    126.9404     16.5571   1.9085379782e+01   5.1320304159e+01    0.4197775     0.247724  44.61  0.001878525    1.661    0.398
        15 -11.9550     47.5253     12.9498   4.2553465106e+01   6.9844005285e+01    0.7831085    0.3319545  42.04  0.003457683    2.396    0.583
        16 -11.6748     35.5712     17.9095   5.1875092993e+01   7.0894525629e+01     0.641299    0.2534429 -36.38  0.002246381    2.339    0.572
        17 -11.8400     22.5165     11.3389   5.6127415966e+01   7.3678284013e+01    0.5021197    0.3149568   9.30  0.002390398    1.732    0.423
        18 -11.3740     68.2411     19.2079   3.6869665213e+01   6.5083949620e+01     0.417179    0.3794379  -6.71  0.001167129    1.087    0.080
        19 -12.7492    164.2703     18.5304   1.3813220503e+01   4.1090136527e+01    0.5874864    0.3174283  40.44  0.001461092    2.162    0.537
        20  -9.9683    127.3512     11.6472   1.7001395818e+01   5.1706940371e+01     0.371865    0.2563643 -89.27  0.001563579    1.673    0.402
        21 -11.6064    228.6956     15.9398   6.5989146361e+00   2.5183776526e+01    0.3860707    0.2561011  69.18 0.0003750586    1.591    0.372
        22 -11.0715    225.6050     13.8135   6.2886634919e+00   2.6113330624e+01    0.2872105    0.2292712 -31.81 0.0003642412    1.212    0.175
        23 -11.4673     85.8073     13.9667   2.7940965836e+01   6.1927463635e+01    0.5461092    0.4042394  -8.63  0.001855551    1.373    0.272
        24 -10.0325     87.7840      7.7126   2.4133928926e+01   6.2134912445e+01    0.6234791    0.3355797  55.63   0.00235122    1.711    0.415
        25 -10.3825    218.8715     12.8048   6.5357615945e+00   2.7786934331e+01    0.2983154    0.2646937  11.38  0.001703746    1.391    0.281
        26 -12.2218    105.5921     20.5061   2.5544286738e+01   5.6391656929e+01    0.4152404    0.3429863 -56.86 0.0005012984    1.427    0.299
        27 -10.8802    192.3168      8.7327   7.6229776910e+00   3.4718530990e+01    0.6481239    0.3351424   7.15  0.002456539    3.417    0.707
        28 -10.9019    206.6331      2.8535   4.7992163548e+00   3.1697366679e+01    0.5352311    0.2817103 -86.87  0.002217665    1.963    0.490
        29 -11.4398    212.2380      9.0053   6.0392566220e+00   2.9750149903e+01    0.6464258    0.3607078  -2.42  0.002860747    2.641    0.621
        30 -10.7894    218.4401      3.7933   4.2215451537e+00   2.8776369858e+01    0.3146474    0.2989874  -5.60  0.001110602    1.260    0.206
        31 -11.4167    223.7494      2.7514   3.6087689119e+00   2.7636558291e+01    0.3913315     0.257903 -83.46 0.0002648887    1.472    0.321
        32  -9.3385    120.7220     11.7398   1.8287141375e+01   5.3450736381e+01    0.3218055    0.1520795  61.92  0.000770869    1.912    0.477
        33 -11.1441    169.8626      9.1966   1.0028563565e+01   4.0528682304e+01    0.4277981    0.2255292  58.75  0.001913969    1.794    0.443
        34 -10.7634    145.2888      9.7093   1.3339522868e+01   4.7078068408e+01    0.2502169    0.2148995  41.67  0.000363484    1.184    0.156
        35 -12.0203    245.6711      5.3168   2.9249552751e+00   2.2523405582e+01    0.7567332    0.5020745  85.57  0.004563995    1.551    0.355
        36 -10.3717    232.4823      7.4971   4.2345603607e+00   2.5188912988e+01    0.2850457    0.1917577 -63.62 0.0008783764    1.349    0.259
        37 -12.0842    233.2811      2.6610   3.0047819495e+00   2.5480505578e+01     0.398165    0.2300723 -58.23 0.0005387528    1.538    0.350
        38  -9.6778    163.1498      7.5896   1.0264368314e+01   4.2467364425e+01    0.4231876    0.1799582 -21.83  0.001685324    2.450    0.592
        39 -10.0137      1.0000      7.4739   6.9713061306e+01   7.6278080382e+01    0.3265558   0.08850954 -55.33  0.001386736    2.812    0.644
        40 -10.8880      2.6795      1.9480   6.5274779383e+01   7.7208416230e+01    0.3653164    0.2051652  -6.29  0.002098965    1.917    0.478
        41 -10.8274    184.9265      6.5963   7.6681529661e+00   3.6817839108e+01    0.4062293     0.255574 -52.39  0.001190821    1.538    0.350
        42 -10.3505    122.0248      6.3723   1.5769227642e+01   5.3603931083e+01    0.3987832    0.1986247 -21.85  0.001344598    2.097    0.523
        43  -9.2213    157.5827      7.2361   1.0811114199e+01   4.3992017439e+01    0.1891795    0.1372209   3.70 0.0006702169    1.652    0.395
        44  -9.3531    154.1787      6.8202   1.1090394036e+01   4.4944524221e+01    0.2029508      0.15644  44.98 0.0005860273    1.333    0.250
        45  -9.2239     77.7648      7.4570   2.7019230063e+01   6.4482553171e+01    0.3230175    0.2110454  84.86  0.001444768    2.527    0.604
        46 -10.5151     74.2578      3.2804   2.5814809875e+01   6.5691698136e+01    0.5439268    0.2585726  53.20  0.002465502    1.909    0.476
        47  -9.8913     62.2980      6.8906   3.2247338774e+01   6.7869085781e+01    0.2684375    0.1771379  36.97  0.001432086    1.403    0.287
        48 -10.8065    176.6164      5.7658   8.2156726808e+00   3.9060520437e+01    0.4349999    0.2171782 -89.64 0.0009981622    2.195    0.544
        49  -9.9655     41.4890      4.0789   4.0050569800e+01   7.2096300252e+01    0.3025484    0.1850644   0.22 0.0009959528    1.851    0.460
        50  -9.8578    141.9495      3.3778   1.1445933999e+01   4.8532828856e+01    0.3193179    0.2362971  71.41  0.001666315    1.251    0.200
        51 -11.4412    134.0146      2.8366   1.2368071593e+01   5.0708350252e+01    0.4340805     0.303627  72.32  0.001332165    1.338    0.252
        52  -9.3682    128.6956      1.3651   1.2584370307e+01   5.2247648447e+01    0.2117072    0.1307289  71.82  0.000598275    1.517    0.341
        53 -10.5972    105.5180      2.3473   1.7170206407e+01   5.8236232217e+01    0.3768584    0.2732425 -65.50   0.00190574    1.726    0.421
        54 -10.7191     22.1911      3.2777   5.1217680062e+01   7.5052185650e+01    0.2534899    0.1766535 -20.57 0.0009602316    1.212    0.175
        55  -9.8519     25.9855      3.7486   4.8994364834e+01   7.4490027564e+01    0.1652932    0.1419334 -11.34 0.0001943402    1.149    0.130
        56 -10.3376    154.0701      1.8408   9.3511183963e+00   4.5399055668e+01    0.5395488    0.2236523 -85.51  0.001811187    3.415    0.707
        57 -10.7449    113.4313      2.3406   1.5600443308e+01   5.6196524861e+01    0.3360481    0.2561653  65.81  0.001205645    1.229    0.186
        58 -10.1459     13.0505      1.9175   5.6931706661e+01   7.6309331437e+01    0.2180806    0.1539756   6.20 0.0004924266    1.378    0.274
        59  -9.1193     33.5441      1.5358   4.2749807763e+01   7.3717289092e+01    0.1272952    0.1030985  -3.00 0.0001257088    1.004    0.004
        60 -11.0906     10.8024    127.0701   8.9956257136e+01   4.7581143406e+01    0.5962692    0.2500338 -72.59  0.002009276    1.942    0.485
        61 -10.6476     50.6871    249.8578   8.9262767245e+01   1.8137735965e+01    0.1838245    0.1220776  36.59  0.001325012    1.388    0.280
        62  -9.2024    217.3429    138.9915   3.9062664698e+01   1.0445074193e+01    0.1931064    0.1601275 -17.08 0.0004448848    1.082    0.076
        63 -10.2622     80.0070    138.4126   7.1171155762e+01   3.7000646803e+01    0.3250298    0.2571045  55.68 0.0008912771    1.247    0.198
        64  -9.8324     32.0440    137.6807   8.4855256297e+01   4.3201557778e+01    0.2568052    0.2242287  44.67 0.0007629266    1.240    0.193
        65 -11.9604     23.7302    136.9008   8.7137642844e+01   4.4162005923e+01    0.4521891    0.3324441  55.60 0.0005001499    1.303    0.233
        66 -10.7446     30.0114    133.0086   8.4926595057e+01   4.4539516164e+01    0.3688965    0.2542992 -48.29   0.00112758    1.626    0.385
        67  -9.6009     47.4443    134.7133   8.0031628037e+01   4.2292507408e+01    0.2750226    0.1206904 -68.58  0.001053536    2.079    0.519
        68  -9.6584    103.8600    131.2294   6.3029066949e+01   3.4704782048e+01    0.2149432    0.1936778  76.82 0.0008207088    1.147    0.128
        69  -9.2005     93.0079    129.7028   6.5787981863e+01   3.6979285620e+01    0.2124638    0.1963121  53.68  0.001167787    1.072    0.068
        70  -9.0572     26.5721    127.4751   8.5325028415e+01   4.6218456832e+01    0.1904162     0.135705 -54.79 6.659265e-05    1.437    0.304
        71  -9.2230     27.3111    124.3101   8.4737831176e+01   4.6936210521e+01    0.1395286    0.1137263  82.41 0.0005038942    1.098    0.089
        72  -8.9888     22.8424    126.8507   8.6373546709e+01   4.6697185548e+01     0.174792    0.1271125  74.12 0.0004062946    1.275    0.216
        73  -9.7854     32.8399    125.7278   8.3222325177e+01   4.6068858091e+01    0.2635986    0.1438607  76.21  0.001213763    2.068    0.517
        74 -10.1028      2.2270    125.8584   9.2349976046e+01   4.8443569136e+01    0.2419005    0.1447417  71.15  0.001043931    1.511    0.338
        75  -9.4393     83.5362    124.2399   6.7451870534e+01   3.9875333217e+01     0.358923    0.2265485 -12.27  0.001309531    3.285    0.696
        76  -8.9364     53.3284    125.6700   7.6927091692e+01   4.3834993369e+01    0.1484986    0.0969626  69.20 0.0007051363    1.711    0.416
        77 -11.6808    104.4913    122.5117   6.0926487095e+01   3.6625229111e+01    0.4118238     0.347569  66.36  0.001190962    1.273    0.214
        78 -10.1813     49.2695    123.2612   7.7802447027e+01   4.4925578942e+01    0.2907974    0.2366064 -18.95  0.001612692    1.599    0.374
        79 -10.0287     56.2023    122.2114   7.5466024805e+01   4.4339658132e+01    0.1978536    0.1522861  67.91  0.000660756    1.343    0.256
        80  -9.9629     48.7828    112.0821   7.6099024171e+01   4.7793919561e+01    0.2772937    0.2319478  30.52  0.001113916    1.337    0.252
        81  -9.0306     47.4740    115.5607   7.7125747496e+01   4.7069392093e+01    0.1843318    0.1371645  11.32 0.0005006975    1.717    0.417
        82 -10.0098     44.8449    119.8630   7.8663281226e+01   4.6285836428e+01    0.2749002    0.2123998  85.45 0.0007202664    1.258    0.205
        83 -10.0215     43.5397    116.4890   7.8551916698e+01   4.7279353748e+01    0.2304958    0.2164988 -80.91  0.000629623    1.084    0.077
        84 -10.1820      7.0738    115.4562   9.0056743547e+01   5.0671387034e+01    0.4183292    0.1792435 -64.51  0.001522109    1.924    0.480
        85 -12.3987      2.5503    111.6935   9.1139767606e+01   5.1865581550e+01    0.4349533     0.263769 -83.02 0.0009611179    1.338    0.252
        86 -11.3439      5.0367    105.4248   8.9764869739e+01   5.3265237798e+01    0.4061738    0.3468434  53.89  0.002736854    1.278    0.217
        87  -9.8140     58.1202    115.6225   7.3686201472e+01   4.5743898420e+01       0.3298    0.1812852 -76.05 0.0009666364    1.992    0.498
        88  -9.4298     37.8656    115.8434   8.0288369569e+01   4.8044305789e+01    0.2131091    0.1688133 -54.57 0.0008783552    1.255    0.203
        89  -9.7430     79.0287    114.6855   6.6818203171e+01   4.2939015056e+01    0.2856624    0.2093881 -52.18 0.0009429881    1.320    0.242
        90  -9.3288     67.7580    114.8490   7.0433059433e+01   4.4612991933e+01    0.2093757    0.1641695  75.80   0.00107289    1.397    0.284
        91 -10.7950     30.3758     98.0708   8.0034251097e+01   5.3253505330e+01    0.6998793    0.5037963 -38.38  0.003874543    1.528    0.346
        92 -10.2428     35.4120     92.4391   7.7181400775e+01   5.4199591154e+01    0.3272595    0.2337318 -82.74 0.0009553095    1.386    0.279
        93 -10.6017     49.3012     90.9345   7.1689154737e+01   5.3056046305e+01    0.4263409    0.3378937  84.68  0.001567657    1.405    0.289
        94 -11.9024     42.7536     85.1010   7.2849790411e+01   5.5271074101e+01    0.9399056    0.4327872  15.85  0.002750633    3.144    0.682
        95 -11.8309      9.3222     97.3578   8.7434790788e+01   5.5013662912e+01    0.4924031    0.4577689  57.16 0.0007921899    1.230    0.187
        96 -11.1614     26.9667     85.4362   7.9070461959e+01   5.6730596169e+01    0.7494796    0.4973795  27.69  0.003179744    1.724    0.420
        97 -11.4698     25.4487    107.1992   8.3147117215e+01   5.1380800081e+01    0.6896482    0.3797346 -53.50    0.0026013    1.698    0.411
        98 -10.5800     34.8610    103.2345   7.9309203054e+01   5.1527719504e+01    0.7438081    0.3549706   7.61  0.002896057    3.548    0.718
        99 -12.8508     17.6752    100.4644   8.4898824846e+01   5.3682641155e+01    0.3377812    0.2794861 -87.02 0.0004133799    1.078    0.072
       100 -11.8692     20.8484     93.0041   8.2686051972e+01   5.5321048845e+01    0.9283865     0.482902  70.32  0.003024861    2.496    0.599
       101 -11.3155     21.8505    114.5062   8.5281176846e+01   4.9844776480e+01    0.4843369    0.2783238   2.94  0.002108461    2.578    0.612
       102 -11.5035     28.3873    112.9574   8.2962349252e+01   4.9677539007e+01    0.3728605    0.2945079 -30.91  0.001188129    1.543    0.352
       103  -9.4304     86.1374    113.5841   6.4350783065e+01   4.2036738990e+01    0.2829818    0.1969468 -88.29  0.001241257    1.911    0.477
       104  -9.4461    105.0616    112.8486   5.8455782202e+01   3.8776725530e+01     0.326802     0.207884  34.96  0.001308908    1.668    0.400
       105  -9.9441    120.8136    108.9596   5.2957666234e+01   3.6486185010e+01    0.3805138    0.2756922   8.56  0.001607793    1.975    0.494
       106  -9.7545    101.6771    109.8584   5.8710029910e+01   4.0125360546e+01    0.2529364    0.1915601 -32.78  0.001183332    1.473    0.321
       107  -9.3729     67.6579    110.5624   6.9580419675e+01   4.5695638171e+01    0.2730274     0.148556  27.00  0.001151164    2.162    0.538
       108 -10.7640     16.6743    109.6687   8.6388378561e+01   5.1451679724e+01     0.296052     0.211913  67.85 0.0005902351    1.390    0.280
       109 -11.3089     79.6885    108.3404   6.5178938220e+01   4.4389886916e+01    0.6189716     0.330666  33.97   0.00157321    2.007    0.502
       110 -10.1441    182.1228    104.6511   3.7213276026e+01   2.3540811520e+01    0.3630407    0.2874998  13.19  0.001740768    1.437    0.304
       111  -9.3687    143.0259    105.9819   4.6305139916e+01   3.2260880716e+01    0.2533484    0.1997796 -85.40  0.001131357    1.724    0.420
       112  -9.6804     88.7045    104.7121   6.1414178044e+01   4.3736805923e+01    0.2412013    0.2002905  32.32 0.0001700215    1.282    0.220
       113  -8.4376     45.4957    105.5349   7.6029989029e+01   4.9826733096e+01     0.139493    0.1240337 -70.05 3.314734e-05    1.021    0.021
       114  -9.9554     85.7152    103.6775   6.2110536110e+01   4.4510126280e+01    0.2494852    0.2081903 -43.32 0.0004776235    1.197    0.165
       115  -9.7470     50.7655    101.9759   7.3518855089e+01   5.0106679496e+01    0.3589258    0.1721951 -65.82   0.00128438    1.942    0.485
       116 -10.0769     52.8229     97.8151   7.1925879176e+01   5.0898922610e+01    0.4684803    0.1820983 -58.97  0.001134866    2.234    0.552
       117  -8.9010    120.4634    101.4874   5.1020439886e+01   3.8217168570e+01    0.1556195    0.1530903 -25.81 5.682181e-05    1.009    0.009
       118 -11.7038     68.5443     96.0416   6.5962949252e+01   4.9165937916e+01    0.5560523    0.4136049 -19.03 0.0006756623    1.740    0.425
       119 -11.4567     89.7223     88.6083   5.6710714429e+01   4.7364913529e+01    0.7679703    0.4099966 -40.04   0.00211678    1.957    0.489
       120 -10.3175     81.1479     98.1128   6.2188853658e+01   4.6638289962e+01    0.2410807    0.2218692  37.56 0.0004116457    1.145    0.127
       121 -11.4489     79.8187     93.2684   6.1356028569e+01   4.8031080120e+01     0.865628    0.6915919  28.08  0.004392014    1.371    0.270
       122 -10.4235     79.7864     83.7605   5.8677435046e+01   5.0293285044e+01    0.4670942    0.4007466 -42.94  0.002422048    1.110    0.099
       123 -11.0462     75.0052     77.8746   5.8611376521e+01   5.2489245979e+01    0.7234169    0.5724503  57.75  0.003644841    1.479    0.324
       124  -9.3699    159.0243     99.7029   4.0755205877e+01   2.9820624878e+01    0.2145595    0.1959312  39.47 0.0002685156    1.105    0.095
       125 -12.2504    125.0683     94.4022   4.7707767164e+01   3.8745442658e+01    0.6629922    0.4788506  74.15  0.002807525    1.911    0.477
       126  -9.4253    119.9677     85.6088   4.6467966728e+01   4.1756816014e+01    0.3828569    0.3737291  80.14  0.002016207    1.077    0.072
       127 -11.0604     99.8369     91.4387   5.4269534522e+01   4.4759155454e+01    0.7516826    0.3061473  50.09  0.002490337    2.905    0.656
       128 -10.9751     42.8959     94.2852   7.4777679638e+01   5.2955682011e+01    0.3762558    0.3195968 -63.71  0.001765295    1.041    0.040
       129 -11.5819      7.0417     88.7299   8.7199246783e+01   5.7290681485e+01     0.517814    0.3970971   9.40  0.002389561    1.632    0.387
       130  -9.8467     66.3144     88.6626   6.4871328205e+01   5.1309340606e+01    0.3716069    0.2504369  -3.18  0.001606108    2.279    0.561
       131  -8.7727    199.6523     88.3079   2.9579881004e+01   2.2286909212e+01    0.1527777    0.1134766 -65.59 0.0007043675    1.704    0.413
       132 -11.1934    112.2644     83.8939   4.8165737958e+01   4.3831589250e+01    0.6261389    0.6055851  29.33  0.002375435    1.049    0.047
       133 -10.1735    104.4047     87.2130   5.1580154415e+01   4.4782157396e+01    0.3040846    0.2502169  -1.57  0.001113642    1.468    0.319
       134 -10.6153    143.2835     84.4684   3.9967382968e+01   3.6526078115e+01    0.2783338    0.2682899 -20.83 0.0003406201    1.024    0.023
       135  -9.4451    133.9214     85.1571   4.2538309891e+01   3.8626424546e+01     0.261579    0.1886199  84.11  0.001040407    2.066    0.516
       136  -9.9929     67.0003     81.8658   6.2753960454e+01   5.2846340254e+01    0.3700182     0.308173  -0.96  0.001945157    1.407    0.289
       137  -9.2714     46.8587     75.5011   6.8839868327e+01   5.7157725755e+01    0.2932695    0.2391124 -24.72  0.001200637    1.324    0.245
       138  -9.5666     65.9578     74.5161   6.0970526797e+01   5.4747042410e+01    0.3993289    0.2224096  27.94  0.001268356    2.089    0.521
       139  -9.8084     60.6124     82.2327   6.5257429419e+01   5.3707990636e+01    0.4177558    0.2700551 -53.74  0.001492014    1.403    0.287
       140 -11.9029     53.2660     74.1363   6.5863498104e+01   5.6673133641e+01    0.6678002    0.3341786 -61.43 0.0008680737    1.987    0.497
       141  -9.3766    119.7053     80.7100   4.4990360871e+01   4.2838423746e+01    0.3199019    0.2035218  72.70  0.001176673    2.540    0.606
       142  -9.6639    103.6644     79.9976   4.9546671448e+01   4.6520637723e+01    0.2244333    0.1959562 -41.80 0.0003256285    1.115    0.103
       143  -9.0481    188.3124    249.6453   6.4032532176e+01  -9.6840225043e-02    0.1014443    0.0791575  49.51 0.0007044601    1.733    0.423
       144 -11.3431      9.5395     62.4889   8.1994199560e+01   6.3608490899e+01    0.5486036    0.2789596 -48.68  0.001365014    1.664    0.399
       145 -12.8062      4.4550     61.5483   8.4145993909e+01   6.4094304314e+01    0.6379778    0.3383089 -52.54 0.0009886493    1.530    0.347
       146  -9.7138     92.3983     72.1512   5.0612368515e+01   5.0540996964e+01    0.4359237    0.3026756 -77.07  0.001776803    2.309    0.567
       147  -9.5151     88.6327     73.7320   5.2429663212e+01   5.0941325134e+01    0.2561742    0.2038267 -32.16 0.0003497645    1.262    0.207
       148 -10.6834     88.2338     77.4249   5.3777891271e+01   5.0199113922e+01    0.5860717    0.3676361  49.84  0.002555922    1.769    0.435
       149 -10.1955     94.1817     76.5917   5.1497999977e+01   4.9217184295e+01    0.5257638     0.274496  44.97  0.002092614    1.998    0.500
       150  -9.8802     14.8501     67.4494   8.0595674217e+01   6.2085668579e+01    0.4401138    0.1966501   9.67  0.001984101    2.918    0.657
       151 -11.4866     13.7892     74.1553   8.2325700518e+01   6.0507472809e+01    0.6136085    0.3098224 -73.91  0.002546547    1.727    0.421
       152  -9.5507      9.1162     74.8154   8.4386164870e+01   6.0620756474e+01    0.2583576    0.1378298 -62.20 0.0006886792    1.475    0.322
       153  -9.4511    233.2246     77.6186   2.1826804904e+01   1.6467356220e+01    0.1775877    0.1266517  45.52 0.0004222154    1.587    0.370
       154  -8.8709    159.2599     76.3564   3.3793506601e+01   3.4098954825e+01    0.1592277    0.1225604   5.99 0.0004668957    1.619    0.383
       155 -10.6385    187.0569     72.5021   2.7293601247e+01   2.7826570910e+01    0.5459925    0.3739491 -36.28  0.002551131    1.378    0.274
       156  -9.5562    112.4152     75.2355   4.5308886444e+01   4.5618542728e+01    0.2538787    0.1849731  51.44  0.000539427    1.432    0.302
       157  -9.8241    103.6646     74.7804   4.7829604331e+01   4.7636279771e+01    0.3689416    0.2570515  60.12  0.001617891    1.717    0.417
       158  -9.2477     80.8097     74.1446   5.5320118882e+01   5.2321207844e+01    0.2055546    0.1699753 -23.24 0.0007670588    1.282    0.220
       159  -9.2000     24.9886     74.0200   7.7582793941e+01   5.9732921138e+01    0.4481917    0.2181954 -30.33  0.001905859    2.704    0.630
       160 -11.7629     40.6120     69.9801   6.9951367796e+01   5.9217661579e+01    0.4836154      0.30949 -61.88  0.001420381    1.424    0.298
       161 -11.1513     34.7115     71.9536   7.2979888027e+01   5.9359969260e+01    0.6479494    0.2958708  25.78  0.002862342    2.474    0.596
       162 -10.2144    153.6620     72.7304   3.3868164478e+01   3.6144862172e+01    0.4251845    0.2305409  44.00  0.001562297    1.938    0.484
       163  -9.6561     19.4151     71.9772   7.9526010082e+01   6.0664671157e+01    0.2298487    0.1587515 -31.45 0.0006153357    1.562    0.360
       164  -9.1428    162.1446     71.3837   3.1638662606e+01   3.4239572080e+01    0.2200605    0.1514721  72.15 0.0008271331    1.742    0.426
       165 -11.2998    122.8470     69.0240   4.0215886402e+01   4.4435049802e+01    0.5615875     0.356186  42.81  0.001763682    1.612    0.380
       166 -10.6479     79.3286     67.9501   5.3777807091e+01   5.3967907454e+01    0.6403885    0.4732504  87.25  0.002829144    2.155    0.536
       167 -12.6981     74.4085     51.5730   4.9540992340e+01   5.8315699756e+01    0.9665866    0.4098061 -51.78   0.00239559    2.864    0.651
       168 -10.3319    219.4591     66.9627   2.0871351996e+01   2.0979988042e+01    0.4981743    0.2195495  66.75  0.001959927    2.760    0.638
       169  -9.1541     25.8893     65.8059   7.5310621061e+01   6.1665477574e+01    0.1669799    0.1472993  75.46 0.0004614457    1.303    0.232
       170  -8.9176    192.4854     65.5567   2.4380650082e+01   2.7569929288e+01    0.1496446    0.1396848 -48.47 0.0002891161    1.042    0.041
       171 -10.0095     96.3157     65.0342   4.6805923163e+01   5.1227884644e+01    0.3615355    0.2506287  13.24  0.001314173    1.997    0.499
       172 -10.6532     91.7406     62.5927   4.7453920704e+01   5.2682165439e+01    0.4003229     0.284191  57.24  0.001229291    1.658    0.397
       173 -11.1466     58.3440     77.6367   6.4848139134e+01   5.5138074845e+01    0.3921543     0.296069  -8.78  0.001755098    1.659    0.397
       174  -9.6292    201.8142     64.6521   2.2696452457e+01   2.5435284510e+01    0.1953867    0.1399067  77.90 0.0003778748    1.636    0.389
       175 -10.9206    157.8432     63.3232   2.9949224571e+01   3.6691244003e+01    0.5680257    0.2727346  42.13  0.001590311    2.371    0.578
       176  -9.7614    106.4601     63.3280   4.2951315413e+01   4.9349648300e+01    0.3202132    0.2274186  23.57 0.0008350785    1.701    0.412
       177 -10.4188     59.3172     63.9224   6.0211249988e+01   5.8203779514e+01    0.3507879     0.297684 -87.20 0.0004021983    1.478    0.323
       178 -10.5864     64.9996     61.8408   5.7169701073e+01   5.7785873393e+01    0.3465481    0.3304268  15.54  0.001295711    1.115    0.103
       179  -9.3385     51.0552     56.4996   6.1189850706e+01   6.1062047359e+01     0.485577    0.2641622 -49.64  0.002232691    1.641    0.391
       180  -9.4627    213.5037    248.4827   5.9538474978e+01  -3.3228712327e+00    0.1124803   0.07832341  17.63 0.0008101793    1.035    0.034
       181 -10.9267     52.0872     48.3080   5.7674319927e+01   6.2698016527e+01    0.7643147    0.2839695  29.37  0.002764262    3.297    0.697
       182 -11.1516     40.5753     56.9400   6.6081270287e+01   6.2294358959e+01    0.8222823    0.4513695 -30.88  0.002760813    2.114    0.527
       183 -11.3721     43.1552     62.1979   6.6583997459e+01   6.0773183220e+01     0.298026    0.2363978 -47.85 0.0004820261    1.102    0.092
       184 -11.4485     46.0135     59.0052   6.4289966678e+01   6.1161167184e+01    0.7491373    0.3586328  52.61  0.002734194    3.646    0.726
       185 -11.4508     44.0308     43.9761   5.9749432646e+01   6.4730580209e+01    0.5339145    0.2972289 -52.54  0.002539708    1.712    0.416
       186 -11.3300     40.1111     43.7625   6.1592128894e+01   6.5276126649e+01    0.5864048    0.3473106   4.23  0.002123153    2.357    0.576
       187 -10.4314    234.1228     61.0749   1.7553371485e+01   1.8544677504e+01    0.3443132    0.1815723 -31.00  0.001616199    1.646    0.392
       188  -9.6754    114.0580     61.2285   3.9922063223e+01   4.7997990869e+01    0.3463286    0.2185999 -42.47  0.001418093    1.587    0.370
       189 -10.1032    125.0995     56.6487   3.5213744340e+01   4.6152220671e+01    0.4234351    0.3313641 -11.60  0.001708714    1.437    0.304
       190 -10.2042    122.9610     44.5086   3.1186611197e+01   4.8693712590e+01    0.2918309    0.2631324  24.28 0.0006892135    1.122    0.108
       191 -10.5086    109.8746     39.7432   3.2742009598e+01   5.2690682143e+01    0.6326008     0.371938 -15.57  0.001795438    2.106    0.525
       192 -11.3391    117.8555     55.4443   3.6709351498e+01   4.8141299698e+01     1.023804     0.561354 -61.70  0.003351463    3.354    0.702
       193 -10.4830    112.2248     50.8014   3.6516519902e+01   5.0310789420e+01    0.3433163    0.2305834 -29.38 0.0005068045    1.512    0.339
       194 -10.8257    116.0077     49.0405   3.4774664907e+01   4.9692600013e+01    0.3561707    0.2885277  38.49 0.0004276477    1.236    0.191
       195  -9.9814    174.2443    246.5493   6.6137410290e+01   2.2071294949e+00    0.2907903   0.08682954  35.00  0.001296421    2.627    0.619
       196  -9.2356     84.4216     61.2910   4.9539255861e+01   5.4423108531e+01    0.2479145    0.1926453  68.47  0.001174932    1.711    0.416
       197  -9.7054     29.3346     59.4849   7.2077186210e+01   6.2874382625e+01    0.3445992    0.2292731 -61.87  0.001858023    1.337    0.252
       198 -11.3746     25.1642     57.1008   7.3381407209e+01   6.3808863969e+01    0.5354366    0.5228955  27.72  0.002908149    1.213    0.175
       199  -9.4094    135.6007     59.0537   3.3446589887e+01   4.3102968150e+01    0.3046075    0.2137812  27.12  0.001310406    1.716    0.417
       200 -10.1802    105.9592     58.1216   4.1176103989e+01   5.0460585782e+01    0.3200309    0.2309247 -82.75  0.001321323    2.241    0.554
       201  -9.9524     91.8102     57.2878   4.5436148904e+01   5.3729579127e+01    0.3282575    0.2383008  61.96 0.0007832613    1.712    0.416
       202 -10.1445     88.1427     56.0035   4.6210054115e+01   5.4744566748e+01    0.4707241    0.2057496 -35.40  0.001681853    2.391    0.582
       203  -9.0274    208.6828     68.6935   2.2818160816e+01   2.3211999555e+01    0.1456377    0.1105727  17.94 0.0005083437    1.630    0.387
       204 -10.6812    157.6705     55.3138   2.7349061389e+01   3.8021863830e+01    0.4836328     0.417841 -59.18  0.002145104    1.217    0.178
       205  -9.7214    154.3987     51.3413   2.6658458641e+01   3.9489457946e+01     0.377407    0.1990996 -14.86  0.001287011    2.642    0.622
       206  -9.4316    219.9630     56.0557   1.7914302820e+01   2.2372663455e+01    0.2044806    0.1847899 -30.18 0.0003164906    1.065    0.061
       207 -10.6352     31.6591     53.1203   6.9070060711e+01   6.4136561923e+01    0.5992733    0.2645496  14.22  0.002428849    3.156    0.683
       208  -9.9650     55.8109     50.5236   5.6867748169e+01   6.1676004512e+01    0.2320364    0.2077666  10.32 0.0004021566    1.157    0.136
       209  -9.6274    246.5394     54.4914   1.4604702877e+01   1.6777190112e+01    0.1324352    0.1125218 -37.00 6.098054e-05    1.019    0.019
       210  -9.4370    201.2930     53.2091   1.9529488440e+01   2.7194950560e+01    0.2237349    0.1782942  -5.79 0.0006169701    1.431    0.301
       211 -10.4882    145.5712     49.4586   2.7808155326e+01   4.2090278302e+01    0.5997857    0.3174535 -12.68  0.001609251    2.832    0.647
       212  -8.7715     93.6818     52.6633   4.2996513311e+01   5.4218397676e+01    0.1585246    0.1170002   4.44 0.0007048991    1.702    0.413
       213 -10.0339    240.2357     50.7439   1.4314513852e+01   1.8573466011e+01    0.2333041    0.2040017   8.50 0.0008076508    1.352    0.260
       214 -11.5098     83.2520     47.0484   4.4349061451e+01   5.7461024396e+01    0.3400432    0.2812168  -6.09  0.001768597    1.263    0.208
       215  -9.1759    175.2316     49.3899   2.2272699189e+01   3.4325710911e+01    0.2135894    0.1453519  79.23 0.0009515749    1.674    0.402
       216 -10.2679     26.2274     48.4529   7.0275798404e+01   6.5722990523e+01    0.3061534    0.1977707 -23.25  0.001128124    1.692    0.409
       217 -10.3595     20.2443     46.2297   7.2659772190e+01   6.6738348638e+01    0.5617351    0.2733163 -33.99   0.00262744    2.137    0.532
       218 -10.3260     26.3016     43.0303   6.8413299699e+01   6.6936006280e+01     0.294522     0.220057 -58.97 0.0008773217    1.271    0.213
       219  -9.8981     23.0540     37.4045   6.8137044281e+01   6.8469657635e+01    0.4349962    0.2525626  47.95  0.002130221    2.524    0.604
       220  -9.8378      2.1141     49.1267   8.2838879225e+01   6.7157545066e+01    0.1893653    0.1702228 -35.36 0.0006861149    1.196    0.164
       221  -9.2860    171.3544     48.3005   2.2567117379e+01   3.5491184403e+01     0.159456    0.1131816  29.81 0.0007037635    1.703    0.413
       222  -9.7696     12.9592     47.1714   7.6748838212e+01   6.7041401231e+01    0.3745897   0.09672263 -43.99  0.001370715    3.292    0.696
       223  -9.6039    161.4204     45.2865   2.3295075106e+01   3.8531376708e+01    0.4745823    0.2688646 -31.90  0.001997731    1.728    0.421
       224 -10.4944    200.2899     45.2403   1.7380856669e+01   2.8519075430e+01    0.4165887     0.253733  83.23  0.001862124    1.957    0.489
       225 -10.3697    135.3557     45.8189   2.8724922433e+01   4.5311268454e+01    0.4598056    0.2108432  55.90 0.0009431421    2.101    0.524
       226  -9.6854    139.5247     43.5153   2.6958708123e+01   4.4568110351e+01    0.2694566    0.2525381  41.30 0.0006824034    1.058    0.055
       227  -9.9211      4.5965     43.3291   8.0192975762e+01   6.8396767283e+01    0.4324415    0.1480184 -40.81  0.001735614    2.592    0.614
       228 -10.5464    155.9604     42.5471   2.3352347740e+01   4.0363487232e+01     0.357129     0.299706  20.93  0.001015529    1.335    0.251
       229  -9.5171     91.3490     41.8164   3.9293499023e+01   5.6671004066e+01    0.2744192    0.2095637  80.81  0.001272677    1.916    0.478
       230  -9.0831     17.5248     41.9302   7.2755387484e+01   6.7923594813e+01    0.2002521   0.06730241 -43.80 0.0008079939    2.519    0.603
       231 -10.3605    232.3707     39.6198   1.2293754499e+01   2.1667397312e+01    0.5162517    0.2093124 -52.78  0.002042834    2.684    0.627
       232  -9.4000    189.0000     40.4230   1.7452815473e+01   3.1991776600e+01    0.3211765   0.08065222 -27.19 0.0009279581    3.880    0.742
       233 -10.6851     79.4248     38.8103   4.2187307575e+01   5.9723109143e+01    0.5084996    0.3098264  70.00  0.001908962    3.210    0.688
       234 -11.8239    126.5579    241.7335   7.4438867894e+01   9.6133188180e+00    0.3584358    0.2432146  59.49  0.001748852    1.658    0.397
       235 -10.9704     61.2374     36.0051   4.8269094109e+01   6.3672761153e+01    0.5065061    0.3366087 -10.89   0.00185433    1.836    0.455
       236  -9.4138     68.3714     32.8090   4.3727255698e+01   6.2937858027e+01    0.6980787    0.5154455 -82.89  0.003110321    2.670    0.625
       237 -11.1061     56.8807     31.0631   4.7867631115e+01   6.5313183149e+01    0.4059554    0.3173126 -14.85 0.0008566143    1.225    0.184
       238 -11.5497     48.9320     30.5092   5.1371505874e+01   6.6701203745e+01    0.6558893    0.2880247  34.33   0.00253079    2.443    0.591
       239 -10.7766     43.0246     28.0771   5.3164778823e+01   6.8028904400e+01    0.2010017    0.1743489  -5.29 0.0002838437    1.078    0.072
       240 -11.1111      4.5057     36.2770   7.8354604173e+01   7.0010338616e+01    0.4289894    0.3069531 -12.41  0.002171959    1.519    0.341
       241 -11.1334    175.1855     33.5130   1.7225722245e+01   3.6458705718e+01    0.7831824    0.5155499 -61.25  0.003248176    1.682    0.406
       242  -9.9320    153.1241     36.5582   2.1784258938e+01   4.1935022810e+01    0.2765022    0.2233846 -19.57 0.0003547232    1.302    0.232
       243  -9.5799    132.1408     36.6704   2.5993634956e+01   4.7484019045e+01    0.3502345     0.219426 -79.42  0.001342727    2.519    0.603
       244  -9.1510     13.1718     37.2527   7.3663823848e+01   6.9283035488e+01    0.1954153   0.08820874 -70.09 0.0008504485    2.460    0.594
       245  -8.6769     94.6643     36.3204   3.5810790764e+01   5.6826781971e+01     0.148101    0.1184763 -71.10 0.0007049773    1.705    0.414
       246 -12.1213    160.0602     29.7089   1.8234544732e+01   4.0948648201e+01    0.4207881    0.3823645 -19.68 0.0003637816    1.152    0.132
       247 -10.7906    131.3000    240.9698   7.3452750276e+01   9.0516800673e+00    0.2183632    0.1368026  36.31  0.001022804    1.231    0.187
       248 -11.0872     67.9832    240.7768   8.5519401072e+01   1.7578503802e+01    0.2336409    0.1734217  30.48  0.001228106    1.445    0.308
       249 -11.6789    106.4351     32.4413   3.0608749937e+01   5.4618084188e+01    0.7111456    0.4218687  13.60  0.002631817    2.560    0.609
       250 -12.1593    114.6810     25.0336   2.5284910165e+01   5.3543585381e+01    0.8313437    0.3433636  54.91  0.002243571    2.194    0.544
       251  -9.9129    240.6954     32.3240   9.7293321257e+00   2.0704650870e+01    0.2861609    0.1639064  55.47  0.001470394    2.010    0.502
       252  -8.7516    216.7605     32.0023   1.1822960702e+01   2.6172072457e+01    0.1809757    0.1070759 -29.24 0.0005279225    1.572    0.364
       253 -11.0922    188.9883     28.2751   1.3789602075e+01   3.3492765892e+01     0.522356     0.404045  12.97  0.002674014    1.613    0.380
       254 -10.6620    183.0545     25.4908   1.3657088501e+01   3.5351267759e+01    0.3193097    0.2768098 -52.83  0.001109103    1.104    0.095
       255  -9.7941    187.2057     23.1531   1.2448752177e+01   3.4537162730e+01    0.2834097    0.2188694  33.77 0.0007456139    1.527    0.345
       256  -8.9322    183.3515     32.2743   1.5718233503e+01   3.4473707332e+01    0.1491076    0.1061908  37.24 0.0004389375    1.637    0.389
       257  -9.8177    137.3784     32.1734   2.3174586264e+01   4.6707494565e+01    0.7227435    0.2346127  70.39  0.001910104    4.689    0.787
       258 -12.0086    126.0546     28.4073   2.4078634895e+01   5.0177160067e+01    0.5785104    0.4452678  77.89   0.00284442    1.427    0.299
       259 -10.9210     32.4618     30.8872   6.0194063224e+01   6.8862282662e+01    0.3120444    0.2029492 -50.91 0.0003850762    1.468    0.319
       260 -11.6567    147.3563    237.9407   7.0046911383e+01   7.1729783654e+00     0.449973    0.2816818  41.71  0.002300993    1.311    0.237
       261 -10.1957     75.9185    239.8006   8.3945615785e+01   1.6751491370e+01    0.2093287    0.1650027  36.91  0.001531205    1.253    0.202
       262 -10.6059    167.1805    238.1168   6.6344032634e+01   4.2739711491e+00    0.1948982    0.1509915 -27.92 0.0009868568    1.556    0.357
       263  -9.2346    199.7004    234.6724   5.9960306965e+01   5.8284886555e-02    0.1179824   0.07255537   9.62  0.000367556    1.638    0.390
       264  -8.7488     15.4462    234.0416   9.4864473311e+01   2.4503059894e+01    0.1252873   0.07290564 -57.02 0.0008075452    2.497    0.600
       265  -9.9164      7.8788     30.4857   7.4524446237e+01   7.1112459999e+01    0.3667266    0.2592403  17.72  0.001653292    1.643    0.391
       266  -9.6597     12.2554     28.5190   7.1113727066e+01   7.1251904594e+01    0.3313549     0.223141 -74.08  0.001870081    1.794    0.443
       267 -10.3474    198.5347     28.6862   1.2810523736e+01   3.1016703777e+01    0.4557574    0.3055532 -20.83   0.00225869    1.568    0.362
       268  -8.5660    148.6402     31.7218   2.0866606400e+01   4.3760497696e+01    0.1599943    0.1076162  35.74   0.00049508    1.664    0.399
       269  -7.8144     97.9025     27.8148   3.0991473448e+01   5.7328408125e+01    0.6006708    0.2475382 -42.13  0.002179783    2.745    0.636
       270  -9.6264    206.1586     37.5048   1.4467671256e+01   2.8062775525e+01    0.1996626    0.1769222 -43.88 0.0004227698    1.046    0.044
       271  -8.6992    205.6610    233.7024   5.8768743876e+01  -6.5976372553e-01    0.1199604   0.07087167  12.24 0.0004315378    1.659    0.397
       272 -10.1636    155.3590     24.4583   1.7148656949e+01   4.2830958818e+01    0.3539481    0.2347167 -82.67 0.0009554328    1.782    0.439
       273  -9.1254    213.4381     24.7978   1.0197519209e+01   2.7795635984e+01    0.2610734    0.1092003  76.98   0.00104082    2.642    0.621
       274 -10.6630    135.0201     21.9501   1.9701077703e+01   4.8580232099e+01    0.5876415    0.4063088  67.05  0.002816193    1.407    0.289
       275  -9.2126    247.3849    231.2171   5.1417071419e+01  -5.8888775451e+00    0.1308148   0.08965408 -23.37 0.0008389878    1.583    0.368
       276  -8.8645    190.4063    229.5235   6.0880010981e+01   2.0045864366e+00    0.1186936   0.09019321  18.84 7.335524e-05    1.040    0.039
       277  -9.7356     91.0668     22.6353   3.0625251224e+01   5.9636574981e+01    0.3349369    0.2480449   4.67  0.001557483    1.463    0.316
       278  -9.5402     59.8452     23.6725   4.2774732024e+01   6.6033663555e+01    0.2256983    0.1676209 -20.78 0.0004772619    1.263    0.208
       279  -9.2372    200.3191    226.3272   5.8614024206e+01   9.6722273526e-01    0.1227253   0.07516048   9.59 0.0007046711    1.681    0.405
       280  -9.9871     38.6709     22.2789   5.2519516702e+01   6.9698713752e+01    0.2406182    0.1684628 -30.39 0.0005700437    1.254    0.203
       281  -9.6081     65.6693    222.3234   8.4607899351e+01   2.1057605924e+01    0.1263494   0.06747074  59.39 0.0007050012    1.700    0.412
       282  -9.6447     49.6527    222.6845   8.7831678569e+01   2.2918289230e+01   0.09811961   0.08824252 -14.55 0.0007047672    1.722    0.419
       283  -9.6330    223.2084     22.0326   8.5945786157e+00   2.5792351867e+01    0.2228642    0.1806847 -83.63 0.0006462614    1.224    0.183
       284 -10.7187    178.9301     20.8241   1.2700562172e+01   3.6950954128e+01    0.5365381    0.2480052  42.67  0.002046839    2.682    0.627
       285  -8.9991    153.2902    219.6367   6.6525721365e+01   8.9436848015e+00    0.1174983   0.09002616  62.11 0.0007026226    1.700    0.412
       286  -9.3365      5.5163     22.0467   7.2940497643e+01   7.3060922071e+01    0.1690504     0.142213 -27.02 0.0005223794    1.135    0.119
       287  -9.4631    164.7665    212.0816   6.3162557443e+01   8.2853783421e+00     0.178649     0.150329  40.06 0.0004716221    1.203    0.169
       288  -9.0702     61.2948    206.5929   8.4242660090e+01   2.4559091674e+01    0.1537073    0.1054167  31.51  0.000933537    1.508    0.337
       289 -10.5475    246.6800     19.9544   6.2951799489e+00   2.0803010511e+01     0.189493    0.1420057 -40.42  0.001165955    1.123    0.109
       290  -9.6105    235.9714     19.9744   7.0646673391e+00   2.3119945625e+01    0.1592886    0.1313024 -45.86 0.0004030327    1.045    0.043
       291  -9.8800    229.2974     19.7084   7.5057100030e+00   2.4645675035e+01    0.2007901    0.1591398 -57.06 0.0001569907    1.113    0.102
       292  -9.8845     16.5849    205.7825   9.3487716488e+01   2.9617078015e+01     0.159385   0.08363759  80.17 0.0006810144    1.669    0.401
       293 -10.8253      4.2747    204.6763   9.5890939137e+01   3.0945163754e+01    0.2725292    0.1129472 -73.99  0.001546466    2.312    0.568
       294  -9.1264    216.4921     20.5352   8.7743115668e+00   2.7535849554e+01    0.1339748    0.1203859 -56.90 0.0001671407    1.024    0.023
       295  -8.8273    155.3116     20.6811   1.5825711646e+01   4.3266335985e+01    0.1553497    0.1050589 -61.28  0.000304812    1.645    0.392
       296 -10.0563     75.1178     19.1673   3.4231788401e+01   6.3660694680e+01    0.3548809    0.2161966  12.12  0.001030804    2.121    0.529
       297  -9.6904     47.2043     19.0448   4.6245342786e+01   6.8957866290e+01    0.2844779    0.1641567 -23.42  0.001384621    1.765    0.433
       298  -8.6719      1.4615     20.5497   7.5110599895e+01   7.3598108074e+01     0.124359   0.09179734 -42.26 0.0007791316    1.055    0.052
       299  -9.1056     80.9194     19.2917   3.2252168164e+01   6.2382194045e+01    0.2693628    0.1773727  56.82  0.001315275    1.617    0.381
       300  -9.5084     78.6851    203.7430   8.0227798876e+01   2.2847381767e+01    0.2107191    0.1343805  38.45 0.0005534852    1.381    0.276
       301  -9.2484    238.2943    203.3586   4.8277101381e+01  -1.7126460477e+00    0.1252573   0.07326829   3.90 0.0004027371    1.698    0.411
       302  -8.6044    198.7071     17.6622   9.6121367376e+00   3.2199212759e+01    0.1372103    0.1033137  31.75 0.0006455917    1.646    0.392
       303  -9.8483    147.6896     16.1787   1.5365395881e+01   4.5798251103e+01    0.3982581    0.1614191  47.30  0.001304936    2.521    0.603
       304 -11.0993    238.8579     16.2509   5.9470160194e+00   2.2881445804e+01    0.2532705    0.1797139 -81.95   0.00149202    1.422    0.297
       305  -9.7421    187.0529     15.1704   1.0048159815e+01   3.5430491239e+01    0.2128359    0.1838569  44.05 0.0009545031    1.285    0.222
       306  -9.9464    233.8636    196.9193   4.7875789810e+01  -3.1855596551e-01     0.207438      0.14815 -23.37  0.001343116    1.382    0.277
       307  -9.2283     15.9974    190.5756   9.2868492999e+01   3.2732331200e+01      0.28264    0.1114824  75.39  0.001360648    2.501    0.600
       308  -9.0851     79.4898    190.4919   7.8638292784e+01   2.5382467836e+01    0.1296846    0.1090427  58.68 4.349666e-05    1.015    0.014
       309  -9.1298     74.7919     13.6275   3.1396269214e+01   6.4441692589e+01    0.1863342    0.1315824  63.63 0.0009392164    1.692    0.409
       310  -9.1106     53.0239    190.4822   8.4680854920e+01   2.8828357956e+01    0.1794629    0.1104697  35.17  0.001017685    1.563    0.360
       311 -12.1203      4.4843    184.2161   9.5038268502e+01   3.5058383618e+01    0.5610606    0.3347772  81.03  0.002926377    1.359    0.264
       312  -9.9253    250.4301    177.1614   4.1511235449e+01  -3.2763108089e-01    0.2306692    0.1009731 -24.96  0.001137854    2.095    0.523
       313  -9.4608     28.1406    175.9053   8.9251279321e+01   3.4700988854e+01    0.1926024    0.1335954  66.99 0.0006499147    1.205    0.170
       314  -8.7300     39.6594    173.6789   8.6342414800e+01   3.3992799161e+01    0.1171149   0.09290257 -40.43 0.0007050284    1.719    0.418
       315 -12.3008      9.7553    165.3668   9.2910298083e+01   3.8701040805e+01     0.581011    0.4427643 -68.53  0.002722627    1.389    0.280
       316 -10.5750     14.1756    159.3001   9.1467292672e+01   3.9703685198e+01    0.3534682    0.1790527  86.63  0.001405104    1.756    0.431
       317  -9.0110     65.9433     10.4779   3.2918424610e+01   6.6697563687e+01    0.2020257    0.1265543  47.99 0.0007104432    1.560    0.359
       318 -10.3714     18.8031    164.7420   9.0697683974e+01   3.8068570813e+01    0.2548907    0.1999515  14.33   0.00136863    1.700    0.412
       319  -9.9172    205.0498    163.2861   4.6531893276e+01   8.9509552640e+00    0.2407327    0.1874897 -28.37 0.0006954022    1.278    0.218
       320 -10.5714     28.2279    161.5252   8.8130867572e+01   3.7921902163e+01    0.3354485    0.2328213 -68.37   0.00133334    1.412    0.292
       321  -9.5066     38.0392    160.3056   8.5537662863e+01   3.7203134976e+01    0.1812032    0.1514022  59.46 0.0007519764    1.112    0.101
       322 -10.3730      9.4763    155.5462   9.2393719168e+01   4.0943274008e+01    0.2417027    0.1779807 -88.67 0.0009810899    1.136    0.120
       323  -9.7628    104.1534    154.8040   6.7513056956e+01   2.9262557679e+01    0.2920377    0.1990136 -46.58  0.001433429    1.595    0.373
       324 -12.4388     22.8703    149.2410   8.8490666087e+01   4.1284204824e+01    0.6525129    0.3584304 -42.11   0.00157285    2.556    0.609
       325 -10.6543     16.5427    147.7347   9.0040259212e+01   4.2186202999e+01    0.2935378    0.1882842 -85.55 0.0003718508    1.321    0.243
       326 -11.2817     47.2431    147.3326   8.1705723256e+01   3.9244502623e+01    0.6798658    0.3724792 -53.71  0.003325338    1.921    0.480
       327 -10.4822     30.4604    152.3499   8.6760947069e+01   3.9838057386e+01    0.3221689    0.2277884 -89.19  0.001920797    1.236    0.191
       328 -10.3361      4.1532    153.7681   9.3613429135e+01   4.1754219733e+01    0.2328823    0.1292367  46.11 0.0008501988    1.647    0.393
       329  -9.7392     62.1772    151.7030   7.8186110669e+01   3.6357407735e+01    0.2761373    0.2112058 -17.74  0.001451636    1.934    0.483
       330  -9.9947    104.3112    147.3693   6.6124307780e+01   3.0908063135e+01    0.2690749    0.2462393 -27.43            0    1.241    0.194
       331 -11.4779      3.0997    147.9137   9.3543119070e+01   4.3175265230e+01    0.6463468    0.4268881  39.53  0.004108626    1.540    0.351
       332 -11.2907      5.8181    142.2007   9.2481573928e+01   4.4314880113e+01    0.3801194     0.222362  69.85  0.000532861    1.506    0.336
       333 -10.6687      2.2406    140.0291   9.3293182057e+01   4.5071723306e+01    0.3700897    0.1515927 -73.75  0.001836339    1.999    0.500
       334  -9.7570    249.6517    144.7737   3.5091849050e+01   3.9420886436e+00    0.3360834   0.08062498 -38.66  0.001107664    4.246    0.764
       335  -8.8126    239.5186    146.5020   3.7023697300e+01   5.3891899994e+00    0.1324609    0.1086431  -7.33 0.0008103994    1.001    0.001
       336  -8.9025     74.2294    146.0468   7.4061065664e+01   3.6036084297e+01    0.1779386    0.1109979 -63.87 0.0004401673    1.569    0.363
       337 -11.0799     33.1212    144.2702   8.5253993167e+01   4.1499390946e+01    0.3022974    0.2456755  75.06 0.0007853213    1.080    0.074
       338 -10.6648     40.3144    138.2943   8.2560661143e+01   4.2206131521e+01     0.423087     0.252464 -85.06  0.001214063    1.613    0.380
       339  -9.6821     39.3272    133.4507   8.2249762893e+01   4.3500034492e+01    0.2089397    0.1344885  22.86   0.00053214    1.848    0.459
       340 -11.6467     12.3885    135.8574   9.0232623841e+01   4.5340852405e+01    0.6708226    0.4674738 -89.35  0.004113318    1.189    0.159
       341  -8.7462     14.3050    119.2869   8.8183848832e+01   4.9236407221e+01    0.1341066    0.1067958  82.88 0.0003711209    1.099    0.090
