#   1 NUMBER                 Running object number                                     
#   2 MAG_AUTO               Kron-like elliptical aperture magnitude                    [mag]
#   3 X_IMAGE                Object position along x                                    [pixel]
#   4 Y_IMAGE                Object position along y                                    [pixel]
#   5 X_WORLD                Barycenter position along world x axis                     [deg]
#   6 Y_WORLD                Barycenter position along world y axis                     [deg]
#   7 A_WORLD                Profile RMS along major axis (world units)                 [deg]
#   8 B_WORLD                Profile RMS along minor axis (world units)                 [deg]
#   9 THETA_WORLD            Position angle (CCW/world-x)                               [deg]
#  10 FWHM_WORLD             FWHM assuming a gaussian core                              [deg]
#  11 ELONGATION             A_IMAGE/B_IMAGE                                           
#  12 ELLIPTICITY            1 - B_IMAGE/A_IMAGE                                       
         1 -13.5187    200.5412     48.0203   1.4169813417e+01   3.0814910894e+01     1.213354    0.8077962 -62.10   0.00547783    1.355    0.262
         2 -13.1333    209.1355     41.0592   1.1899824679e+01   3.0087796915e+01    0.5858681    0.5099547 -35.33   0.00142479    1.283    0.221
         3 -11.5827    237.9550     16.7385   5.1763770987e+00   2.7809898744e+01    0.6645881    0.3184817 -29.11  0.004122705    1.963    0.490
         4 -11.7756    232.2214     15.7439   5.2293031818e+00   2.8848262268e+01    0.7481204    0.3325956 -25.87  0.004220804    2.416    0.586
         5 -11.3928    119.1649      9.5325   1.1880968294e+01   5.3109192078e+01    0.5851842    0.3789726  54.31  0.002667829    1.628    0.386
         6 -10.3652      6.9971      8.7096   5.6891469433e+01   7.8533073286e+01    0.1901263    0.1532375  17.56 0.0007429462    1.099    0.090
         7 -10.5431    150.4745    228.4204   5.7952115240e+01   8.9174256520e+00    0.2544318    0.1451911 -24.18  0.001435357    1.772    0.436
         8 -10.6186    247.9584    249.7803   4.4278778026e+01  -2.3455448251e+00    0.2135014    0.1028532  14.67  0.001583164    1.893    0.472
         9  -9.4745     41.5195    249.7679   8.4974989077e+01   1.6079274118e+01    0.1820286    0.1529317 -33.72 0.0008997085    1.454    0.312
        10 -14.1394     70.5744    151.2925   6.6900559510e+01   3.5257117530e+01     14.39383     5.445803 -74.54   0.03292179    5.014    0.801
        11 -11.2236    247.9263    183.5743   3.4729793899e+01   5.5080334161e+00    0.2143058      0.19328  12.67  0.001876496    1.572    0.364
        12 -14.9019     10.2406    207.0186   9.0815812307e+01   2.7573414196e+01     1.070086    0.6186609   8.69  0.003522035    1.811    0.448
        13  -9.3865    143.6574    180.3292   5.2103234420e+01   1.8192578230e+01    0.1259886    0.1059284  66.67 0.0007051144    1.746    0.427
        14 -10.3064    181.3110    181.3105   4.4647432676e+01   1.3087526064e+01    0.3405136   0.09576242 -42.35  0.001341955    3.158    0.683
        15 -17.9589      8.3084    237.5328   9.2392170233e+01   2.1142458974e+01     7.716416     4.779233 -71.66   0.03111305    1.903    0.475
        16 -13.0465    115.4127    185.2649   5.9605832814e+01   2.1058209964e+01    0.5806629    0.4299554  28.58  0.003184075    1.270    0.212
        17  -9.4127    221.0000    175.9839   3.7203390670e+01   9.2596679814e+00    0.1898296   0.05105038 -39.83 0.0008119133    3.009    0.668
        18 -11.7998    124.0343    175.0216   5.5781273934e+01   2.1994097590e+01    0.4050632    0.3019856  27.11  0.002201948    1.287    0.223
        19 -11.4484    111.1807    170.0999   5.8201020981e+01   2.4898112875e+01    0.7044551    0.4087909 -64.56    0.0030948    2.192    0.544
        20 -10.5145    101.0025    175.9905   6.1889125765e+01   2.5039986672e+01    0.2469136    0.1938534  16.20            0    1.230    0.187
        21 -13.3450    105.1992    173.3958   6.0339975451e+01   2.5029350505e+01     1.086345     0.556406  39.20  0.004723009    1.922    0.480
        22  -9.3641    222.9951    187.9756   3.8880813299e+01   7.3614039449e+00    0.1571675    0.1166925 -19.73  0.001164356    1.009    0.009
        23 -11.2430    230.6769    167.2614   3.4360940013e+01   9.4313944924e+00      0.27517    0.1386449 -44.26  0.001620681    1.903    0.475
        24 -12.9699    247.0699    221.5610   4.0543592221e+01   9.0326832497e-01    0.7277966    0.4009627 -25.69  0.005468533    1.298    0.229
        25 -11.3485    241.2550    165.5061   3.2663470690e+01   8.5389084507e+00    0.1976608    0.1629977  78.94  0.001383959    2.651    0.623
        26 -10.6975    249.7525    211.7280   3.8762309469e+01   1.8582241911e+00    0.3613691    0.1465509 -33.89  0.001690641    1.834    0.455
        27  -8.6145     97.3103    163.6710   6.0876491672e+01   2.8380392081e+01    0.1478752    0.1117467  63.65 0.0007041288    1.665    0.399
        28 -10.3010     87.7565    149.9445   6.1252307040e+01   3.3086806103e+01    0.3687885    0.2890978 -34.84 0.0006134477    1.357    0.263
        29  -9.8539     91.4931    147.4987   5.9667118394e+01   3.3106009764e+01    0.2937351    0.2590756  80.80 0.0008078486    1.302    0.232
        30 -10.2198    133.7014    145.2298   4.7820665505e+01   2.6728456656e+01    0.7979441    0.1971923 -52.86   0.00209479    5.405    0.815
        31  -8.9122     33.5408    147.7035   7.9162413423e+01   4.0679243743e+01    0.1994858    0.1404886  84.96 0.0006764519    1.525    0.344
        32 -10.0863     25.2966    137.8547   8.1104168573e+01   4.4172893364e+01    0.4187929    0.2139424  34.76  0.001135132    1.822    0.451
        33  -8.9806    102.7537    136.6278   5.4165786801e+01   3.3862901710e+01    0.3321106     0.158238 -28.95 0.0009615041    4.290    0.767
        34 -11.0389     90.2787    135.1160   5.7593917078e+01   3.6318214834e+01    0.2783469     0.262392 -21.97 0.0004308145    1.083    0.077
        35 -12.1318    247.8643    201.9956   3.7572562539e+01   3.1982558919e+00    0.6564929    0.3086121 -24.95  0.004275156    1.702    0.412
        36 -10.3996     27.1838    130.8329   7.9541959380e+01   4.5957702057e+01    0.3720129    0.2530775 -17.69 0.0005385747    1.752    0.429
        37  -8.7422    111.7795    127.8152   4.9689036102e+01   3.4311956494e+01    0.2459063     0.157231 -11.81 0.0009308062    2.699    0.629
        38  -9.4346     98.9273    123.5713   5.2424117503e+01   3.7604523138e+01    0.2547243    0.2027498 -27.39 0.0006917489    1.405    0.288
        39 -10.9655     33.7955    110.3401   7.3739548853e+01   5.1008680009e+01    0.4015562    0.3249573  19.67  0.002013693    1.254    0.203
        40 -10.1618     39.8906    103.5853   6.9766378259e+01   5.2149183919e+01    0.6431146    0.1727432  38.46  0.001914159    3.412    0.707
        41 -11.0410     34.6822    100.1144   7.1420520237e+01   5.3724709240e+01    0.2804035    0.2658467 -52.46  0.001191976    1.049    0.047
        42 -10.7044     33.9609     95.9631   7.0904816165e+01   5.4939802232e+01    0.2885702    0.2095309  35.04  0.001103431    1.361    0.266
        43  -8.6883    127.9720     91.0297   3.6295177667e+01   3.8912409496e+01    0.1652016    0.1565395 -61.67 0.0009307621    1.007    0.007
        44 -12.4112     23.0292     87.3741   7.4551782882e+01   5.8448058103e+01     0.716998    0.3167458 -72.51  0.002678417    2.385    0.581
        45 -11.4900     32.1142     88.3687   7.0144823429e+01   5.7204563989e+01    0.4418729    0.2347373 -71.30   0.00177336    2.034    0.508
        46 -11.1579     28.7614     89.3882   7.2045778400e+01   5.7310233026e+01    0.3211253    0.2577602 -45.02  0.001045553    1.240    0.194
        47  -9.5760     85.1983    202.6037   6.9856740985e+01   2.1208729690e+01    0.2454691    0.1931875  59.02 0.0007587523    1.490    0.329
        48 -12.2976     28.1063     73.0353   6.8479782517e+01   6.1704729905e+01    0.6506574    0.2724653 -52.45  0.002483868    2.242    0.554
        49 -11.1626     21.6664     63.8645   6.9712568583e+01   6.4764904420e+01    0.3016521    0.2418445 -25.85   0.00070588    1.270    0.212
        50 -12.2595     22.9510     59.0296   6.7482326001e+01   6.5826055835e+01    0.8225923    0.3969575  15.11   0.00325679    2.330    0.571
        51 -12.3051    188.1790     57.2035   1.7530783991e+01   3.1967043942e+01    0.6463712    0.5219414  25.84  0.002928965    1.820    0.450
        52  -9.9770    119.0923    242.0092   6.6325989935e+01   9.9586227390e+00    0.2450901    0.1679792 -49.41  0.001020031    1.711    0.416
        53  -9.8175     71.3501    241.4317   7.7284035098e+01   1.4883371861e+01    0.1759723    0.1633776 -15.05 0.0002655865    1.217    0.178
        54 -10.9371     32.3338     46.1166   5.6879604217e+01   6.7564408450e+01    0.3307031    0.2242662 -34.13  0.001610647    1.608    0.378
        55  -9.3209    171.9960     50.0001   1.7588154509e+01   3.6190760036e+01    0.1813568    0.1552528 -60.19            0    1.017    0.017
        56 -12.2822     29.1454     34.6239   5.3704918721e+01   7.0454267492e+01    0.5506976    0.3743874  20.21  0.002771413    1.538    0.350
        57  -9.2845    173.9935     33.9905   1.3247748402e+01   3.7807855759e+01    0.1469893     0.121928 -68.42 0.0009601004    1.046    0.044
        58 -10.4362     28.5200     26.5118   4.9853438355e+01   7.2105222219e+01    0.2717147    0.1252289  34.80  0.001151298    2.071    0.517
        59 -10.3806    138.9892    198.9745   5.6169991998e+01   1.5299176699e+01    0.1918801     0.164403  -2.28  0.001215527    1.008    0.008
        60 -10.7570    192.0106    193.0611   4.4697085855e+01   9.9515194132e+00    0.5964804    0.3391474 -60.92   0.00247329    4.703    0.787
        61  -9.0315     14.9517     17.7835   5.5257632836e+01   7.5817873331e+01    0.1741998    0.1543372  17.22  0.001082859    1.052    0.050
        62 -10.7769    222.1575     22.1049   7.0066315493e+00   2.9900527788e+01      0.15074    0.1282799 -48.65 0.0002840739    1.219    0.179
        63 -11.4746    134.3131    229.7906   6.1532359567e+01   1.0407537220e+01    0.3046682    0.2667256  28.03  0.002117148    1.324    0.245
        64 -10.2191     32.4911     50.9949   5.8754627533e+01   6.6463818355e+01    0.2738138    0.1457705 -59.83   0.00102111    2.109    0.526
