#   1 NUMBER                 Running object number                                     
#   2 MAG_AUTO               Kron-like elliptical aperture magnitude                    [mag]
#   3 X_IMAGE                Object position along x                                    [pixel]
#   4 Y_IMAGE                Object position along y                                    [pixel]
#   5 X_WORLD                Barycenter position along world x axis                     [deg]
#   6 Y_WORLD                Barycenter position along world y axis                     [deg]
#   7 A_WORLD                Profile RMS along major axis (world units)                 [deg]
#   8 B_WORLD                Profile RMS along minor axis (world units)                 [deg]
#   9 THETA_WORLD            Position angle (CCW/world-x)                               [deg]
#  10 FWHM_WORLD             FWHM assuming a gaussian core                              [deg]
#  11 ELONGATION             A_IMAGE/B_IMAGE                                           
#  12 ELLIPTICITY            1 - B_IMAGE/A_IMAGE                                       
         1 -12.1541    225.0826      9.8945   3.5611757252e+01   2.8248209058e+01     1.227297    0.6631165 -50.58   0.00269769    1.666    0.400
         2 -15.0345    204.5625     24.1966   4.1017767964e+01   3.1394423521e+01      4.05373     2.107358 -42.26   0.01978123    1.821    0.451
         3 -14.6496    246.6361     16.5482   3.5342635304e+01   2.2846692145e+01     1.946843    0.8048899 -60.93  0.008878793    2.536    0.606
         4 -16.8696    244.9115     56.6077   4.4252288120e+01   1.8090498302e+01     6.757045     4.863075 -26.88   0.01345065    1.494    0.331
         5 -14.1427    248.8146     27.5647   3.7501261337e+01   2.1093700869e+01     1.855165    0.6657572  67.35  0.004804531    2.772    0.639
         6 -10.1605    209.5719     15.6511   3.8370797401e+01   3.1175486901e+01      0.41627    0.2125605 -62.49   0.00195264    2.117    0.528
         7 -10.0216    156.0221     12.1780   4.3934787969e+01   4.4558791861e+01    0.3669668    0.2038654  -2.67  0.001548665    2.660    0.624
         8  -9.7585    219.0307     12.7649   3.6792007312e+01   2.9305916475e+01    0.1903948    0.1612932 -56.32 0.0002904591    1.122    0.109
         9 -10.0429    127.0149     11.1943   4.8548203002e+01   5.1736118919e+01      0.23309    0.1643624   7.46  0.001209845    1.666    0.400
        10  -8.8113     46.3675      3.7958   6.9094366712e+01   6.8887923301e+01    0.1578716   0.09666751 -11.98  0.000454235    1.531    0.347
        11  -9.1464    213.6118    216.7702   8.4111950841e+01  -2.1669217725e+00    0.1617908    0.1176552 -42.48 0.0005032338    1.665    0.400
        12  -8.5931    201.4873    211.3843   8.5505789637e+01   5.9101989205e-01    0.1318006    0.1106404  16.15 0.0001170792    1.032    0.031
        13 -15.4154    170.6413     81.6399   6.2135861445e+01   3.1239305215e+01      2.59858     1.746264  37.57  0.001068782    1.657    0.397
        14 -10.7057    233.1452    209.7536   7.9214440960e+01  -4.1235350554e+00    0.2184177    0.1851456 -10.56 0.0003291655    1.160    0.138
        15  -9.3718    203.4544    201.4990   8.3320286434e+01   1.8588072722e+00    0.1360648    0.1158086   7.02  7.07805e-05    1.021    0.020
        16 -11.3958     42.2700    149.7874   1.1293708382e+02   3.9207598475e+01    0.3590478    0.2960208 -30.01 0.0009549203    1.514    0.339
        17 -12.7076     50.1042    146.2619   1.1034476990e+02   3.9210309734e+01     0.843355    0.7390026 -60.58  0.003269785    1.128    0.114
        18 -12.1304     57.4215    143.8536   1.0797072226e+02   3.8940385546e+01    0.7049901    0.3816619 -74.18  0.001736481    1.883    0.469
        19 -13.6055    249.9604     34.1340   3.8807402723e+01   2.0041912219e+01    0.5872282    0.4195544 -19.45 0.0008435876    1.782    0.439
        20 -10.7087    183.6360    146.6147   7.6073194912e+01   1.5639359053e+01    0.2751031    0.2572992 -68.07 0.0007537377    1.235    0.190
        21  -9.4143    222.6673    145.0556   6.7973643501e+01   8.1383447591e+00    0.2021911    0.1674351 -27.51 0.0004772593    1.096    0.087
        22  -9.9844    191.9770    143.9996   7.3706135731e+01   1.4435683382e+01    0.2351436    0.1777734   1.79 0.0004774467    1.592    0.372
        23  -9.9592    170.9061    196.6280   8.9140793165e+01   8.3599317423e+00    0.2258849    0.1996511 -47.32 0.0003890854    1.279    0.218
        24 -10.7375    160.5519    128.2312   7.6891088053e+01   2.4332871160e+01    0.3240535    0.2305324 -65.61  0.001387866    1.832    0.454
        25 -10.7885    196.3106    127.5436   6.8928044961e+01   1.6705367919e+01    0.2782678    0.2530655 -27.99 0.0002983724    1.041    0.039
        26  -9.4671    139.8115    128.2203   8.1989632564e+01   2.8769285461e+01    0.2081804    0.1813485  -7.64 0.0003027252    1.277    0.217
        27 -11.6016    222.3788    172.8132   7.4004953045e+01   3.3928405461e+00    0.3900559    0.2777833  57.65  0.001114346    2.009    0.502
        28  -8.9605     94.7687    127.0355   9.4068098720e+01   3.7660008286e+01    0.2011245    0.1205896 -54.85 0.0005077026    1.599    0.375
        29 -12.0321    185.9237    119.5071   6.9068062673e+01   2.0523107219e+01    0.4432275    0.3700415 -35.36  0.002243319    1.154    0.133
        30 -12.3090    230.2336    117.8367   6.0448840505e+01   1.1415199788e+01    0.6665721    0.2359354 -35.82  0.002422204    2.585    0.613
        31  -9.4387    217.2628    121.2126   6.3454330253e+01   1.3461968418e+01    0.1941428    0.1637033 -60.23 0.0003200868    1.340    0.254
        32 -13.2657    205.6347    110.9617   6.3072305563e+01   1.7791100147e+01     1.018372     0.630367  24.01  0.004133753    2.406    0.584
        33  -8.5316     56.6707    172.2391   1.1212889397e+02   3.2168945949e+01     0.133178   0.08811142  63.39 0.0002014463    1.533    0.348
        34 -12.5442    134.2283    101.6432   7.6463787746e+01   3.5780666294e+01     1.155497    0.2491365 -45.41  0.002850853    4.736    0.789
        35 -11.4775    230.3772    167.3432   7.1394186168e+01   2.9153870631e+00    0.4776137      0.21197 -49.76  0.001773697    3.291    0.696
        36 -10.4243    147.4668    104.3772   7.3830784050e+01   3.2265003118e+01    0.2865967    0.2507151  30.04 0.0006911398    1.183    0.155
        37  -9.0668     86.4434    101.4716   9.0404065667e+01   4.5121331904e+01     0.148268    0.1381065 -40.40 0.0001462985    1.010    0.010
        38 -11.9548    171.1610     96.1732   6.6077772821e+01   2.8427424262e+01    0.4977112     0.421055 -51.77 0.0009917369    1.210    0.173
        39 -13.3836    173.7690     93.3947   6.4761310345e+01   2.8339072762e+01     1.084602    0.6528268  52.92  0.003884109    1.705    0.414
        40 -11.3090    157.3999     99.8547   7.0185255767e+01   3.0918672655e+01    0.4465358    0.2820656  35.41  0.001861192    1.775    0.436
        41 -12.6220     12.5673    162.2240   1.2170800703e+02   3.8979148020e+01     0.794491    0.6124421 -85.85  0.003950447    1.037    0.036
        42 -10.8252    141.0146     94.8465   7.2773611384e+01   3.5682959961e+01     0.343741    0.3046066 -70.38  0.001009044    1.279    0.218
        43 -11.2895    155.2023     91.7591   6.8424447180e+01   3.3025682932e+01    0.3446713    0.2875839 -29.58 0.0008127615    1.217    0.178
        44 -11.0237    119.1716     88.1664   7.6688425136e+01   4.1847943828e+01    0.3277755    0.1800238  25.44  0.001158967    2.713    0.631
        45 -11.6155    127.3735    105.0962   7.9263897183e+01   3.6512561649e+01    0.3990925    0.2545518 -53.71  0.001684389    1.693    0.409
        46 -11.3647    179.5395     90.2837   6.2722552641e+01   2.7550893831e+01    0.4276839    0.3210349 -61.44 0.0009059368    1.528    0.345
        47 -11.2654    112.8921     94.2786   8.0301358403e+01   4.1857232490e+01    0.3063162    0.1950934  38.94  0.001338973    1.616    0.381
        48 -10.5363    103.0087     81.7538   7.9520792502e+01   4.6464997681e+01    0.2576828    0.2102972 -38.51 0.0002175816    1.186    0.157
        49 -10.8585    151.0210     71.4865   6.3411401585e+01   3.7766519746e+01    0.2878943     0.225062 -35.90 0.0005284233    1.289    0.224
        50 -10.1205    125.7114     63.9494   6.7235849667e+01   4.5024296438e+01    0.2086341     0.191754 -26.18 0.0002966283    1.095    0.086
        51  -9.4885    211.2548    163.0135   7.4062595377e+01   7.1012625217e+00    0.1936097    0.1725919 -15.18 0.0003242693    1.036    0.034
        52 -11.2437    169.2088     54.4300   5.4525242999e+01   3.6070477147e+01    0.2888692    0.2319306  25.21  0.001083364    1.462    0.316
        53 -12.8339    176.8038     48.1271   5.1348849783e+01   3.5103554613e+01    0.7276947    0.3737828 -36.47  0.003141902    1.931    0.482
        54 -12.4261    147.0961     44.2191   5.5700401253e+01   4.3016491003e+01     0.422873    0.3550808 -58.48  0.001860603    1.322    0.243
        55 -12.0238    235.2921    156.6089   6.8248773269e+01   3.8437725909e+00    0.4001391    0.3239038  15.46  0.002313098    1.251    0.200
        56 -11.3258    162.8903     53.2152   5.5354576721e+01   3.7817143217e+01    0.3229489    0.1940635  48.98  0.001445987    1.632    0.387
        57 -11.8008    166.6890     35.3383   4.9288413344e+01   3.9331013000e+01     0.659339    0.2683645 -24.17  0.002454469    2.962    0.662
        58 -10.7321    159.1583     33.2960   4.9950219385e+01   4.1463042129e+01    0.2332048    0.1962817  -2.90 0.0006558886    1.379    0.275
        59 -10.6469    133.5036     30.5072   5.3988066115e+01   4.8116855725e+01    0.2420502    0.1390088  -9.53  0.001034888    2.334    0.571
        60  -9.7036    161.9643     27.4605   4.7689341240e+01   4.1462971268e+01    0.1923399    0.1140869 -83.49 0.0004208771    2.337    0.572
        61 -12.4055     68.3994    143.3928   1.0484212030e+02   3.7646357870e+01    0.9749342    0.7489761  61.84  0.004954546    1.395    0.283
        62 -11.2372    178.6428     24.3440   4.4278154708e+01   3.7675065772e+01    0.5381559     0.404305  75.02  0.002980119    1.243    0.195
        63 -10.8597    130.0444     23.1346   5.2155515553e+01   4.9802153265e+01    0.2349001    0.2031471 -50.18 0.0006608402    1.314    0.239
        64  -9.8546    243.3034    193.6546   7.4372414325e+01  -3.3096982893e+00    0.1134768    0.1022469 -54.40 0.0007040294    1.688    0.408
        65 -11.2939    236.6754    190.1400   7.4866508433e+01  -1.7598581371e+00    0.2161359    0.1768323  35.40  0.001131219    1.387    0.279
        66  -8.8396     55.5049    187.5621   1.1418451646e+02   2.8763501013e+01     0.127386    0.1114594  81.64 0.0002099131    1.040    0.038
        67  -8.9229    192.2350    181.3883   8.1714823253e+01   7.3031447085e+00    0.1863555    0.1297555  45.96 0.0002651328    1.528    0.345
