#   1 NUMBER                 Running object number                                     
#   2 MAG_AUTO               Kron-like elliptical aperture magnitude                    [mag]
#   3 X_IMAGE                Object position along x                                    [pixel]
#   4 Y_IMAGE                Object position along y                                    [pixel]
#   5 X_WORLD                Barycenter position along world x axis                     [deg]
#   6 Y_WORLD                Barycenter position along world y axis                     [deg]
#   7 A_WORLD                Profile RMS along major axis (world units)                 [deg]
#   8 B_WORLD                Profile RMS along minor axis (world units)                 [deg]
#   9 THETA_WORLD            Position angle (CCW/world-x)                               [deg]
#  10 FWHM_WORLD             FWHM assuming a gaussian core                              [deg]
#  11 ELONGATION             A_IMAGE/B_IMAGE                                           
#  12 ELLIPTICITY            1 - B_IMAGE/A_IMAGE                                       
         1 -14.7747      7.8527     21.7686   1.1904303554e+02   6.8843939539e+01     1.325726    0.5483648 -35.28  0.007739189    1.877    0.467
         2 -11.8666     83.7902     22.7356   9.0552396538e+01   5.9203172156e+01    0.3542864     0.230264  -1.93  0.001965852    1.665    0.399
         3 -11.9740     87.0533     11.4765   8.5195662096e+01   5.9822658329e+01    0.4122073    0.2311959  57.43  0.001720242    2.004    0.501
         4 -11.4933     75.3024     13.4113   8.9452255427e+01   6.1736237323e+01      0.21478    0.1894214   9.30 0.0006659436    1.143    0.125
         5 -10.8304    124.0917     10.1376   7.5767507166e+01   5.2298784355e+01    0.1962203    0.1511056  35.55  0.000425931    1.199    0.166
         6 -10.9149    137.9795      6.2304   7.1828009763e+01   4.9480229082e+01    0.1787527   0.09499518  62.89 0.0008774782    1.639    0.390
         7 -11.1540     33.2583      3.9861   1.0055610285e+02   6.8876118361e+01    0.1582581    0.1148945  -6.10 0.0007534891    1.050    0.048
         8 -11.4684     96.0153      3.4896   7.9709915645e+01   5.8819891798e+01    0.1903423    0.1045117  51.88  0.001031637    1.590    0.371
         9 -11.9832     73.3403      1.4741   8.5106266971e+01   6.3227670381e+01    0.2208831     0.122297  48.32 0.0005537584    1.685    0.407
        10 -10.8126     81.4987     34.9964   9.5922504848e+01   5.8036209148e+01    0.1868927    0.1175432 -30.12 0.0006206111    1.543    0.352
        11 -13.7869    244.2814    246.6490   1.0981205037e+02  -1.2827111017e+01    0.8203512    0.3742878  28.85  0.004209119    2.065    0.516
        12 -13.7455    232.4480    238.1004   1.1046593021e+02  -9.9379985837e+00    0.3865802    0.3489642 -41.73  0.002321286    1.497    0.332
        13 -13.5458    191.7582    217.3706   1.1452574205e+02   1.2189243798e-01    0.4468127    0.3281802  23.76  0.001976825    1.402    0.287
        14 -11.4142    250.1841    198.7300   1.0010832582e+02  -7.2647412837e+00    0.5165347    0.1637681 -38.45  0.002010091    3.087    0.676
        15 -12.0401    244.9352    192.2022   9.9753821942e+01  -5.3838601481e+00    0.3857172    0.2495818  27.62  0.002050888    1.568    0.362
        16 -13.1961    238.2938    194.1963   1.0134196898e+02  -4.5419217453e+00     1.041512    0.4486393 -41.11  0.004509968    2.385    0.581
        17 -14.8623    193.1173    197.9838   1.1074106320e+02   3.2192104889e+00     1.507061     1.195882  -6.80  0.006542241    1.486    0.327
        18 -12.8247     71.1504    198.5652   1.3642897444e+02   2.4983012403e+01    0.2889538    0.2320571  20.40    0.0017067    1.873    0.466
        19 -12.3585    212.2889    189.7964   1.0535610415e+02   9.6905597056e-01    0.8950149    0.2649824  42.85  0.003024594    3.253    0.693
        20 -10.3195    142.5302    207.5235   1.2282701493e+02   1.1134078547e+01     0.139269    0.1239268  59.25 0.0008094387    1.005    0.005
        21 -10.8095    177.7962    184.5774   1.1130496674e+02   8.7749590481e+00    0.2023633    0.1329994  54.38  0.000595662    1.588    0.370
        22 -13.0919    232.0694    192.5628   1.0215780307e+02  -3.1748984870e+00    0.7511609    0.5253741  25.43  0.004046212    1.439    0.305
        23 -11.2918     34.2501    177.0407   1.4165595479e+02   3.4393284139e+01    0.2153093    0.1543364 -21.19   0.00119355    2.665    0.625
        24 -11.8824    217.6277    173.9696   1.0108428105e+02   2.7306213401e+00    0.4117249    0.4017136 -69.39  0.002443364    1.180    0.152
        25 -12.0494     89.8190    168.3050   1.2808907474e+02   2.8990522895e+01    0.3483828    0.1913376 -67.05  0.001335291    1.807    0.447
        26 -10.9587    180.3405    167.7804   1.0733970866e+02   1.1599066571e+01     0.210484    0.1923226  59.15 0.0007780619    1.112    0.101
        27 -11.7874    211.8634    164.6773   1.0022132608e+02   5.5957436137e+00    0.6139023    0.3297791  30.41   0.00243128    2.376    0.579
        28 -11.7594     48.0080    166.5040   1.3744899776e+02   3.5223730189e+01    0.1793434    0.1216916  42.36  0.001039518    1.613    0.380
        29 -10.7924     86.4940    162.4766   1.2791189179e+02   3.0874734955e+01    0.2514442    0.1134874 -50.19  0.001027761    2.265    0.559
        30 -12.8398    199.9788    155.1478   1.0049249059e+02   9.9230623076e+00    0.9339933     0.498192 -34.41  0.003773002    2.023    0.506
        31 -13.7461    192.0589    152.9232   1.0161920023e+02   1.2081330311e+01     1.195375     0.716966 -27.49  0.004871114    2.078    0.519
        32 -11.4028     46.5112    160.0139   1.3694837854e+02   3.6892904659e+01    0.1897438   0.09561196  88.10 0.0008104902    2.569    0.611
        33 -12.8219     74.7520    157.7642   1.2994946598e+02   3.3749564347e+01    0.3977779    0.2754596 -47.76  0.002094979    1.562    0.360
        34 -13.0402     80.8929    150.3497   1.2719312108e+02   3.4588522760e+01      0.46771    0.3658487 -52.22  0.002584892    1.280    0.219
        35 -10.1069     91.3079    151.6696   1.2484725580e+02   3.2645102304e+01    0.1485648    0.1049732  81.43 0.0007039821    1.663    0.399
        36 -13.9201     58.9176    145.5316   1.3185390245e+02   3.8771686609e+01     1.135311    0.4930538  54.25  0.004612026    2.976    0.664
        37 -13.2074     51.7884    143.1899   1.3326158036e+02   4.0191126793e+01    0.5738529    0.3556103  52.23  0.003074069    1.774    0.436
        38 -13.9756    131.8427    104.8230   1.0366559605e+02   3.5718734280e+01    0.7302577    0.4577741 -29.29  0.003028177    1.936    0.483
        39 -13.3166    141.2158    138.1804   1.0966257611e+02   2.6368077504e+01    0.6268575    0.5084093   5.95  0.002950357    1.654    0.395
        40 -15.4033    147.4204    122.8084   1.0445940475e+02   2.8432038600e+01     3.107691     2.383618  67.86    0.0144142    1.487    0.328
        41 -11.3328     41.8883    135.0837   1.3449841471e+02   4.3186583919e+01    0.1973201    0.1529473 -88.20 0.0006005901    1.233    0.189
        42 -12.4213     76.8513    140.8728   1.2650153419e+02   3.7427771194e+01    0.5284938    0.2835081 -60.22  0.002434731    1.685    0.406
        43 -11.5296     50.1574    129.8494   1.3149337815e+02   4.3494007279e+01     0.198656    0.1644285 -89.04 0.0007486957    1.194    0.163
        44 -11.4663    214.3142    141.3253   9.4526394390e+01   9.4995155932e+00    0.1526031    0.1176789   3.84 0.0003773013    1.665    0.400
        45 -13.0208    121.0863    127.3851   1.1214917901e+02   3.2950892189e+01    0.4492008    0.2983225  47.29  0.001887303    1.550    0.355
        46 -13.8728    109.4863    121.1374   1.1369428005e+02   3.6608419919e+01    0.5958273    0.4472839  77.18  0.002812885    1.705    0.413
        47 -12.6533    202.9900    120.5373   9.1773408291e+01   1.6064334364e+01     0.310341    0.2233409 -22.31  0.001393642    1.650    0.394
        48 -16.0089    116.6884    102.1819   1.0693726943e+02   3.9421140309e+01     1.661191      1.32288 -50.83  0.008411764    1.232    0.189
        49 -12.6434     75.0535    112.2414   1.2111954308e+02   4.4360682422e+01    0.3124588    0.2271523 -31.35  0.001159696    1.556    0.357
        50 -14.5921    105.3720    101.2550   1.0979217511e+02   4.1800087640e+01    0.6706657    0.6317313 -10.75  0.003251144    1.108    0.097
        51 -13.3229     17.1757    101.0602   1.3566368448e+02   5.3065224857e+01    0.3751996    0.3417636 -74.06  0.002787363    1.179    0.152
        52 -12.1514     54.8390     94.9188   1.2309673401e+02   5.0873855687e+01    0.3126741    0.2584918 -39.69  0.001200443    1.111    0.100
        53 -10.9349     33.9427     96.0232   1.2973703090e+02   5.2806757307e+01    0.1427041    0.1260113 -49.81 0.0003381988    1.090    0.083
        54 -14.3540     97.7807     90.1753   1.0891851459e+02   4.5528978317e+01    0.7590017    0.3925372 -48.52  0.003253708    1.866    0.464
        55 -13.9337     90.4619     86.5197   1.1003597292e+02   4.7554219453e+01    0.4907077    0.3576321  -8.76  0.002422635    1.762    0.432
        56 -12.2592     39.8674     93.2356   1.2732979630e+02   5.2853898572e+01    0.2630309    0.1238618 -40.59  0.001246708    2.090    0.521
        57 -13.9762     77.1370     89.0013   1.1474452775e+02   4.9162488267e+01    0.7241745    0.2571781 -56.82  0.002410458    3.558    0.719
        58 -12.4737     74.5003    102.5057   1.1899669407e+02   4.6629339226e+01    0.2790571    0.1385383  35.34  0.001233346    2.243    0.554
        59 -11.2287    128.9007     83.1363   9.8315061579e+01   4.0755402522e+01    0.2189859    0.2034811 -74.82 0.0004093903    1.183    0.154
        60 -10.2691     35.5153     79.5981   1.2558455738e+02   5.6157020112e+01    0.1223679    0.1008689 -43.91 7.424755e-05    1.019    0.019
        61 -12.3051     55.0039     74.0837   1.1768961884e+02   5.5209101958e+01    0.2152278    0.1627614 -43.39  0.001292032    1.140    0.123
        62 -10.4168     42.4304     77.8255   1.2286314128e+02   5.5849541093e+01    0.1781939   0.09524737 -44.56  0.000442712    1.560    0.359
        63 -14.6300     95.3572     72.9582   1.0455972908e+02   4.9375463804e+01    0.8126287    0.5434046  28.58  0.002021097    1.641    0.391
        64 -11.2297     66.5002     76.4674   1.1460068446e+02   5.3255770686e+01    0.1328387    0.1164852 -32.34 6.447808e-05    1.007    0.007
        65 -12.4377    120.8784     73.5956   9.7552620466e+01   4.4264316478e+01    0.2667101    0.2080431 -45.40 0.0004004324    1.316    0.240
        66 -12.3821     59.8563     71.1273   1.1523425461e+02   5.5189654900e+01    0.1921661    0.1750476 -55.59  0.001062975    1.243    0.195
        67 -13.0057     73.1169     75.1209   1.1208673215e+02   5.2585048159e+01    0.2631744    0.2020467  13.73 0.0009786243    1.446    0.309
        68 -12.8675     83.2146     68.4510   1.0686550502e+02   5.2297886483e+01    0.2513277     0.177703 -39.99 0.0005736523    1.322    0.244
        69 -10.2981     20.8846     66.6317   1.2737489833e+02   5.9995106436e+01    0.1311148    0.1059692  33.85 0.0001733482    1.582    0.368
        70 -12.5722    125.4828     57.6970   9.1354752781e+01   4.6002896848e+01    0.3200486    0.2638756  33.61 0.0006388713    1.192    0.161
        71 -10.9906     52.6788     56.9822   1.1338347878e+02   5.8742930624e+01     0.178597     0.141826 -33.79 0.0005390047    1.086    0.080
        72 -12.9819     67.3268     54.1267   1.0739088568e+02   5.7303119762e+01    0.3991997    0.2607791 -49.24  0.002172548    1.677    0.404
        73 -11.3178    132.9483     53.5423   8.8186627997e+01   4.4985566351e+01    0.2710951    0.2132938  33.90 0.0008094676    1.277    0.217
        74 -11.1174    145.5125     51.0035   8.4512085206e+01   4.2445438703e+01    0.2208951    0.1893514  51.94 0.0005545166    1.105    0.095
        75 -10.2362     95.7039     49.3299   9.6722685632e+01   5.3387243489e+01    0.1264752    0.1085919 -70.78 0.0007026283    1.635    0.389
        76 -13.2354     42.1034     46.1559   1.1367825628e+02   6.1859831985e+01    0.5892044    0.3239498 -44.53  0.002089936    1.614    0.380
        77 -11.9303      2.5081     46.7578   1.2903307335e+02   6.4935833559e+01    0.2120458    0.1588302 -40.09 0.0009269135    1.033    0.032
        78 -10.8258    156.8748     43.8694   7.9974193997e+01   4.0726969788e+01    0.2047914    0.1805055  35.07 0.0004641408    1.170    0.145
        79 -10.6769    102.0658     43.5064   9.2859535328e+01   5.3044598374e+01    0.1934689    0.1266385  45.19 0.0003620194    1.487    0.328
        80 -12.5576    225.8387    247.9737   1.1328345588e+02  -1.0179463195e+01    0.2503187    0.2070107 -36.86  0.001715466    1.512    0.339
        81  -9.9750    176.4173     33.4983   7.3472431186e+01   3.7262078031e+01    0.1386871     0.127436  74.50 4.595128e-05    1.017    0.017
        82 -10.8523     78.5336     31.0252   9.5369127459e+01   5.9080524456e+01    0.1923016    0.1151066 -28.61   0.00103953    1.617    0.382
        83 -11.9009    193.8932    248.7738   1.1920992826e+02  -5.0887184112e+00    0.2168492    0.1688803 -87.46  0.001264913    2.162    0.537
        84 -11.3654     63.0504     17.3257   9.5079816470e+01   6.3295546051e+01    0.2835725    0.2106191  56.03   0.00174082    1.995    0.499
        85 -11.1956     81.9455     13.8424   8.7608075020e+01   6.0521196380e+01     0.195856    0.1386001  21.85 0.0006087534    1.271    0.213
        86 -12.1006    184.5040    246.9611   1.2067376468e+02  -3.2383520257e+00    0.1668501    0.1256578 -41.87  0.001035704    1.598    0.374
        87 -13.5378    244.4052    235.4278   1.0788521134e+02  -1.1447069046e+01    0.3620193    0.2960165  51.56  0.002370675    1.678    0.404
        88 -13.3871    238.3279    234.0918   1.0872921093e+02  -1.0334006109e+01    0.3398256    0.2241444  44.35  0.001698246    1.606    0.377
        89 -13.2759    187.7598    232.5179   1.1782806596e+02  -1.6065223024e+00     0.338435    0.2313179  40.49  0.001924946    1.256    0.204
        90 -14.8010    245.9700    219.1297   1.0470614412e+02  -9.5168704227e+00     1.295306    0.7778345 -30.72  0.006609074    1.664    0.399
        91 -15.0099    177.9647    212.5829   1.1642823459e+02   3.5103030497e+00     1.134959    0.7445677  -3.30  0.004917714    2.771    0.639
        92 -15.2737    205.3804    206.5753   1.0992763399e+02  -5.9240547720e-01     1.966563     1.271078  23.78  0.009794584    1.710    0.415
