#   1 NUMBER                 Running object number                                     
#   2 MAG_AUTO               Kron-like elliptical aperture magnitude                    [mag]
#   3 X_IMAGE                Object position along x                                    [pixel]
#   4 Y_IMAGE                Object position along y                                    [pixel]
#   5 X_WORLD                Barycenter position along world x axis                     [deg]
#   6 Y_WORLD                Barycenter position along world y axis                     [deg]
#   7 A_WORLD                Profile RMS along major axis (world units)                 [deg]
#   8 B_WORLD                Profile RMS along minor axis (world units)                 [deg]
#   9 THETA_WORLD            Position angle (CCW/world-x)                               [deg]
#  10 FWHM_WORLD             FWHM assuming a gaussian core                              [deg]
#  11 ELONGATION             A_IMAGE/B_IMAGE                                           
#  12 ELLIPTICITY            1 - B_IMAGE/A_IMAGE                                       
         1 -13.7964    239.8295    127.8485   8.9400923138e+01   7.2827454167e+00     10.37852     1.806861 -32.32   0.02317395    7.313    0.863
         2 -13.9968    140.9474     36.4521   8.1734823172e+01   4.6101692364e+01        9.312     2.354696  49.21   0.02800551    3.673    0.728
         3 -15.0197    206.9753     58.9548   7.7065418983e+01   2.5929419643e+01     8.305933     4.957467  -2.47   0.03068498    3.036    0.671
         4 -14.9950    248.2679     24.4164   6.3335289244e+01   2.0615179919e+01     1.360889    0.6331576 -39.48  0.003473109    1.824    0.452
         5 -12.5238    210.8183     11.4421   6.3530850291e+01   3.1105568823e+01    0.8847103      0.38324 -31.30  0.002157709    2.214    0.548
         6 -13.0619    122.3726     13.4706   7.7108215815e+01   5.3389987618e+01     2.290833      1.68819  74.34   0.01222232    1.495    0.331
         7 -15.6075    245.4366      8.1991   5.9754277880e+01   2.3126526162e+01     3.390498    0.7151276  62.82  0.007078263    4.094    0.756
         8  -9.5298    151.9525     14.1294   7.1844463368e+01   4.5980830261e+01    0.3359424    0.1791736 -32.84 0.0006383425    1.919    0.479
         9  -9.8463      8.9983      9.0434   1.1682376539e+02   7.2898711542e+01    0.1821903   0.09933425 -24.78 0.0007209915    1.665    0.399
        10  -9.4146      2.5063      6.9959   1.1950670928e+02   7.3695054819e+01    0.3207895   0.09929352 -29.17  0.001228529    4.676    0.786
        11 -15.2783    222.4165     40.3577   6.9960225505e+01   2.4727289568e+01     3.337181     2.832475 -35.83   0.01891242    1.176    0.150
        12 -10.1253    210.5261      1.7219   6.0978241321e+01   3.2172363895e+01    0.3668867    0.1945323 -87.92  0.001678324    1.937    0.484
        13  -9.0163    172.0358      2.7695   6.5272843259e+01   4.1892853114e+01    0.2924893    0.1595055 -44.71 0.0009115542    1.904    0.475
        14  -7.8733    154.2500      4.6707   6.8256720896e+01   4.6299992980e+01    0.1360996    0.0975127 -57.84 0.0002679857    1.548    0.354
        15  -9.1974     51.9855      2.5430   9.2668975761e+01   6.8719825014e+01     0.250636      0.14878 -24.11 0.0009174697    1.530    0.347
        16 -14.2667    168.5827     61.3668   8.4348570231e+01   3.5351156763e+01     7.824055     2.333859 -50.22   0.01225382    6.941    0.856
        17  -7.7381    218.6611      1.3050   6.0175206037e+01   3.0203921017e+01    0.1443412    0.0835269 -63.22 0.0005309429    1.676    0.403
        18  -7.9785    150.4911      1.5037   6.7721207917e+01   4.7533881877e+01    0.1361408    0.1237315  66.25  0.000810616    1.005    0.005
        19  -8.3761    133.2879      1.5814   7.0455980340e+01   5.1840383589e+01    0.1935984    0.1097027  54.98 0.0009380309    1.542    0.351
        20  -8.6369    203.3718    160.8155   1.0319841491e+02   9.2374889147e+00    0.2311611    0.1906959  53.06 0.0008845509    1.294    0.227
        21  -9.1835     58.3712    249.1759   1.4329392675e+02   1.8055520435e+01    0.1806154    0.1232558  59.54 0.0004228097    1.080    0.074
        22  -8.3086    237.4893    249.5113   1.1289272822e+02  -8.6439555711e+00    0.1111169   0.08283214  21.96 1.731803e-05    1.013    0.013
        23 -10.0854    190.6209    135.1384   9.9982050395e+01   1.6529996813e+01    0.4871009    0.3246927  12.26   0.00127896    2.327    0.570
        24  -8.1698    192.2266    143.9716   1.0169471711e+02   1.4544468015e+01     0.200294    0.1855067 -31.16 0.0003345176    1.085    0.079
        25  -8.4906     36.3705    227.1949   1.4556461931e+02   2.4540163596e+01    0.1599135    0.1227111  55.37  0.000572895    1.293    0.227
        26  -7.5817    119.3046    132.6566   1.1552619207e+02   3.2235054145e+01     0.154447    0.1136337  87.03  0.000704104    1.686    0.407
        27  -9.5135    213.3605    130.8953   9.4641553766e+01   1.2323002214e+01    0.2568353    0.2054644  62.70  0.001319667    1.434    0.303
        28  -8.5924    123.2667    128.9708   1.1372121918e+02   3.2287601411e+01    0.1966397    0.1825939 -61.88 0.0002055241    1.060    0.057
        29  -8.9841    135.9002    127.3945   1.1025214131e+02   3.0066558104e+01    0.3477684    0.1936597 -43.63  0.001438243    1.835    0.455
        30 -11.0013    189.5832    123.8832   9.7488633719e+01   1.8872714495e+01    0.4510146    0.3639879  64.52  0.001382679    1.368    0.269
        31 -11.7991    184.9656    121.3188   9.7786630855e+01   2.0412116961e+01     0.804336    0.4637403 -32.98  0.003338177    1.836    0.455
        32  -9.8904    205.9942    123.2582   9.4169741176e+01   1.5285014324e+01    0.4269522    0.2513957  43.42  0.001865711    1.759    0.431
        33  -8.7572    135.2345    120.1130   1.0866959617e+02   3.1792275734e+01    0.4381299    0.1246252 -44.39  0.001276455    3.560    0.719
        34 -10.5678    215.2292    116.8509   9.0931652674e+01   1.4348546308e+01    0.9091451    0.5089378  72.04  0.003318821    3.096    0.677
        35  -8.5227     66.9665    118.5816   1.2651173176e+02   4.4201447407e+01    0.2569321    0.1684634 -81.02 0.0007848609    1.641    0.391
        36  -8.7663    134.8030    113.2658   1.0706404325e+02   3.3369672444e+01    0.4530651    0.1849262 -52.56  0.001523009    2.704    0.630
        37 -10.9781    205.2883    110.6125   9.1164024676e+01   1.7700697694e+01    0.6070602    0.3928751  31.51  0.002482164    1.901    0.474
        38  -9.2503    134.8618    107.0935   1.0544474206e+02   3.4684963412e+01     0.373067    0.2229288 -44.48  0.001580083    1.644    0.392
        39  -8.4856    150.3261    104.9058   1.0110857071e+02   3.1686056069e+01    0.2547425    0.1658845 -80.38 0.0009275248    2.657    0.624
        40  -8.1633    140.9673    103.5008   1.0297195553e+02   3.4099122694e+01     0.238987    0.1532755  47.83  0.001030651    1.585    0.369
        41  -9.4124    121.9989    101.4812   1.0724481901e+02   3.8630326341e+01    0.3554976    0.1918181 -62.28  0.001298719    2.515    0.602
        42  -9.4153    147.3268     98.8074   1.0014676419e+02   3.3624912643e+01    0.3077975    0.2647837 -23.13 0.0007511438    1.270    0.213
        43  -9.2101    133.9063     96.6905   1.0284660394e+02   3.7096016015e+01    0.4426033    0.2495003 -51.70   0.00178806    1.851    0.460
        44  -8.7262    228.6680     97.5812   8.3913113569e+01   1.4577522447e+01    0.3132144    0.2205316 -85.05 0.0007346918    2.037    0.509
        45  -9.9621    156.8491     91.4403   9.5851844011e+01   3.2856507584e+01    0.5202169    0.3580325  24.29  0.002168643    1.985    0.496
        46  -9.9823    166.6016     87.7434   9.2644180242e+01   3.1201827599e+01    0.5365762    0.3189865 -66.17   0.00161566    2.640    0.621
        47  -9.8909    140.6302     88.0946   9.8699442531e+01   3.7333997231e+01    0.3292139    0.3099839 -61.73  0.001041443    1.066    0.062
        48 -11.2529    154.9728     80.9462   9.3200765677e+01   3.5316360896e+01    0.3720749    0.3259227 -13.39 0.0006424938    1.261    0.207
        49 -10.5510      4.0818     81.6876   1.3911143162e+02   5.8714625241e+01    0.3581526    0.2165464  74.72  0.002099024    1.990    0.497
        50  -7.6371    201.2289    221.9913   1.1482516152e+02   2.0192887242e-01    0.1366245    0.1011054 -33.18 0.0003552962    1.558    0.358
        51  -8.6162     58.3107    214.6628   1.4076550660e+02   2.4227226039e+01    0.1255006    0.0673943  68.55 0.0007044657    1.685    0.407
        52  -8.3342    150.8670     70.1516   9.0816377680e+01   3.8294930814e+01    0.2403549    0.2052587 -66.56 0.0007544805    1.279    0.218
        53  -7.9643    153.9766     67.9867   8.9444729887e+01   3.7911253473e+01    0.2136272    0.2048407  56.23 0.0003525706    1.046    0.044
        54  -9.2338      2.0000     64.9708   1.3698190241e+02   6.2480638400e+01    0.1955846   0.05078009 -67.90 0.0007993102    2.921    0.658
        55  -8.4557     33.5201    213.5675   1.4519634281e+02   2.7409642003e+01    0.1128605   0.08070822  72.41 7.732202e-05    1.016    0.016
        56  -9.0178    186.5194     57.9536   8.0042094418e+01   3.1290096164e+01    0.4163559    0.2273574 -55.87  0.001618491    2.209    0.547
        57  -8.5379    146.8383     56.1719   8.7210020145e+01   4.1677464488e+01    0.2221779    0.2001005 -68.56 0.0003606389    1.192    0.161
        58 -10.6133    132.7024     53.0709   8.9432626027e+01   4.5615064686e+01    0.3514253    0.3043503  81.95            0    1.316    0.240
        59  -9.8020    133.6279    147.4050   1.1518809728e+02   2.6177988495e+01     0.745901    0.2179641 -53.02  0.002259319    3.775    0.735
        60 -12.7787     13.6697    200.8480   1.4798030891e+02   3.1953004937e+01    0.9003057    0.4936216  76.88  0.005919203    1.423    0.297
        61  -8.8087    197.0643     43.7157   7.4216714521e+01   3.0662437262e+01    0.2687263    0.1712435 -57.22 0.0008639469    1.681    0.405
        62 -12.5116     17.7456    196.4412   1.4697200311e+02   3.2429983649e+01    0.7741881    0.3396209  82.06  0.003496674    2.062    0.515
        63  -9.8799    201.3222     32.9450   7.0549426438e+01   3.1001735001e+01    0.2986598    0.2025177 -44.32 0.0008722188    1.419    0.295
        64  -9.2564    202.8232     28.8254   6.9195203268e+01   3.1134046710e+01    0.2535805    0.2032556 -20.22 0.0003261424    1.393    0.282
        65 -10.3800    112.7920     29.1833   8.5563987608e+01   5.3774599376e+01    0.2397165     0.229686  15.10 0.0008343136    1.045    0.043
        66 -10.7898    143.0838    146.0596   1.1271789178e+02   2.4563927738e+01    0.5170811    0.3534187  86.78  0.002199698    2.192    0.544
        67  -9.8725    180.3683    198.0131   1.1475359976e+02   7.4302539633e+00    0.2292176    0.1701114  42.28 0.0002349556    1.195    0.163
        68 -10.9073     68.2980    144.6238   1.3064329356e+02   3.7905763719e+01    0.6903791    0.3808779  66.48  0.003058517    2.211    0.548
        69 -11.2213     28.9721    176.4438   1.4333383809e+02   3.5439445967e+01     3.847992      2.86744  12.44   0.02452283    2.255    0.557
        70 -12.8277     56.4124    166.0947   1.3636642964e+02   3.4569386998e+01    0.9559197    0.9460019  88.83  0.003302543    1.374    0.272
        71  -8.7974    192.4655    193.9513   1.1173162966e+02   5.8607670508e+00    0.1748667    0.1168696 -67.51 0.0008095017    2.607    0.616
        72  -9.4926    221.6307    191.2803   1.0587953546e+02   9.9260530726e-01    0.2105274    0.1867346  51.31 0.0005714065    1.355    0.262
        73 -10.8858    216.2446    189.0787   1.0643180247e+02   2.2729042024e+00    0.5763444      0.30711  55.26  0.001731013    2.484    0.597
        74  -8.0649    190.5881    181.1734   1.0974133142e+02   8.3004774490e+00    0.1804366    0.1291111 -25.43 0.0009398973    1.586    0.370
        75 -11.6768    190.6894     66.3735   8.1784494853e+01   2.8892685538e+01     1.043468    0.5048352  35.58  0.003445236    3.306    0.698
        76  -9.9632    221.5362    177.4433   1.0323569551e+02   3.0536822780e+00    0.4113581    0.3101962 -76.26  0.002045578    2.460    0.594
        77  -9.4500    219.7557    170.4429   1.0215204696e+02   4.4633433999e+00    0.3405547    0.2799584  89.12  0.001844492    1.901    0.474
        78  -9.1650    125.9833    144.0238   1.1629935347e+02   2.8412986447e+01    0.2121585    0.1975082  84.75  0.001182237    1.022    0.021
        79 -12.7448     45.4326    175.8803   1.3982758838e+02   3.3749845355e+01    0.6993134    0.6490731  -4.93  0.002990869    1.672    0.402
        80  -9.9506    230.2203    167.0434   9.9599014026e+01   3.0240639322e+00    0.2881946    0.1703872 -40.21 0.0009915446    1.765    0.433
