#   1 NUMBER                 Running object number                                     
#   2 MAG_AUTO               Kron-like elliptical aperture magnitude                    [mag]
#   3 X_IMAGE                Object position along x                                    [pixel]
#   4 Y_IMAGE                Object position along y                                    [pixel]
#   5 X_WORLD                Barycenter position along world x axis                     [deg]
#   6 Y_WORLD                Barycenter position along world y axis                     [deg]
#   7 A_WORLD                Profile RMS along major axis (world units)                 [deg]
#   8 B_WORLD                Profile RMS along minor axis (world units)                 [deg]
#   9 THETA_WORLD            Position angle (CCW/world-x)                               [deg]
#  10 FWHM_WORLD             FWHM assuming a gaussian core                              [deg]
#  11 ELONGATION             A_IMAGE/B_IMAGE                                           
#  12 ELLIPTICITY            1 - B_IMAGE/A_IMAGE                                       
         1 -14.2085    202.4538     18.5892   6.2815755805e+01   3.2603986341e+01      2.24899       1.5926  24.02   0.01067918    2.291    0.563
         2 -11.8221      2.2664     13.6135   1.1481879154e+02   7.0754765848e+01    0.5204749    0.1665857 -47.34   0.00266501    2.898    0.655
         3 -11.4452      2.1033      5.5128   1.1153796856e+02   7.1870562376e+01    0.4910111    0.1441393 -41.22  0.002568852    2.778    0.640
         4 -13.7604    208.9583     12.1038   6.0621947991e+01   3.1796420222e+01     1.726686    0.9650115  41.54  0.001360687    2.642    0.622
         5 -11.3185     90.5110    246.5181   1.3497303466e+02   1.1775399648e+01    0.3343924    0.2762794  44.02  0.000704142    1.319    0.242
         6 -11.3024    247.9883    248.9992   1.0537499734e+02  -1.4130813863e+01    0.4425828    0.2282391  26.40  0.002470274    1.777    0.437
         7 -12.2748    139.2072    248.3039   1.2582028715e+02   3.4977124215e+00    0.7660112    0.3775966 -60.93  0.003646803    2.612    0.617
         8 -11.8044    125.1315    244.8785   1.2812379453e+02   6.4876070982e+00    0.3144506    0.2253226  33.05  0.001807413    1.489    0.328
         9 -11.9486    122.3549    249.0069   1.2917746896e+02   6.2049725425e+00    0.8345385    0.2365167  52.57  0.002666643    4.420    0.774
        10 -12.9959     93.5027    250.4803   1.3482627299e+02   1.0569306628e+01     1.284256    0.5400599  31.79  0.004540794    3.639    0.725
        11 -14.0002     87.8485    243.0476   1.3511194279e+02   1.2848836561e+01     2.342837    0.3855705  43.75 0.0006926166    4.385    0.772
        12 -14.6946     28.7433    244.3186   1.4586217681e+02   2.0617323029e+01     12.06174     3.383678  30.87   0.03100228   12.232    0.918
        13 -15.7475      8.2717    199.4632   1.4635243612e+02   3.2021875578e+01     8.529788     1.573488 -71.94   0.01990007    3.952    0.747
        14 -14.7308     47.4402    216.1923   1.4021233189e+02   2.4075740642e+01     1.920249     1.484514 -78.58  0.007559866    1.221    0.181
        15 -12.8864      4.3382    235.1176   1.4935315255e+02   2.5069441645e+01      2.25671    0.3611814 -73.22  0.007807984    4.598    0.783
        16 -11.0640    103.8156    237.3887   1.3138732723e+02   1.1428538822e+01    0.2582567    0.1860821  26.42  0.001085343    1.842    0.457
        17 -10.3514    190.6035    250.2018   1.1613861203e+02  -5.5070653095e+00    0.2501146   0.08449449  42.53  0.001025347    2.553    0.608
        18 -13.3259     75.4542    228.8918   1.3600476094e+02   1.7541164972e+01     1.394321     1.156051 -36.80  0.005165546    1.870    0.465
        19 -12.2151     25.2958    233.5632   1.4571554785e+02   2.3134705281e+01    0.5075511    0.3472466  75.14  0.002004785    1.093    0.085
        20  -9.7453     78.2193    210.3574   1.3333760076e+02   2.1070029652e+01    0.3851497    0.1661866 -63.59  0.001721058    2.257    0.557
        21 -10.8584    100.0180    238.4363   1.3225598524e+02   1.1836908695e+01    0.2344492    0.1818479 -78.48 0.0006845456    1.329    0.248
        22 -10.6253    228.0894    204.5883   1.0100952614e+02  -4.6360390383e+00    0.3114643    0.2259395 -53.54 0.0006759031    1.786    0.440
        23 -10.7295     28.3730    204.8039   1.4290792657e+02   2.8810116872e+01    0.2597973    0.1368059  50.75  0.001350835    1.757    0.431
        24 -10.1438    192.4932    193.9934   1.0595453842e+02   3.7322343091e+00    0.4974084    0.2738943 -65.32  0.001718405    3.790    0.736
        25 -11.7016     65.6812    193.2643   1.3392034539e+02   2.6735788426e+01    0.4065981    0.2544039 -48.61  0.001349182    1.929    0.482
        26 -11.8102     70.9021    186.0115   1.3180254772e+02   2.7670472278e+01     0.303059     0.251015 -52.04 0.0006532457    1.389    0.280
        27  -8.6785    181.5203    192.4729   1.0794685936e+02   6.1629613042e+00    0.1439096    0.1369282  30.25 -5.961822e-06    1.004    0.004
        28 -11.1039     80.1888    174.2816   1.2791882550e+02   2.9054005884e+01    0.2478841    0.2339767  82.20 0.0004033724    1.123    0.110
        29 -13.3827     67.5440    171.5928   1.3054014092e+02   3.1553648535e+01    0.5280343    0.2875312 -45.10   0.00181263    2.238    0.553
        30 -10.2938    104.5179    173.0125   1.2184177586e+02   2.5343916916e+01    0.4086635     0.173603  49.86  0.001472108    2.486    0.598
        31 -12.1500     87.2829    166.0455   1.2484400842e+02   2.9910640527e+01    0.8649955    0.5483964  57.05   0.00252006    1.676    0.403
        32 -13.0207     67.7435    144.5504   1.2608317163e+02   3.8037236759e+01     1.236976    0.6961591 -87.00  0.002729794    2.636    0.621
        33 -12.2498     58.3372    133.3389   1.2658891941e+02   4.1980198695e+01     2.364842    0.7728117 -71.66  0.004855056    9.662    0.896
        34 -13.2021     53.3931    232.0673   1.4053207315e+02   1.9979072329e+01     2.514368     1.658036 -27.10    0.0108594    4.799    0.792
        35  -9.4970     99.8477    149.8661   1.1864877557e+02   3.1696137509e+01    0.2618153    0.2051241 -34.26 0.0007589602    1.504    0.335
        36  -9.0740    102.7728    145.7227   1.1704001096e+02   3.2172307970e+01     0.289773    0.1867842 -33.64  0.001235498    2.008    0.502
        37 -12.1586     88.4619    148.8762   1.2142118755e+02   3.3860792659e+01    0.2930503    0.2526633 -40.46 0.0006478871    1.274    0.215
        38 -10.8947     39.8490    147.1182   1.3378999261e+02   4.0851771571e+01    0.2421548    0.1933568  18.87  0.001466502    1.626    0.385
        39  -9.5130    110.7059    135.5992   1.1275030258e+02   3.3119963618e+01    0.3131212    0.2369251 -19.63  0.001201683    1.789    0.441
        40 -10.4912     98.1134    132.6375   1.1546911961e+02   3.6120267593e+01    0.2790348     0.228929 -28.31 0.0005850418    1.410    0.291
        41 -12.4005     63.1638    218.2620   1.3731379359e+02   2.1537563977e+01    0.5933323    0.2707047  51.71  0.002332963    1.971    0.493
        42  -9.3358    107.5140    122.9125   1.1064477136e+02   3.6685413597e+01    0.2004113    0.1974214 -67.21 0.0003046189    1.032    0.031
        43 -12.7133     40.0165    225.8133   1.4247840658e+02   2.2974861634e+01    0.3562069    0.2738135 -64.55 0.0007988803    1.517    0.341
        44  -9.6730    231.3257    168.6673   9.3173607611e+01   9.9895503907e-01    0.1377643    0.1117669 -74.94  0.000705117    1.711    0.416
        45  -9.5737    204.7275    110.7131   8.4965818845e+01   1.7631398472e+01     0.389645    0.2263061  33.57  0.001512869    2.465    0.594
        46 -10.8048    167.9794    113.0071   9.2993122538e+01   2.5785894172e+01    0.3857918    0.2930336 -81.34  0.001062241    1.665    0.399
        47 -10.5337     43.0122    104.8998   1.2544615085e+02   5.0371340008e+01    0.3846651    0.1321074  42.61  0.001471028    3.712    0.731
        48  -9.1533     11.0827     93.4715   1.3317520982e+02   5.5590416785e+01    0.1469419    0.1177316   9.80 0.0006827718    1.537    0.349
        49 -10.8819      1.9686     90.3498   1.3549101947e+02   5.6799393320e+01    0.3676587    0.1212366 -65.84  0.001699767    2.381    0.580
        50 -10.6312      1.9979     80.0252   1.3360042475e+02   5.8960007950e+01    0.2718683   0.09693971 -57.70  0.001377863    1.955    0.489
        51  -8.6475    184.6847     77.6437   8.0334564556e+01   2.8499321125e+01    0.1510217    0.1190961  18.10 0.0007044853    1.745    0.427
        52  -9.3012    157.4643     77.4660   8.5741413480e+01   3.5160040863e+01    0.1500757    0.1437375  79.94 7.775815e-05    1.022    0.021
        53  -9.7802    110.1924     43.2845   8.6511649748e+01   5.1324699509e+01    0.2459604    0.2092131  85.21 0.0006594399    1.539    0.350
        54 -10.4393    162.4777    249.6602   1.2147862668e+02  -6.9611787293e-01     0.240007    0.1024599  41.15 0.0008117509    1.964    0.491
        55 -10.1659    172.1913    245.6038   1.1899301755e+02  -1.6952367517e+00    0.1871786    0.1067312  32.82 0.0006879151    1.651    0.394
        56 -11.1621    155.5062    228.2724   1.1967779588e+02   4.2315049349e+00    0.3153407    0.2430892  33.70   0.00178401    1.246    0.198
