#   1 NUMBER                 Running object number                                     
#   2 MAG_AUTO               Kron-like elliptical aperture magnitude                    [mag]
#   3 X_IMAGE                Object position along x                                    [pixel]
#   4 Y_IMAGE                Object position along y                                    [pixel]
#   5 X_WORLD                Barycenter position along world x axis                     [deg]
#   6 Y_WORLD                Barycenter position along world y axis                     [deg]
#   7 A_WORLD                Profile RMS along major axis (world units)                 [deg]
#   8 B_WORLD                Profile RMS along minor axis (world units)                 [deg]
#   9 THETA_WORLD            Position angle (CCW/world-x)                               [deg]
#  10 FWHM_WORLD             FWHM assuming a gaussian core                              [deg]
#  11 ELONGATION             A_IMAGE/B_IMAGE                                           
#  12 ELLIPTICITY            1 - B_IMAGE/A_IMAGE                                       
         1 -10.8799     20.4223      7.3179   1.1907492787e+02   7.3682290626e+01     1.298429    0.8516613  55.91  0.006476583    2.961    0.662
         2 -11.0674     23.9908     32.0072   1.2779918255e+02   6.8123811508e+01     1.688361     0.419933 -48.00  0.003695546    2.924    0.658
         3 -10.1729     10.5312     18.6551   1.3090892358e+02   7.2082647626e+01     1.294601    0.3824722 -29.84   0.00387583    5.994    0.833
         4 -10.1683      4.9383     42.6837   1.4078626169e+02   6.6791241543e+01     1.031308    0.3696046 -78.68  0.003927824    2.820    0.645
         5  -9.1796    103.1169     21.8816   8.9043168924e+01   5.6819480799e+01    0.5644594    0.2624132 -32.51   0.00158053    2.050    0.512
         6  -9.9545     60.7595     32.1148   1.0940493581e+02   6.3600010782e+01    0.9289821    0.4228598 -34.12  0.003768827    2.202    0.546
         7  -9.8982     73.4750     17.5091   9.6834306799e+01   6.3876995645e+01     1.028763     0.247554 -33.94  0.003092449    3.817    0.738
         8  -9.2683     78.0482      4.3708   8.7887974111e+01   6.4709950229e+01    0.6037994    0.3083188  -8.50  0.002066941    2.301    0.565
         9 -10.3686     50.2306     15.5212   1.0610715480e+02   6.8342079380e+01     1.285232    0.6783887  -9.29  0.004605437    3.680    0.728
        10  -9.1424     96.5469      4.3911   8.2263694799e+01   6.0484590115e+01    0.4730695       0.2812 -39.92  0.001514051    1.885    0.470
        11  -8.3169     97.1524     11.4958   8.5727540435e+01   5.9548825491e+01    0.3967218    0.2459985   3.07  0.001769361    1.853    0.460
        12  -8.6900     95.9308     16.8561   8.8754375494e+01   5.9157877396e+01    0.3256715    0.2161221 -28.14 0.0004046946    1.450    0.310
        13  -9.5739     63.7564      2.9537   9.2438999884e+01   6.7847824436e+01    0.4188968    0.2730423 -48.95   0.00172078    2.138    0.532
        14  -9.5383     63.1801     21.4280   1.0316540236e+02   6.5162100440e+01    0.4353692    0.3209285 -47.20  0.001299182    1.530    0.346
        15 -10.0944     64.2997     13.1956   9.8248758043e+01   6.6301408018e+01    0.5545836    0.3391956 -26.11  0.002185891    1.508    0.337
        16  -9.5190    132.2408      4.7942   7.4677890602e+01   5.1474456425e+01    0.8053175    0.2771607  33.78  0.002312759    4.379    0.772
        17  -8.5148    120.8468      5.8611   7.7295299325e+01   5.4317045359e+01    0.3343635    0.2608981  75.30  0.001400918    1.422    0.297
        18 -10.0505    132.1405     16.3965   7.9591675051e+01   5.0335686017e+01    0.5970597    0.3555107  30.18  0.002570456    1.861    0.463
        19  -8.4176    132.7232     10.1715   7.6866443811e+01   5.0839922230e+01    0.3385554    0.2027041 -46.86 0.0008748295    1.925    0.481
        20  -9.6172    118.8376     20.6741   8.4355321838e+01   5.3191431176e+01    0.6611637    0.3723418 -11.42  0.002603642    1.985    0.496
        21  -8.5365    125.0228     13.0101   7.9606967999e+01   5.2526250135e+01    0.3107495    0.2534203   9.24 0.0009419929    1.218    0.179
        22  -8.5207    126.6103      9.1594   7.7605684721e+01   5.2518407888e+01     0.268719    0.2042584  16.23 0.0006605791    1.342    0.255
        23  -9.0046    125.6964      5.3938   7.6133625265e+01   5.3115905346e+01    0.4831223    0.2556425  23.17  0.001932521    2.286    0.563
        24  -9.0522    112.1844     15.2959   8.3560212220e+01   5.5486142829e+01    0.5025731    0.2159799 -35.72  0.001506059    2.326    0.570
        25  -8.9177    114.0072      9.9380   8.0643804191e+01   5.5635580133e+01    0.3404881    0.2232721  35.06 0.0002937759    1.508    0.337
        26 -10.5921     37.2652      9.7229   1.0981481900e+02   7.1263784201e+01    0.9542564    0.3120315 -47.39   0.00298184    3.219    0.689
        27  -8.6201    104.6388     14.1705   8.4972123264e+01   5.7452741164e+01    0.4743085    0.2702484  -4.96  0.001984055    2.060    0.514
        28  -9.4859      2.2644     14.3716   1.3482105589e+02   7.3469116975e+01    0.5911674    0.2087141 -72.65   0.00235091    3.222    0.690
        29 -10.0248      5.7917      4.8771   1.2837429468e+02   7.5336385588e+01    0.4779129    0.3298314 -44.26  0.001956048    1.100    0.091
        30  -8.2960      2.5361      3.4943   1.3022511460e+02   7.5812052895e+01    0.2432694    0.1222964 -63.46 0.0007242557    1.824    0.452
        31  -9.5171     85.0010     12.8964   9.0211006346e+01   6.2130158432e+01    0.4320124    0.2759234 -50.67  0.001437846    2.128    0.530
        32  -8.0471    141.3461     12.5788   7.6300059442e+01   4.8357575733e+01    0.2542609    0.1690655  13.34 0.0008331753    1.691    0.409
        33  -8.5269    101.8822      7.7120   8.2540714830e+01   5.8853440037e+01    0.3429753    0.1896448 -30.08 0.0008802555    1.779    0.438
        34  -8.5423    104.5661      1.8952   7.8969856442e+01   5.8784378703e+01    0.3675739    0.2186282  42.61  0.001243802    1.569    0.363
        35  -8.2870     71.8828      8.6288   9.2570995371e+01   6.5474033335e+01    0.2372419    0.1704093  -8.45  0.001107606    1.330    0.248
        36  -7.4673     67.8661      9.1420   9.4450603649e+01   6.6209824698e+01    0.1913507    0.1456899   7.89 0.0003582629    1.267    0.211
        37  -9.2014    110.3824      6.3765   7.9801630310e+01   5.6907742095e+01     0.504386    0.2405731  -7.50  0.001941201    2.463    0.594
        38  -7.8562    143.1048      5.2369   7.3060921739e+01   4.8593922745e+01    0.2865319    0.1552783 -45.24 0.0007661647    2.061    0.515
        39  -8.2389     86.3049      5.6826   8.5919307154e+01   6.2726755125e+01    0.2546788    0.1351014  33.61 0.0008178954    1.964    0.491
        40  -8.5525     88.6452      2.9567   8.3723416482e+01   6.2490076017e+01    0.4148694    0.1891259 -20.59  0.001538103    2.137    0.532
        41  -8.8943    115.0570      3.9242   7.7605064599e+01   5.5972133885e+01    0.3442638    0.1873811 -26.39  0.001008379    1.803    0.445
        42  -8.1861     31.5436      2.0698   1.0854180807e+02   7.3360472142e+01    0.2368238    0.2024007 -85.57  0.001328727    2.190    0.543
        43  -8.3209    236.2731    126.7687   9.4312205408e+01   1.1428093375e+01    0.1984936   0.08813801  34.69 0.0007655373    2.371    0.578
        44 -10.5743    197.9024    249.1198   1.2207215623e+02   2.7286404216e+00    0.4499764    0.1827746  34.86   0.00271524    1.826    0.452
        45 -10.3492    158.3931    246.2178   1.2836547295e+02   7.9488978523e+00    0.3342657    0.2174257   1.64  0.002283314    1.935    0.483
        46  -9.3126     41.1799    121.6519   1.3952645919e+02   4.5086718746e+01    0.5334203    0.2218809 -84.88  0.001765594    3.022    0.669
        47  -9.6990    140.7680    118.5284   1.1130614444e+02   3.0939475965e+01    0.4140068    0.3237279 -85.57  0.001173385    1.974    0.493
        48 -10.0279     91.9081    113.2437   1.2317690332e+02   4.0678901129e+01    0.6279126    0.4523684 -79.63  0.001830455    1.727    0.421
        49 -10.4940    245.1067    116.0795   9.0546492825e+01   1.1249761664e+01    0.2687928    0.2219189   7.08 0.0004071274    1.112    0.101
        50  -7.6727      1.2760    115.5904   1.5047658950e+02   4.9452698337e+01    0.2131312   0.08481618 -80.50  0.001045372    2.037    0.509
        51  -7.2275    152.6786    115.6980   1.0778266091e+02   2.9154982575e+01    0.1512518    0.1108245   4.40 0.0004395422    1.630    0.386
        52 -10.1801     78.0400    112.9381   1.2719442491e+02   4.2802992759e+01    0.5160338    0.3284174 -89.66  0.001943859    2.249    0.555
        53  -9.3267     69.0398    102.8594   1.2795683361e+02   4.6397718906e+01    0.4541753    0.3775828 -26.82  0.002561088    1.361    0.265
        54 -10.2866     65.6386    111.1311   1.3060292940e+02   4.4876543359e+01    0.7767245    0.4881329  80.93  0.003099545    2.174    0.540
        55  -9.2898     59.0182    109.5001   1.3235462717e+02   4.6070278184e+01    0.5736113    0.2438948 -68.24  0.001736815    2.375    0.579
        56 -10.4667     62.8142     95.7891   1.2852121722e+02   4.8890290164e+01    0.7630276    0.4023226 -80.03  0.001485678    2.784    0.641
        57  -9.0780     63.7877     86.5035   1.2613359720e+02   5.0990808028e+01    0.7550884    0.4742337 -32.83  0.003550272    1.879    0.468
        58  -8.1471     20.2635    115.6231   1.4498843592e+02   4.8261232438e+01    0.1484869    0.1192106   1.31 0.0009491449    1.615    0.381
        59  -7.5192    167.3145    114.2848   1.0413559121e+02   2.6476541151e+01    0.1493962    0.1082278   8.07 0.0002214533    1.580    0.367
        60  -8.9709     55.5614    114.2605   1.3420612064e+02   4.5336775160e+01    0.3030726    0.1996728 -69.16  0.001068802    1.409    0.290
        61  -9.5691     13.9539    111.1207   1.4644398011e+02   4.9754145435e+01    0.4195114    0.1964214  74.10  0.001498217    2.296    0.564
        62  -8.8913     14.2929    104.8477   1.4575589094e+02   5.1222614136e+01    0.2610738    0.1295186 -46.62  0.001037362    2.188    0.543
        63  -8.7599    158.5309    111.7407   1.0545062707e+02   2.8711460044e+01    0.2633582    0.2340936 -50.60 0.0006236227    1.294    0.227
        64  -9.2526     35.0393    111.9482   1.4013787166e+02   4.7951455742e+01    0.3223168    0.2215695  11.91  0.001821292    1.845    0.458
        65  -9.4424     33.0542    108.0631   1.4025343736e+02   4.9055357731e+01    0.3203838    0.2060539 -69.51  0.001796397    1.345    0.256
        66  -7.7944     23.2547     68.9924   1.3767746871e+02   5.9370242674e+01    0.1823129    0.1419245 -69.72 0.0003479974    1.091    0.084
        67 -10.9115     20.4788    100.4940   1.4332821981e+02   5.1857668314e+01     1.348052    0.5381275  78.94  0.004156433    3.721    0.731
        68 -10.4300     25.4438     77.7955   1.3838836998e+02   5.7049333082e+01    0.7742664       0.4044  77.78  0.002434313    2.637    0.621
        69 -10.3912     32.3289     64.1030   1.3291447141e+02   5.9851470800e+01      1.23292    0.4115455 -40.09  0.003816963    3.680    0.728
        70 -10.0733     34.4762     90.8098   1.3727150737e+02   5.3124977712e+01    0.5513008    0.2710694  89.52  0.001595953    2.683    0.627
        71 -10.1722     36.3522     81.4274   1.3494337808e+02   5.5259756033e+01    0.9483237    0.4226569 -25.26  0.003171091    4.749    0.789
        72  -9.1714    143.8041    110.3917   1.0857345274e+02   3.1928405785e+01    0.3933395    0.2329509  38.14  0.001741844    1.698    0.411
        73  -9.9349     20.3331     82.9140   1.4109931178e+02   5.6152645635e+01    0.9049243     0.217003 -67.33  0.003344762    3.006    0.667
        74  -8.2290    150.0909    110.1207   1.0699659566e+02   3.0720025966e+01    0.2279767    0.1918152  -3.81 0.0004248748    1.216    0.178
        75  -9.1349    243.4377    107.7260   8.8852914511e+01   1.2588904898e+01     0.269043    0.1038465 -31.66   0.00114887    2.211    0.548
        76  -9.0023     40.1389    107.1577   1.3790182326e+02   4.8635748277e+01    0.2657386    0.1837323  79.93 0.0007488024    1.521    0.343
        77 -10.9555     44.6769    102.5314   1.3574209740e+02   4.9311769190e+01    0.8547238    0.3975157  65.05  0.002878227    3.589    0.721
        78 -10.0908    139.4091    103.1306   1.0778408934e+02   3.4226189648e+01    0.7472137     0.354117 -42.45  0.001763741    2.086    0.521
        79  -7.9964     78.0273    105.3379   1.2565662588e+02   4.4575724739e+01    0.3322044    0.2156641 -20.02  0.001466468    2.325    0.570
        80  -9.4337     81.5489     99.9389   1.2337741210e+02   4.5319858343e+01    0.7597619    0.2960317 -56.28  0.002009199    2.458    0.593
        81  -8.3581    165.9111    104.0540   1.0181725413e+02   2.8567989511e+01    0.2751496    0.1963122 -34.43 0.0005067158    1.362    0.266
        82  -9.5353    149.4474    103.2697   1.0537072122e+02   3.2144854885e+01    0.4277854    0.2805744 -52.93 0.0009425257    1.833    0.455
        83  -8.8045     93.2159    103.4737   1.2061802344e+02   4.2686311646e+01    0.6172673    0.3262249  15.59  0.002105644    3.698    0.730
        84  -9.5576      6.1708    103.9516   1.4819383455e+02   5.1913073111e+01    0.3576864    0.2173576  64.64  0.001448181    1.610    0.379
        85  -8.2185    191.0042    102.7233   9.6331747181e+01   2.3527159053e+01     0.199432    0.1753578  18.69 0.0001952513    1.100    0.091
        86  -8.4488     73.6649    103.0238   1.2652926443e+02   4.5732662574e+01    0.2364524    0.1878596  70.97 0.0005723693    1.450    0.310
        87  -8.9846    158.9299    101.2860   1.0263604028e+02   3.0530981670e+01    0.3094973    0.2066722 -35.91 0.0004748988    1.457    0.314
        88  -9.3526    248.2077     97.0510   8.5658954261e+01   1.3056897690e+01    0.2321847    0.1958326 -23.64  0.001193706    1.176    0.150
        89  -9.4114     94.2101     97.1651   1.1879436182e+02   4.3952047001e+01    0.3644903     0.248719 -62.46 0.0005586082    1.593    0.372
        90  -8.5558     95.9899     90.7446   1.1659079631e+02   4.5094981104e+01    0.4232818    0.2765978 -14.36  0.001751028    2.363    0.577
        91 -10.1822    241.1005     96.2503   8.6445960476e+01   1.4462732172e+01    0.3677424    0.2743031 -13.77  0.002135043    1.127    0.113
        92  -8.3414    150.1944     96.7995   1.0344171051e+02   3.3203475579e+01    0.3981564    0.2224323  19.77  0.001392852    2.992    0.666
        93  -7.6393    171.1657     96.1498   9.8559062430e+01   2.8821684656e+01    0.1994894    0.1755952 -50.42 0.0003571027    1.319    0.242
        94 -10.5015      5.0695     86.7280   1.4699806619e+02   5.6097483089e+01     1.517591    0.3906538 -71.84  0.004988904    2.797    0.642
        95  -9.7863    170.9789    250.0000   1.2664169854e+02   5.9585898927e+00    0.2057894    0.1044273  33.30  0.001357723    1.431    0.301
        96 -10.2834    188.5607    244.7007   1.2307257020e+02   4.3297204512e+00    0.2390904    0.1768711  40.82  0.001833568    1.536    0.349
        97  -9.5467     27.5398    123.2043   1.4362614186e+02   4.5927433475e+01    0.5702843    0.2325184  61.84  0.002139018    3.024    0.669
        98 -10.9352     21.7090     53.8723   1.3519991242e+02   6.3162798091e+01    0.8453891    0.5057549  86.02  0.002592603    2.177    0.541
        99  -9.9170     14.9936     44.6274   1.3620684342e+02   6.5818336627e+01    0.5343427    0.2964699 -45.88  0.001125058    1.536    0.349
       100 -10.0980     15.9817     70.7608   1.4090523068e+02   5.9411684322e+01    0.6999072    0.2784889 -76.16  0.002557701    2.258    0.557
       101  -9.9392     16.3503     61.8562   1.3922289999e+02   6.1570222087e+01    0.6544347     0.518825  32.96   0.00413491    1.505    0.335
       102  -8.5990      9.9205     47.2279   1.3927119736e+02   6.5472963289e+01    0.2269454      0.15527 -85.05 0.0006636056    1.460    0.315
       103  -8.1094    226.5239    243.4532   1.1675237162e+02  -2.0282880212e-01    0.1053227   0.07088793  16.80  0.000128416    1.008    0.008
       104  -9.2135      6.5349     32.5069   1.3762165638e+02   6.9132169650e+01    0.2091837    0.2010238  67.98 0.0004967814    1.298    0.229
       105 -10.0712      7.1874     28.2627   1.3610318452e+02   7.0088800979e+01    0.3560747    0.2942799  65.37  0.001107992    1.547    0.354
       106  -8.4041    164.3734     94.4906   9.9563160363e+01   3.0578427254e+01    0.2656038    0.2211843 -35.64 0.0005684619    1.201    0.167
       107  -9.7961    138.6446     91.7254   1.0484810745e+02   3.6611681819e+01    0.6961925    0.3330205 -36.47  0.002289595    2.078    0.519
       108  -8.6955    150.5945     89.1312   1.0118022552e+02   3.4539010204e+01    0.2492183    0.2283108 -27.55 0.0005834441    1.080    0.074
       109  -8.9862    157.7441     90.9618   1.0004931973e+02   3.2646707969e+01    0.4526866     0.192058 -31.39  0.001610293    2.459    0.593
       110  -9.4350    111.2521     89.7198   1.1172345659e+02   4.2543600540e+01    0.7365704    0.3770318  27.03   0.00269287    2.729    0.633
       111  -9.2159    163.3287     87.0540   9.7683070143e+01   3.2104708506e+01    0.3987885     0.204071 -28.26  0.001189002    2.007    0.502
       112 -10.4275     89.0033     38.5436   1.0108462881e+02   5.7252215326e+01     1.179111    0.4364243  34.71   0.00365648    3.829    0.739
       113  -9.5301    100.0592     31.9478   9.4540109512e+01   5.6022901054e+01    0.5479152    0.4768472 -13.52  0.001893893    1.067    0.063
       114  -8.3446    199.3760    125.0644   1.0026261607e+02   1.8391184303e+01    0.2101009    0.1689111  14.79 0.0002684693    1.148    0.129
       115 -10.5512     47.8444     83.6796   1.3117469684e+02   5.3572388220e+01     1.112622    0.4117725 -61.50  0.004012123    2.315    0.568
       116  -8.6652     87.7016     58.5439   1.0938794417e+02   5.3598179923e+01    0.3042412    0.2342839 -52.87 0.0008736405    1.366    0.268
       117 -10.4508     85.6020     48.6194   1.0642789757e+02   5.6008620877e+01    0.7017394      0.48924 -73.74  0.001576405    2.559    0.609
       118 -10.3437     63.2927     60.8518   1.1929103231e+02   5.7083067673e+01     1.216211    0.2964994  32.18  0.003574003    4.861    0.794
       119 -10.4388     54.9203     70.8764   1.2548879790e+02   5.5850430862e+01     0.608121     0.406032  57.15  0.001175183    1.958    0.489
       120  -9.4443     87.2303     78.7517   1.1606517642e+02   4.9284323804e+01    0.5912263    0.3794745  12.24  0.001734021    2.282    0.562
       121  -7.4658    174.2995     88.6505   9.5817098206e+01   2.9399831307e+01    0.1496357    0.1175537 -61.10 0.0004248712    1.688    0.408
       122 -10.1629     74.4677     55.1171   1.1300111853e+02   5.6635406729e+01     1.584526    0.6071406 -34.48  0.005012989    3.534    0.717
       123 -10.3222    103.7625     82.4198   1.1185870972e+02   4.5526217095e+01    0.5667122    0.3262587 -54.80   0.00105829    1.911    0.477
       124  -8.6786    157.4752     83.2182   9.7858252454e+01   3.4081092202e+01    0.4368633    0.2529274 -30.79  0.001512273    1.687    0.407
       125  -8.8823    157.1100     75.6650   9.5653512651e+01   3.5476330228e+01      0.60598    0.2352357 -41.53  0.001474703    2.614    0.617
       126  -8.3026    156.4293     70.2287   9.4103825277e+01   3.6557142645e+01    0.3197722    0.2034711 -50.54 0.0005683813    1.873    0.466
       127  -9.0746    140.3831     82.5482   1.0171702093e+02   3.7994174011e+01    0.4763676    0.2534065 -44.04  0.000971707    1.916    0.478
       128  -9.2672    139.9048     75.0293   9.9511335485e+01   3.9499771391e+01     0.639383    0.2863779 -43.52  0.001668578    2.293    0.564
       129  -7.5527    170.3199     83.6636   9.5207660841e+01   3.1117309664e+01    0.1514075    0.1193884 -64.09 0.0007049698    1.706    0.414
       130  -9.0460    150.0829     79.8605   9.8548918270e+01   3.6337130045e+01     0.562619    0.2373322 -31.14  0.001143961    2.469    0.595
       131  -9.1639    115.3605     72.2617   1.0523910772e+02   4.5350356110e+01    0.5866249    0.2754889 -39.54  0.001302556    2.046    0.511
       132  -8.8198    118.9410     80.4803   1.0680116642e+02   4.2952058345e+01    0.3510668    0.2542637 -57.33 0.0006080525    1.618    0.382
       133  -8.2105    119.6933     76.0415   1.0520792013e+02   4.3691930261e+01    0.2584126    0.2209543  61.24 0.0005080605    1.371    0.271
       134  -9.2236     74.1522     79.3274   1.2069511781e+02   5.1234941064e+01    0.6210464    0.2354089 -54.87  0.001340393    2.490    0.598
       135  -8.3301     68.5916     79.7594   1.2277017119e+02   5.1940777749e+01    0.2730165    0.1237886 -52.63  0.001116558    1.965    0.491
       136  -8.3805    166.3457     78.6184   9.4549784732e+01   3.2859916168e+01    0.2790238    0.1764607 -27.52 0.0004103527    1.531    0.347
       137  -9.5910    104.9535     70.7150   1.0786000265e+02   4.7773593964e+01      0.89417    0.5459357 -31.76  0.003869605    1.704    0.413
       138  -8.0073    184.0992     78.1461   9.0878249945e+01   2.8886231302e+01    0.2297768    0.1870121   9.70 0.0005140555    1.253    0.202
       139  -9.1198    130.3443     57.3977   9.6028727191e+01   4.4845972611e+01    0.7817705    0.2712033 -40.47  0.001974062    2.830    0.647
       140  -8.0285    130.3548     64.2548   9.8413446740e+01   4.3622665118e+01    0.3021114    0.2043155 -34.16 0.0007338856    1.418    0.295
       141  -9.4805    127.1924     75.1968   1.0286570779e+02   4.2266174081e+01    0.4211608    0.3096189 -66.48 0.0008671699    1.906    0.475
       142  -8.8378    128.8927     69.4279   1.0053734142e+02   4.2994569304e+01    0.5961142    0.3363181  15.06   0.00188299    3.684    0.729
       143  -7.8491    214.8175     75.8911   8.5058939556e+01   2.2406730853e+01    0.2097851    0.1724956   4.40 0.0004299025    1.183    0.154
       144  -9.9763     81.5997     72.4646   1.1611591463e+02   5.1636341543e+01    0.4595067    0.3304756 -76.52 0.0009813737    1.940    0.485
       145  -9.2252     83.4790     64.7812   1.1301792193e+02   5.3020251482e+01    0.6059877    0.3762631  -6.63  0.002307722    2.867    0.651
       146  -8.5295    162.6893     73.2778   9.3699805902e+01   3.4590763703e+01    0.3046508    0.2364167 -60.41 0.0008393256    1.645    0.392
       147  -8.3046    169.3323     71.1953   9.1676885529e+01   3.3382681227e+01    0.2218358    0.1280716 -38.75 0.0003542856    1.696    0.411
       148  -9.3885    146.8629     69.3029   9.5989476288e+01   3.8939775705e+01    0.4314551    0.2768954 -50.51  0.001035962    1.831    0.454
       149  -8.2924    146.4878     64.4663   9.4490921416e+01   3.9859725331e+01    0.3005862    0.2228097   1.89 0.0009798137    1.567    0.362
       150  -9.6024     54.7937     63.3327   1.2344025277e+02   5.7649662384e+01    0.5066016    0.3387108   9.75  0.001590448    1.910    0.476
       151  -9.7864     94.7818     68.4528   1.1037050988e+02   5.0200355514e+01     0.461009    0.2652174 -52.81 0.0007729676    1.852    0.460
       152  -9.2433     97.0838     59.0447   1.0638173788e+02   5.1711690134e+01    0.8391429    0.4543745 -14.60  0.002550383    4.138    0.758
       153  -9.0508    121.1786     66.1155   1.0153418119e+02   4.5314792442e+01    0.4177971    0.2583041 -47.48  0.000626215    1.720    0.419
       154  -8.0493    121.9787     61.5047   9.9720661623e+01   4.6005016694e+01    0.2173384    0.1942045  18.61 0.0005462428    1.122    0.108
       155  -9.2407    138.0085     66.3811   9.7174471057e+01   4.1495436266e+01    0.3961686    0.3441487 -56.21 0.0009038501    1.322    0.244
       156  -8.3787    138.3495     62.3253   9.5722504557e+01   4.2130193544e+01    0.2990301    0.2237022  21.60  0.001042125    1.490    0.329
       157 -10.1016     85.1898     86.5342   1.1890489644e+02   4.7854141051e+01    0.4764313    0.3535757  87.49 0.0009284802    1.930    0.482
       158  -9.2676    109.8128     63.9252   1.0408799757e+02   4.8160932788e+01    0.3824168    0.2853792 -57.15 0.0007415509    1.589    0.370
       159  -8.7160    110.5376     58.3078   1.0188315118e+02   4.9096814725e+01    0.3924705    0.2802063  11.08  0.001031424    1.767    0.434
       160  -8.6789    157.2787     63.1228   9.1630749720e+01   3.7527783417e+01    0.3016072    0.2929896 -47.91  0.001186599    1.143    0.125
       161  -7.4322    164.5006     60.4696   8.9264081320e+01   3.6216285604e+01    0.1530568    0.1433114 -10.82 4.074536e-05    1.021    0.021
       162  -8.7314    146.4518     58.9520   9.2642588071e+01   4.0791294478e+01    0.3746192    0.2722528 -68.35  0.001082493    1.999    0.500
       163  -8.4617    147.5782     54.6869   9.0919422431e+01   4.1211467308e+01    0.4125999    0.2318435 -18.53  0.001623736    2.022    0.505
       164  -9.2982    139.0602     56.7123   9.3608354252e+01   4.2920788971e+01     0.678849    0.2564759 -40.59  0.002120071    2.643    0.622
       165  -9.1425    141.9599     47.2408   8.9543331489e+01   4.3743969637e+01    0.6921054    0.3348047 -22.04  0.001847667    2.283    0.562
       166  -9.3847    118.3192     54.7167   9.8307430529e+01   4.8060593451e+01    0.6276342    0.3490629 -36.91    0.0012659    1.719    0.418
       167  -9.4991    121.2442     45.8213   9.4142404670e+01   4.8931892195e+01    0.8747095    0.3130284 -24.66  0.001101642    3.901    0.744
       168  -9.9529     49.8747     53.7002   1.2254388652e+02   6.0499180715e+01    0.6630932    0.3244117 -63.72  0.002490373    2.297    0.565
       169  -9.5646     56.6368     43.0447   1.1581882652e+02   6.1979860037e+01    0.7188973    0.3963256 -12.79  0.002583498    3.549    0.718
       170  -8.9291    197.0529     54.6657   8.1718814822e+01   2.9255507549e+01    0.2604683    0.1950127 -21.57  0.000171092    1.235    0.190
       171  -8.8750    162.8697     54.4061   8.7597243471e+01   3.7533189749e+01    0.2586171    0.1997572 -37.14 0.0007665271    1.281    0.219
       172  -8.9523    157.4301     50.0026   8.7198754388e+01   3.9523191544e+01    0.3562551    0.2214463 -24.41  0.001116098    1.572    0.364
       173  -9.5245     43.7987     52.9150   1.2495404259e+02   6.1391157067e+01    0.3815618    0.3063921 -52.74  0.001415572    1.090    0.083
       174  -7.8093    152.8208     53.8143   8.9469172920e+01   4.0076075182e+01    0.2098508    0.1764365 -53.23  0.000504974    1.345    0.256
       175  -9.2425    105.3628     51.8619   1.0107295039e+02   5.1413429573e+01    0.6621151    0.2833582 -36.91  0.002065771    2.229    0.551
       176  -7.9988     95.2560     52.9569   1.0474748631e+02   5.3283980394e+01    0.2018413    0.1226115 -39.95 0.0008836985    1.550    0.355
       177  -9.6600    130.6253     45.8673   9.1730216540e+01   4.6705730154e+01    0.9153244    0.3706619 -20.88  0.002250505    3.482    0.713
       178  -8.8568    132.9467     36.1208   8.7419092728e+01   4.7617022777e+01    0.3927892    0.2399565 -38.79 0.0004863359    1.655    0.396
       179  -9.4075    133.9637     31.1192   8.5213467796e+01   4.8060351125e+01    0.2793207    0.2340846  36.41            0    1.173    0.147
       180  -8.8335    149.7844     47.6576   8.7969892566e+01   4.1758191588e+01    0.4042148    0.1976472 -31.02  0.001577857    1.938    0.484
       181  -8.5881    111.8953     46.7625   9.7133708857e+01   5.0907957344e+01    0.3444417    0.2316818 -39.47 0.0005678443    1.464    0.317
       182  -8.4741    112.9637     42.5055   9.5136379606e+01   5.1393039171e+01    0.3459062    0.2174236  10.60  0.001177954    2.303    0.566
       183  -7.6826    162.4718     46.0518   8.4853058411e+01   3.8843768094e+01    0.2327151    0.1437385 -26.96 0.0009813795    1.545    0.353
       184  -9.1797     71.0225    244.1225   1.4345522269e+02   1.8543674682e+01    0.1428407    0.1239562  56.02            0    1.188    0.158
       185  -9.5526    188.2070    233.1479   1.2167517508e+02   5.6102563427e+00    0.2656757    0.1666196 -12.12  0.001452961    1.840    0.456
       186  -8.1627      5.9362    234.0716   1.5410839768e+02   2.6118158874e+01    0.1352266   0.09781448  57.07 0.0003938357    1.048    0.045
       187 -10.1450     69.6699     41.0431   1.0947619204e+02   6.0367432031e+01    0.9936724    0.4047561 -40.98  0.002352688    2.241    0.554
       188 -10.1710     76.1643     31.8260   1.0284471400e+02   6.0966971901e+01    0.5492536    0.4268109 -84.02  0.001208408    2.258    0.557
       189  -9.2829     71.3486     26.1188   1.0206078400e+02   6.2875089635e+01    0.5274282    0.3107082  34.29  0.002069018    1.807    0.446
       190  -9.7690     79.4067     23.8984   9.7824168500e+01   6.1689741604e+01    0.6182157    0.3375275  25.98  0.001598243    2.360    0.576
       191  -8.9950     84.7096     21.9629   9.4944532089e+01   6.0902392378e+01    0.3015527    0.2170322 -29.78 0.0007325517    1.314    0.239
       192  -8.6898     40.0137     35.0000   1.2050110850e+02   6.5867311655e+01     0.394874    0.1890593  24.52  0.001521559    2.449    0.592
       193  -9.9791     37.9419     42.2421   1.2418919208e+02   6.4483845421e+01    0.4841393    0.3248073 -86.72  0.001644308    2.356    0.575
       194  -9.7761     35.5539     37.9738   1.2386369966e+02   6.5698183483e+01    0.3358004    0.2025397 -45.08 0.0003407438    1.383    0.277
       195  -9.0499    153.5438     40.8521   8.4767178196e+01   4.1803709775e+01    0.4015712    0.2476266 -34.37  0.001272227    1.565    0.361
       196  -9.5330    105.1879     39.6766   9.6276171433e+01   5.3617406327e+01    0.7105879    0.3373166 -26.23  0.001654168    2.279    0.561
       197  -9.6928     52.9729     40.0172   1.1627697896e+02   6.3141945846e+01    0.5054182    0.1913186 -41.97  0.001895658    2.396    0.583
       198  -8.6852    139.4898     40.0809   8.7448795714e+01   4.5424422812e+01    0.4623569    0.2411671 -39.28  0.001350068    1.929    0.482
       199  -8.3735    250.6217     39.9667   7.1234222497e+01   1.9209723074e+01    0.1916909    0.1061714 -23.75            0    1.519    0.342
       200  -9.4559    144.8772     37.2675   8.5224001837e+01   4.4478911019e+01    0.5992145    0.3070372 -55.38  0.002059096    3.089    0.676
       201  -7.3587    160.3218     39.2154   8.2885322815e+01   4.0319940597e+01    0.2227692    0.1260133 -34.04 0.0008260878    1.688    0.408
       202  -8.8308    118.9062     34.3562   9.0177417093e+01   5.1294236485e+01    0.3488317    0.2097622 -30.79 0.0009332862    1.596    0.374
       203  -9.2047    110.1960     32.9668   9.1969854233e+01   5.3558743280e+01    0.4468738    0.2448559 -43.23  0.001097548    1.984    0.496
       204  -8.2401    110.3795     26.7581   8.9216456715e+01   5.4431513802e+01    0.3294422    0.2337538   2.70 0.0009864735    1.566    0.361
       205 -10.0429     46.2094     29.6871   1.1517093303e+02   6.6222523701e+01    0.4929979    0.2803078 -57.54 0.0008690258    2.037    0.509
       206  -7.3117    137.4676    229.4968   1.3025401119e+02   1.2698921935e+01    0.1103919   0.08485728  35.55 3.961624e-05    1.057    0.054
       207  -9.5083    152.9763     28.0605   8.0204543382e+01   4.3615585694e+01    0.4009261    0.2547493  14.43  0.001708387    1.939    0.484
       208  -7.3214    192.4167     28.4202   7.4299360477e+01   3.3569924069e+01    0.1413012    0.1313998   3.69 0.0002600412    1.071    0.066
       209  -7.8562    136.4403     26.9466   8.3013947590e+01   4.7982273455e+01    0.3079829    0.1547149 -40.65 0.0008086808    2.094    0.522
       210  -9.2018    138.8773     22.1925   8.0616844809e+01   4.7942616847e+01    0.4696265    0.3092937  59.36  0.001632481    1.522    0.343
       211  -7.1057     63.3257    228.7113   1.4386255381e+02   2.1659012208e+01    0.1082736   0.05747113  54.91 0.0002662269    1.611    0.379
       212  -8.7149     48.7814    223.3326   1.4620348597e+02   2.4002435665e+01    0.1564747    0.1441442  66.61 0.0003583014    1.255    0.203
       213  -9.1134     91.2946     26.2366   9.4755049279e+01   5.8840942036e+01    0.3810803    0.2511059 -46.34  0.001120794    1.748    0.428
       214  -8.7543     92.3553     20.6583   9.1732441639e+01   5.9441329027e+01    0.3980889    0.2367379  21.69  0.001266508    2.087    0.521
       215  -7.3454     45.7510    210.3412   1.4602882972e+02   2.6462825781e+01    0.1074253   0.06082654  62.26  0.000370788    1.570    0.363
       216  -8.9649    144.3445     25.7687   8.0953651186e+01   4.6110917466e+01    0.2856164    0.1993824 -24.05 0.0004892149    1.394    0.283
       217  -8.0183    145.3262     21.3758   7.9063944335e+01   4.6376074695e+01    0.2655591    0.1935323 -15.90 0.0006118162    1.365    0.268
       218  -8.8791    128.4250     25.8697   8.4329833001e+01   5.0142127798e+01     0.273939    0.2215122 -53.64 0.0006570455    1.439    0.305
       219  -9.9817     11.3660    207.1912   1.5237796311e+02   3.0082274017e+01    0.4299793    0.2574304  11.34  0.002825969    2.555    0.609
       220 -10.3562    190.9744    190.3777   1.1487889713e+02   1.0402539263e+01    0.5397093    0.2691876 -48.12  0.002585232    3.137    0.681
       221  -7.7780      5.7889    182.1712   1.5257532759e+02   3.5059402050e+01     0.126916    0.1139318 -79.00 0.0004777073    1.336    0.252
       222  -7.2462    236.3619     22.7008   6.8039680270e+01   2.3946553552e+01    0.1397792   0.08451411 -53.09 0.0006382684    1.718    0.418
       223  -8.1878    190.5208    173.8606   1.1209368591e+02   1.2727722231e+01    0.2277212    0.1399078  44.17 0.0005831707    1.732    0.422
       224  -7.9409    228.3032    173.3133   1.0523010217e+02   6.9039445296e+00    0.1279456   0.07723413   7.10 0.0006640267    1.615    0.381
       225  -8.1022    229.8426    167.6218   1.0389102903e+02   7.3544302804e+00    0.1567928    0.1076682  40.44 0.0003518262    1.638    0.389
       226  -7.0190     18.4847    151.5222   1.4826933426e+02   4.0301929255e+01    0.1133666   0.09477931  80.22 0.0008097514    1.040    0.038
       227  -8.1402    133.6523    147.1400   1.1911523709e+02   2.6679853279e+01    0.3812383    0.1312625 -51.27  0.001367308    3.338    0.700
       228  -8.6456    232.0093    147.4985   9.9493503069e+01   9.5015547711e+00    0.1848717    0.1144498  35.38   0.00102705    1.574    0.365
       229  -9.8758     67.2042    144.2673   1.3527140460e+02   3.7097094574e+01     0.481283    0.3434851  68.31  0.002321581    1.470    0.320
       230  -9.7417    239.0260    144.9989   9.7834556510e+01   8.6756078675e+00    0.2851043     0.195098  14.30  0.001689733    1.315    0.240
       231  -8.1483    111.4970     21.9689   8.6778206413e+01   5.4819421042e+01    0.2252757    0.1397548 -27.35 0.0009042053    1.555    0.357
       232  -8.7039     40.8596     20.6331   1.1368977153e+02   6.8742689125e+01     0.226863    0.1619227 -37.98 0.0002062908    1.193    0.162
       233  -7.2165    204.2744    137.6799   1.0221709148e+02   1.5604752306e+01     0.120585    0.1075817 -51.49 0.0002278925    1.572    0.364
       234  -9.3826    135.0162    136.6013   1.1670602628e+02   2.8471216973e+01    0.3177547    0.1958768 -40.57 0.0002299895    1.680    0.405
       235 -10.6588    131.8835    120.7867   1.1403312454e+02   3.2168234713e+01    0.9622439    0.6765671 -75.25  0.004270605    2.285    0.562
       236 -10.4874    123.3044     91.5298   1.0883103274e+02   3.9807284526e+01     1.272305    0.5789151 -33.27  0.003258745    2.577    0.612
       237 -10.4881    133.5940    109.2667   1.1083252417e+02   3.4161402580e+01     0.868873    0.4049592 -47.65  0.002686488    2.236    0.553
       238 -10.1116    128.3260    100.7828   1.1001107570e+02   3.6913021749e+01     0.945893    0.5022506 -24.71  0.002361886    2.824    0.646
       239 -10.8298    121.1391    110.0012   1.1426629642e+02   3.6379545581e+01      1.08513    0.5966592 -51.19  0.003176192    1.902    0.474
       240  -9.9684    108.4484    114.4516   1.1876103197e+02   3.7697289701e+01    0.5907226    0.3892114 -82.65  0.001424879    2.600    0.615
       241  -7.7542     80.5594     12.7949   9.1683438340e+01   6.3102824838e+01    0.2334705    0.1521101 -49.82  0.001071777    2.041    0.510
       242  -6.9638    245.6741     29.7153   6.9068844523e+01   2.1276994460e+01    0.1257391   0.09223898  22.02  0.000470546    1.604    0.376
       243  -8.7609    109.3240    107.3126   1.1685437805e+02   3.9096889533e+01    0.5734105    0.3454779  22.07  0.002420674    2.178    0.541
       244 -10.3910    108.9065     99.9679   1.1515071816e+02   4.0769337627e+01     1.022915    0.6127164  61.09  0.004095678    2.512    0.602
       245  -8.4007    112.1505    133.7034   1.2180775456e+02   3.2963132298e+01    0.2889588     0.213081  81.76  0.001419193    1.927    0.481
       246  -8.3645    241.3231    131.9948   9.4683912669e+01   9.9096503550e+00    0.2153652   0.09114856  -9.48 0.0007043935    4.241    0.764
       247  -9.5519     98.5684    128.7183   1.2442117289e+02   3.6199618663e+01    0.5968931    0.3512449  68.32  0.002392129    2.898    0.655
       248 -10.2715     70.3027    126.6584   1.3187374775e+02   4.0668115004e+01    0.6396824     0.558932 -54.10  0.001934316    1.158    0.137
       249 -10.0060     58.3568    124.6847   1.3497238610e+02   4.2570399923e+01    0.7184517    0.3574116  67.59  0.002618761    3.102    0.678
       250  -9.7366    116.9803    125.2011   1.1882720936e+02   3.3931582138e+01     0.597727    0.4022419  80.83  0.002133217    2.694    0.629
       251  -8.2288    117.4446    119.5331   1.1747112334e+02   3.5042215818e+01    0.2300031    0.1921793  20.21 0.0006779751    1.258    0.205
       252  -7.5416    160.5381    128.5065   1.0902707933e+02   2.5280985641e+01    0.1431397    0.1309078   5.27 0.0008093777    1.014    0.014
