#   1 NUMBER                 Running object number                                     
#   2 MAG_AUTO               Kron-like elliptical aperture magnitude                    [mag]
#   3 X_IMAGE                Object position along x                                    [pixel]
#   4 Y_IMAGE                Object position along y                                    [pixel]
#   5 X_WORLD                Barycenter position along world x axis                     [deg]
#   6 Y_WORLD                Barycenter position along world y axis                     [deg]
#   7 A_WORLD                Profile RMS along major axis (world units)                 [deg]
#   8 B_WORLD                Profile RMS along minor axis (world units)                 [deg]
#   9 THETA_WORLD            Position angle (CCW/world-x)                               [deg]
#  10 FWHM_WORLD             FWHM assuming a gaussian core                              [deg]
#  11 ELONGATION             A_IMAGE/B_IMAGE                                           
#  12 ELLIPTICITY            1 - B_IMAGE/A_IMAGE                                       
         1 -13.2082    227.6803     40.2313   1.1895944173e+01   2.3265827467e+01     1.079264     0.828306  35.24  0.006115826    1.688    0.407
         2 -13.3497    213.1157     50.6756   1.6154554546e+01   2.5213292119e+01     1.602034     1.101598  41.26  0.008154019    1.774    0.436
         3  -9.7507    250.5753     18.0891   4.8005942229e+00   2.0957535407e+01    0.4721651   0.09795869 -28.61  0.001639972    4.033    0.752
         4 -11.2667      2.6551      9.8936   6.8709689472e+01   7.5598377327e+01    0.4106681    0.1858477 -57.68  0.002162749    1.974    0.493
         5  -9.8208    158.3013      8.9666   1.0602356254e+01   4.3976181658e+01    0.1921335    0.1797984 -54.24 0.0004799969    1.100    0.091
         6  -8.4547     62.5788    235.5424   8.4174719818e+01   1.8982280582e+01    0.1171253   0.08393393  55.04 0.0001530821    1.079    0.074
         7 -10.6317     71.9826    242.6165   8.2847941724e+01   1.6617555105e+01    0.3716027    0.2524653  70.59  0.002201718    1.449    0.310
         8 -10.2594     57.6293    238.2677   8.5321719431e+01   1.9102738462e+01    0.3648533    0.2018852  78.34  0.002212586    1.961    0.490
         9 -10.9250     48.0506    231.2945   8.6750806370e+01   2.1450436349e+01    0.2550868    0.2029758  83.27  0.000573641    1.266    0.210
        10 -10.9168     54.0125    229.9735   8.5489316818e+01   2.0995650019e+01    0.4335323    0.2482597 -89.84  0.002665722    1.887    0.470
        11 -10.4602     57.8043    247.5751   8.5872318477e+01   1.7506105605e+01    0.4150085    0.2175593 -73.32  0.002632446    2.211    0.548
        12  -9.7675     61.9842    247.2384   8.5066909352e+01   1.7067430672e+01    0.3809122    0.1500096  63.40  0.001846215    2.968    0.663
        13 -14.6459     27.2002    186.3505   8.8341217120e+01   3.2610132195e+01     3.569838     1.222493  86.78   0.01122786    3.655    0.726
        14 -15.6385      7.9664    208.3618   9.3591142367e+01   2.9902375677e+01     8.779113     1.245668 -81.91   0.02744733    7.173    0.861
        15 -14.1945     12.7217    244.7324   9.3976755583e+01   2.2796329194e+01    0.8425597    0.5131133 -89.16  0.004629652    1.606    0.377
        16 -14.0655      6.2336    247.2474   9.5189991285e+01   2.2980371531e+01    0.4215466    0.3210137  53.63  0.001641572    1.184    0.155
        17  -9.4333     94.9593    219.8613   7.6242770520e+01   1.7530650371e+01    0.1826874    0.1468569  48.70 0.0006224409    1.008    0.008
        18  -8.4942    142.6634    218.2292   6.6135255875e+01   1.0747257617e+01      0.14965    0.1141082 -35.08 0.0006539741    1.585    0.369
        19 -13.5757      3.5967    237.9994   9.5394162853e+01   2.4805531090e+01    0.4458703    0.4176159 -89.14  0.002405724    1.519    0.342
        20  -8.5923    132.4610    213.0588   6.7553792154e+01   1.3171752262e+01    0.1582076    0.1277285 -56.10 0.0004510767    1.501    0.334
        21  -9.4842    131.0005    207.2471   6.7082540973e+01   1.4400761956e+01    0.2508103    0.1907798 -75.71  0.000851937    1.747    0.427
        22 -10.3354    129.3346    202.0138   6.6717997698e+01   1.5592607162e+01    0.2970343    0.2407423 -51.26 0.0004744313    1.440    0.306
        23 -10.2291    128.0343    197.7119   6.6393067518e+01   1.6583062196e+01    0.2213615    0.2124297 -87.80 0.0009302321    1.190    0.160
        24  -9.5428     76.1581    231.3983   8.1165029247e+01   1.8008778982e+01    0.2914666    0.1715772  30.96  0.001722956    1.635    0.388
        25 -10.9328     74.5622    198.2291   7.8488535169e+01   2.4496818256e+01    0.4111362    0.2348632  83.94  0.001731395    2.175    0.540
        26  -9.8562    192.8090    194.4567   5.2494642353e+01   6.5007649402e+00    0.5580645    0.2935535 -61.09  0.001532466    9.126    0.890
        27 -11.4794    115.7802    195.8011   6.8847514082e+01   1.8899100590e+01    0.4032276    0.2251368  42.11  0.002032679    1.538    0.350
        28 -10.3459     82.4637    194.6083   7.6294801971e+01   2.4143654752e+01    0.3877647     0.281153  44.56  0.001697857    1.188    0.159
        29 -11.9615    126.1466    228.2830   7.0740180336e+01   1.1604999469e+01    0.5368682    0.3918451  70.52  0.003279851    1.753    0.430
        30  -9.4881     71.7753    190.6438   7.8344527853e+01   2.6440359105e+01     0.206673     0.189538 -41.34 0.0007895939    1.400    0.286
        31 -10.1407     76.4298    183.0784   7.6401236058e+01   2.7409571541e+01    0.4737466    0.2681642  76.01  0.001758499    2.255    0.557
        32 -10.5352     79.2255    180.2381   7.5385960734e+01   2.7627935163e+01    0.2665978    0.1973348  78.66 0.0004339872    1.390    0.281
        33 -10.0713     99.0055    180.9528   7.0693429350e+01   2.4518972177e+01    0.2774279    0.2397656  38.02 0.0007830005    1.129    0.114
        34  -9.9978    180.4415    173.9237   5.1216324295e+01   1.1835288417e+01    0.4072804    0.1599805  31.67  0.001494511    2.997    0.666
        35  -9.8261     78.7857    169.2374   7.4097479800e+01   3.0118141179e+01    0.2697823    0.1938229 -24.55  0.001273224    2.161    0.537
        36 -13.2598     58.8107    127.3454   7.3519514744e+01   4.2880201591e+01     2.111413    0.9875122 -87.25  0.007129762    3.628    0.724
        37 -11.0045     73.2862    165.4636   7.5010835662e+01   3.1758705702e+01    0.5909227     0.285204 -60.95  0.001326412    2.081    0.520
        38 -11.5074     69.7913    158.7699   7.5039011017e+01   3.3792984941e+01    0.9074299    0.4163116  61.08  0.003295732    2.891    0.654
        39 -12.5860     58.8839    148.8627   7.6683511953e+01   3.7602116336e+01    0.4959588    0.4191321  47.66 0.0006191539    1.164    0.141
        40 -13.2451     68.6355    144.4818   7.3314263895e+01   3.7345921403e+01     1.852929    0.8740704  64.55  0.003711428    3.280    0.695
        41 -10.3068    102.9573    171.1992   6.8310574169e+01   2.5962690300e+01    0.3672917     0.187618  55.72  0.001536128    2.253    0.556
        42  -8.7295    110.4737    166.9350   6.5776637088e+01   2.5633172736e+01    0.1981481    0.1398677 -60.84 0.0005166015    1.532    0.347
        43 -11.3682     56.4751    165.4669   7.9366054420e+01   3.3995067314e+01    0.3887608    0.3053762 -16.96  0.001659834    1.890    0.471
        44 -11.9371     61.3805    161.4116   7.7608975775e+01   3.4308576047e+01    0.5199883    0.3383228  53.56  0.001607001    1.431    0.301
        45 -10.4361    247.1825    164.3091   3.7444912667e+01   2.1872188673e+00    0.2395628    0.1938341 -20.36 0.0006917494    1.161    0.139
        46 -10.6718    245.3672    158.5788   3.6601468327e+01   3.2287818704e+00    0.3416038    0.2016089 -40.37  0.001035106    1.812    0.448
        47  -9.5267    229.5237    165.5097   4.0511941555e+01   4.7751839455e+00    0.1274103    0.1072095  -3.42  0.000118193    1.023    0.022
        48 -10.4368     38.9780    162.3857   8.3584401066e+01   3.6751475958e+01    0.3152312    0.1826429  62.41  0.001561237    1.637    0.389
        49  -9.7162    234.6699    159.6666   3.8508837576e+01   4.7689400408e+00    0.1343361   0.08696007   3.15 0.0007052063    1.724    0.420
        50 -10.2532     28.9924    151.4898   8.5218657176e+01   4.0338300839e+01    0.2598791     0.152035  78.26  0.001130619    1.643    0.391
        51  -9.7920    133.8266    146.0666   5.6116581453e+01   2.5868752044e+01     0.770756    0.1898551 -53.66  0.001906893    5.848    0.829
        52 -13.9137     38.5718    178.5679   8.5103793835e+01   3.3120841656e+01     2.080934     1.022806  86.30  0.009900294    2.150    0.535
        53 -12.3824     72.8568    153.6485   7.3498725651e+01   3.4562398511e+01     1.376747    0.5461624  57.79  0.001151269    3.818    0.738
        54  -8.9678     40.4749    145.3880   8.1425527792e+01   4.0626071755e+01     0.289283    0.1198502 -73.20  0.001234647    2.260    0.557
        55 -10.2779     96.6686    135.4866   6.3786769546e+01   3.5108871041e+01    0.5058686    0.3728015   3.87  0.002321091    1.998    0.499
        56 -10.8814     72.9524    135.8413   7.0682614468e+01   3.8821571946e+01    0.3467399    0.2204479  77.09  0.001554306    1.977    0.494
        57 -10.0905    106.5799    129.0680   5.9683146051e+01   3.4836739055e+01    0.5321962    0.3604946 -23.82  0.002256974    2.182    0.542
        58  -8.2834    148.7172    128.6856   4.8666525483e+01   2.6502559371e+01      0.15012    0.1189896  -1.41 0.0003277226    1.576    0.366
        59 -10.8153     15.3932    123.2509   8.6489202194e+01   4.8363339791e+01    0.5193332     0.209855  55.93   0.00222907    2.682    0.627
        60 -10.5910     12.4092    118.2091   8.6931332479e+01   4.9822062004e+01     0.328768    0.1938617  60.58  0.001312714    1.697    0.411
        61 -10.2150     40.1479    122.9162   7.8687338717e+01   4.6202404126e+01    0.2960266    0.2383668  74.40  0.001031923    1.193    0.162
        62 -11.7792     80.2940    147.9479   7.0589235070e+01   3.4814418423e+01    0.6668888    0.5383508 -18.25  0.001382377    1.689    0.408
        63  -9.7722     95.2888    122.6143   6.1528418021e+01   3.8402334052e+01    0.2895456    0.2509024   8.74  0.000817474    1.380    0.275
        64 -10.1365     32.1945    118.2142   8.0589144265e+01   4.8182877349e+01     0.230843    0.1912801  77.41 0.0003044193    1.138    0.121
        65  -9.1633    105.1398    116.9914   5.7374230631e+01   3.7917671670e+01    0.2166642    0.2107393  71.28 0.0004610779    1.012    0.012
        66  -9.0839     23.5321    116.1198   8.3135761867e+01   4.9483237787e+01    0.2591387    0.1163292 -79.77  0.001140651    2.083    0.520
        67 -15.7922      8.4779    226.3682   9.4141073803e+01   2.6440280432e+01     5.432962     2.020233  21.44   0.01487776    4.346    0.770
        68 -10.3129     43.5727    113.7165   7.6180865709e+01   4.8138115719e+01    0.3322266    0.2248285 -65.97  0.001228281    1.331    0.249
        69 -10.1149     41.9566    109.7796   7.6078453150e+01   4.9305901890e+01    0.2225984    0.1941511 -89.55 0.0007840869    1.072    0.068
        70  -9.6105    205.4074    110.2966   3.2551460810e+01   1.7808144898e+01    0.2771755    0.2449758  34.20 0.0008010229    1.183    0.155
        71  -9.6133    148.4221    229.7590   6.6488208332e+01   8.0939233463e+00    0.1499687    0.1114122 -27.35 0.0009532995    1.674    0.403
        72  -8.4719    112.6441    109.3176   5.3331460205e+01   3.8212169741e+01    0.1615019    0.1215553  80.80 0.0007045511    1.750    0.429
        73 -10.0914    132.3290    103.0718   4.6294546071e+01   3.5412998027e+01    0.6204757     0.372925 -74.38  0.002038938    3.409    0.707
        74  -9.1415     24.1622    105.1526   8.1504437157e+01   5.2173151987e+01    0.1968579    0.1633989 -59.29 0.0006626582    1.159    0.137
        75 -11.9201     83.1337    135.0604   6.7575390854e+01   3.7455098009e+01    0.7145075    0.3348956 -49.74  0.001468575    2.217    0.549
        76  -8.9166     19.6685    102.1969   8.2676021169e+01   5.3269554842e+01    0.2932435     0.107737  41.25  0.001226382    2.815    0.645
        77 -10.5391     54.4302     96.3213   6.9107586756e+01   5.1195382710e+01    0.2714839    0.2404942  87.24 0.0008799842    1.151    0.131
        78  -9.7217     41.4450     88.0882   7.2174431832e+01   5.4791616573e+01    0.2781421    0.1927165  42.01 0.0006567793    1.568    0.362
        79  -9.1794     59.0154     69.3444   6.0323832702e+01   5.7050233344e+01    0.2347581   0.09705923  52.55 0.0007050656    4.449    0.775
        80 -10.1966    112.1159    247.1892   7.5499162992e+01   1.0630603163e+01     0.261246    0.1741335 -60.86  0.001086697    1.944    0.486
        81 -12.1954    203.7370     56.7070   1.8958815538e+01   2.6573603227e+01    0.6471666     0.512749  39.74  0.001236021    1.463    0.317
        82 -10.1046    111.8147    240.0124   7.4857238337e+01   1.1780465090e+01    0.2343998     0.187008 -69.98 0.0007309274    1.589    0.371
        83 -11.0629     13.3571     60.3254   7.8175808096e+01   6.3975957479e+01     0.319548    0.2332134 -71.25 0.0006182232    1.234    0.190
        84 -10.5583     79.7604     58.8214   4.8682651897e+01   5.5842617445e+01    0.4907888    0.3431797  85.48  0.002026165    2.622    0.619
        85  -9.2281     53.5329     51.6464   5.6711124112e+01   6.1771425709e+01    0.2793735    0.1950195  68.90  0.001032503    2.364    0.577
        86 -11.2555    110.2989    228.5712   7.3981347946e+01   1.3848753195e+01    0.3999056    0.2827352  41.33   0.00256567    1.123    0.109
        87 -11.0489     97.0924    226.8270   7.6499336314e+01   1.6004309795e+01     0.498686    0.2421328  49.55  0.002634365    1.786    0.440
        88 -11.2508      2.3317     23.5822   7.4426390364e+01   7.2850547875e+01    0.3884446    0.1951028 -59.10  0.002138023    1.626    0.385
        89 -10.6539      7.3234     24.9377   7.1632933632e+01   7.2284174288e+01    0.1888156    0.1446516 -72.40  0.001201751    1.464    0.317
        90  -9.8407     43.1547    248.2828   8.8628602694e+01   1.9057678498e+01    0.2942028    0.1492116  62.03 0.0008237688    1.660    0.397
        91  -9.3868     60.6100     21.1289   4.0032724823e+01   6.6223670215e+01    0.2081729    0.1778027  41.78 0.0004234826    1.246    0.197
        92  -9.2158    189.5036     15.0727   8.9828483515e+00   3.5295452834e+01     0.199886    0.1305063 -29.43 0.0006358378    1.541    0.351
        93 -11.0317     50.9535    243.3111   8.6906261314e+01   1.9016652388e+01    0.5567263    0.2440692 -73.68  0.003228683    2.571    0.611
