#   1 NUMBER                 Running object number                                     
#   2 MAG_AUTO               Kron-like elliptical aperture magnitude                    [mag]
#   3 X_IMAGE                Object position along x                                    [pixel]
#   4 Y_IMAGE                Object position along y                                    [pixel]
#   5 X_WORLD                Barycenter position along world x axis                     [deg]
#   6 Y_WORLD                Barycenter position along world y axis                     [deg]
#   7 A_WORLD                Profile RMS along major axis (world units)                 [deg]
#   8 B_WORLD                Profile RMS along minor axis (world units)                 [deg]
#   9 THETA_WORLD            Position angle (CCW/world-x)                               [deg]
#  10 FWHM_WORLD             FWHM assuming a gaussian core                              [deg]
#  11 ELONGATION             A_IMAGE/B_IMAGE                                           
#  12 ELLIPTICITY            1 - B_IMAGE/A_IMAGE                                       
         1 -14.4666    162.3438     57.8964   6.9887743065e+01   3.7017377326e+01     1.670138     1.356955  22.13 0.0009702882    1.370    0.270
         2 -14.6021    175.8509     42.8493   6.2421717016e+01   3.5817964319e+01     1.195366     1.038152  -7.14  0.003818437    1.237    0.192
         3 -15.2345    200.7606     10.2050   4.8717308084e+01   3.3232481714e+01     3.213021      1.21877  62.53    0.0105047    2.331    0.571
         4 -11.4147    188.0209    173.7123   9.3979719481e+01   1.0046566938e+01    0.3760397     0.289968 -79.04  0.001446318    1.966    0.491
         5 -13.9768    248.1517    244.5291   9.5483392845e+01  -9.3261143791e+00     0.934772    0.6219643 -13.24  0.006685812    1.595    0.373
         6 -17.0649     84.6648    180.8015   1.1625112762e+02   2.7207979677e+01     5.518767     2.451995 -49.86   0.02515747    2.859    0.650
         7 -15.8325     99.9782    245.3806   1.2010405072e+02   1.3533584871e+01     1.531949     1.202106  29.94   0.00604566    1.776    0.437
         8 -17.2425     65.4456    230.0018   1.2452872701e+02   2.0713776709e+01     8.429671     5.544571  86.12    0.0607725    1.361    0.265
         9 -19.1217     44.3027     96.5590   1.1331799398e+02   5.0939434134e+01     15.24928    0.7676921 -62.34   0.02486681   16.035    0.938
        10 -11.3097    223.0197    198.2582   9.2059289212e+01  -1.5673335312e-01    0.1994336     0.170492 -10.07 0.0005027698    1.213    0.176
        11 -11.3529    159.5753    194.8010   1.0323801301e+02   1.1960154461e+01    0.2421996    0.1878639  79.94 0.0008239188    1.608    0.378
        12 -10.1758    207.9170    171.8336   8.9810124897e+01   6.4236964767e+00    0.2569742     0.175961 -61.11   0.00122056    2.314    0.568
        13 -10.2826    194.9812    172.5451   9.2405500616e+01   8.8603723245e+00    0.2195147    0.1806691 -31.54  0.001251285    1.310    0.237
        14 -12.1147    230.6151    167.6188   8.4828059966e+01   2.6619168591e+00    0.3627825    0.1504844 -40.40  0.001498942    2.668    0.625
        15 -10.9816    186.9451    166.0946   9.2700787896e+01   1.1540466488e+01    0.3916581    0.2358925 -40.14  0.001875195    1.794    0.442
        16 -13.6656    133.7874    145.2888   9.9824035426e+01   2.6239136424e+01      1.43835    0.3873734 -55.56  0.003774655    5.472    0.817
        17 -11.7842    129.3197    140.0844   9.9797993497e+01   2.8198756226e+01    0.3351984     0.300301  56.26 0.0007854096    1.086    0.079
        18  -9.5741      3.6243    157.4805   1.3043169082e+02   4.1130563599e+01    0.1083508   0.07702368 -88.14 0.0002728359    1.060    0.057
        19 -10.7799    187.4075    154.1824   9.0159270342e+01   1.3508386776e+01    0.4287689    0.1902505  41.74  0.001686955    2.176    0.540
        20 -11.8300    125.9797    153.5413   1.0317783337e+02   2.6002989869e+01    0.2581381    0.1929467 -77.90 0.0006247692    1.507    0.337
        21 -10.3734    191.5660    151.3199   8.8715795853e+01   1.3135551625e+01    0.2601967    0.1380615 -44.73  0.001018663    2.048    0.512
        22 -11.5104    174.4194    149.0876   9.1730989348e+01   1.7166096823e+01    0.3165765    0.2689852 -69.86 0.0008809455    1.395    0.283
        23 -13.1316    144.3624    146.8716   9.7760846326e+01   2.3823059066e+01    0.7887791    0.3552832 -61.79    0.0026079    3.633    0.725
        24 -12.3761    141.8662    139.1242   9.6706054374e+01   2.5914443288e+01    0.3768166    0.2883213 -32.53  0.001506356    1.514    0.340
        25 -10.4290    160.4845    147.9767   9.4452136661e+01   2.0303343257e+01     0.198949    0.1275095 -70.86 0.0008086119    2.413    0.586
        26 -11.7539    238.7144    186.0276   8.7067341312e+01  -1.3334625157e+00    0.1840021    0.1541113   1.72  0.001174307    1.092    0.084
        27 -12.9429    135.5477    126.8377   9.5470239021e+01   2.9774617999e+01    0.9492062    0.2572134 -50.20  0.002752673    3.954    0.747
        28 -11.8648    160.3955    127.6284   8.9927204174e+01   2.4338661682e+01    0.4294174    0.2896231 -57.08   0.00135181    1.692    0.409
        29 -10.3973    153.8177    125.5731   9.0922061285e+01   2.6187737710e+01    0.2179861    0.1421293  58.93 0.0009468397    1.696    0.410
        30 -11.6475    106.5548    123.6265   1.0187281771e+02   3.6011219025e+01    0.2753438    0.2421585 -39.20 0.0006192801    1.248    0.198
        31 -11.0663    126.9831    123.3205   9.6731255715e+01   3.2247123352e+01    0.2048978    0.1857728  51.62 0.0002686776    1.112    0.101
        32 -12.0582    122.1149    122.2180   9.7675686706e+01   3.3438533337e+01    0.4300461    0.2930274 -16.57  0.001782525    2.514    0.602
        33 -10.9610    113.0633    117.7931   9.8938691403e+01   3.6125647001e+01    0.2419747    0.2246895  88.21 0.0005585606    1.066    0.062
        34 -10.3322    140.2864    116.3244   9.1851010377e+01   3.1008837718e+01    0.1493461    0.1212952  -4.47 0.0003906849    1.604    0.376
        35 -10.8545    231.2954    113.7127   7.2526344876e+01   1.0797161352e+01    0.2634781    0.2349196  13.00 0.0007420523    1.114    0.102
        36 -11.5774    168.1198    113.0851   8.4627677848e+01   2.5476215152e+01    0.4018499    0.3063031 -82.99  0.001146064    1.803    0.445
        37 -10.2399    142.9521    113.9770   9.0631228433e+01   3.0929599427e+01    0.2434513    0.1888137 -85.95 0.0009870171    1.661    0.398
        38 -11.7759    134.5688    105.7712   9.0578850702e+01   3.4443026756e+01    0.5917642    0.1452887 -44.92  0.001632964    3.998    0.750
        39 -11.9886    121.1829    111.6495   9.5425070575e+01   3.5921053350e+01    0.3122075    0.2628905 -78.41  0.001622574    1.294    0.227
        40 -11.9516    117.0409    109.2865   9.5908571509e+01   3.7242175579e+01    0.3009782    0.2163391  43.72  0.001443111    1.446    0.309
        41 -11.0426    205.3781    110.3043   7.6299682912e+01   1.7268566458e+01    0.3556527    0.2636557  36.03   0.00098936    1.403    0.287
        42 -12.0692     75.5826     99.7218   1.0493158809e+02   4.6381371392e+01    0.3231959    0.2743708  82.00   0.00140109    1.288    0.224
        43  99.0000     12.2365    206.4596   1.3179020070e+02   3.0860304734e+01    0.5150846    0.1492006  62.50   0.00251402    3.170    0.685
        44 -10.3530    149.6502     81.9639   8.0230476033e+01   3.5861416314e+01     0.223652    0.1957501 -36.25 0.0004642108    1.128    0.113
        45 -11.0234     85.8743     77.3104   9.6152540285e+01   4.9746543834e+01    0.2341721    0.1774175 -56.95 0.0003023479    1.299    0.230
        46 -10.8250    101.7000     71.8584   8.9789853980e+01   4.8112727657e+01    0.3713988    0.2682352  67.12  0.001763421    1.901    0.474
        47  -9.9656    166.4533    235.3132   1.0777087087e+02   4.6421887815e+00    0.1291966    0.1128332 -83.62 0.0007505188    1.477    0.323
        48 -11.8688    189.4544    178.5128   9.4612796547e+01   8.9801283136e+00    0.3947706    0.3121794  58.25  0.001163989    1.380    0.275
        49 -13.0783    180.4688     36.1159   5.9481023905e+01   3.5528915541e+01    0.4814561    0.3919259  35.10  0.001027413    1.302    0.232
        50 -10.6017     13.3713     59.8759   1.1584220720e+02   6.1544919104e+01    0.1631679    0.1476214 -79.09 0.0004506189    1.249    0.199
        51 -12.2710    187.9688     31.0009   5.6681309680e+01   3.4211484626e+01    0.3045441    0.2147615 -26.68  0.001080296    1.462    0.316
        52  99.0000     23.6081    214.3442   1.3036303003e+02   2.8308943082e+01      0.19685    0.1622286 -47.76  0.001537325    2.126    0.530
