#   1 NUMBER                 Running object number                                     
#   2 MAG_AUTO               Kron-like elliptical aperture magnitude                    [mag]
#   3 X_IMAGE                Object position along x                                    [pixel]
#   4 Y_IMAGE                Object position along y                                    [pixel]
#   5 X_WORLD                Barycenter position along world x axis                     [deg]
#   6 Y_WORLD                Barycenter position along world y axis                     [deg]
#   7 A_WORLD                Profile RMS along major axis (world units)                 [deg]
#   8 B_WORLD                Profile RMS along minor axis (world units)                 [deg]
#   9 THETA_WORLD            Position angle (CCW/world-x)                               [deg]
#  10 FWHM_WORLD             FWHM assuming a gaussian core                              [deg]
#  11 ELONGATION             A_IMAGE/B_IMAGE                                           
#  12 ELLIPTICITY            1 - B_IMAGE/A_IMAGE                                       
         1 -11.4658     89.5514     28.2933   4.3858172050e+01   5.9244857895e+01    0.5024527    0.3383189 -20.31  0.002344502    1.710    0.415
         2 -11.6752     78.4374     29.8023   4.8452727095e+01   6.1637718008e+01    0.6864918    0.4584014 -58.67 0.0007395718    1.993    0.498
         3  -9.5453     46.0000     24.9289   6.1288533003e+01   6.9108069142e+01    0.3366146    0.1890059 -41.22 0.0008284242    1.787    0.440
         4 -11.4642      7.5565     16.6428   8.5844264165e+01   7.5544772178e+01    0.5727738    0.4064688 -17.71  0.002028349    1.359    0.264
         5 -10.7100     15.6819      9.9936   7.5071045320e+01   7.6294013805e+01    0.5447424    0.2706724 -24.43  0.001664882    2.579    0.612
         6 -10.6794     14.2974      3.5530   7.2332461145e+01   7.7710615270e+01    0.4633829    0.3120644  22.67  0.002162718    1.457    0.314
         7  -9.7888     24.6733      7.0180   6.5266416869e+01   7.5764749704e+01    0.2417515    0.2046251 -86.98 0.0008808526    1.861    0.463
         8 -10.2755     20.4593      5.5075   6.7860300451e+01   7.6608162854e+01    0.2291741    0.1998782   3.33 0.0005643376    1.060    0.056
         9 -10.7276    152.0695     18.3440   2.6635307792e+01   4.4354310847e+01    0.3452155    0.2935008  30.88 0.0001091134    1.365    0.267
        10 -12.2363    105.0343     20.9019   3.6146390738e+01   5.6358201483e+01    0.3074176    0.2995877  16.12 0.0003942779    1.085    0.079
        11 -11.2986    133.5502     21.4559   3.0528797903e+01   4.8824920090e+01    0.5626771    0.3364635  72.81  0.001562272    1.644    0.392
        12 -10.4659     26.3070     21.8259   7.2713724378e+01   7.2661611058e+01    0.3650028    0.2376097 -28.40   0.00163046    1.590    0.371
        13 -11.1579    238.1619     17.0038   1.8679977787e+01   2.4994596574e+01    0.2577874    0.2312198   0.62  0.001126259    1.390    0.281
        14 -11.8990     62.3096     16.8168   4.8334584880e+01   6.7262261815e+01    0.7615618    0.3173015  45.20 0.0002283461    2.250    0.556
        15 -11.2561     70.0207     11.6288   4.2173631064e+01   6.6233031105e+01    0.3601955    0.2735894 -47.22  0.001895723    1.516    0.340
        16 -10.9704    174.5032     12.7280   2.2312730375e+01   3.9299973570e+01    0.5169119    0.3347316 -28.58  0.002253418    1.523    0.343
        17  -9.4614    178.0550      9.2181   2.0944711869e+01   3.8777338179e+01    0.2005363    0.1815504 -81.89 0.0008561251    1.065    0.061
        18 -10.8524    125.2967     12.6276   2.8539787031e+01   5.1968666731e+01    0.5313767    0.3570803 -64.29 0.0009628587    1.644    0.392
        19 -10.6527    184.6128      5.3478   1.9289917650e+01   3.7569104152e+01    0.4161511    0.2502528 -47.38 0.0009934267    1.481    0.325
        20  -9.8109    179.9584      1.7121   1.8596266548e+01   3.9003507518e+01    0.3263911    0.1830845  88.83  0.001453775    1.754    0.430
        21 -11.1555    195.4711      3.7095   1.8063015662e+01   3.5194586212e+01    0.3720335     0.233795  65.31 0.0003733551    1.667    0.400
        22  -9.5836    191.6377     11.7732   2.0540053503e+01   3.5320104072e+01    0.3507313    0.1670112 -45.67 0.0009298911    1.841    0.457
        23 -10.3239    191.7216      7.6487   1.9398403779e+01   3.5693842720e+01    0.4559592    0.2161778 -63.81  0.002071688    2.199    0.545
        24 -11.3114    133.0053     12.6953   2.7329404882e+01   4.9921380484e+01    0.2625622    0.2395747 -68.22 0.0003018921    1.078    0.072
        25 -10.1567    245.8289     10.8522   1.6904120064e+01   2.4145468457e+01    0.3239602    0.1813772  -4.89  0.001706574    2.681    0.627
        26  -9.4810    200.1236     12.0976   1.9975478885e+01   3.3357665579e+01     0.221262    0.1650852 -29.19 0.0008984279    1.301    0.231
        27 -10.5346    145.2613     12.7656   2.5614540885e+01   4.6697084244e+01    0.4428957     0.217674  73.38  0.001463682    1.946    0.486
        28  -9.1450     92.9440      8.2283   3.3233411413e+01   6.0942411558e+01    0.2598941     0.185987  73.79  0.001309787    1.391    0.281
        29 -10.2692     90.9971      1.7489   3.0440479632e+01   6.2080601159e+01    0.6260791    0.2641129  83.47  0.002054265    3.660    0.727
        30  -9.4157     89.6773      9.7186   3.4828488839e+01   6.1622028001e+01    0.2882022    0.1809205  43.97  0.001024071    1.545    0.353
        31  -9.5118     88.0588      6.3057   3.3517357820e+01   6.2397697146e+01     0.227191    0.1882805  18.82 0.0007247636    1.303    0.233
        32 -10.2706    100.6552     11.6780   3.3023378507e+01   5.8573263901e+01    0.4890854    0.2309347  52.14  0.001541868    1.919    0.479
        33 -10.2060     97.0387     10.6158   3.3384580914e+01   5.9628919083e+01    0.4735254    0.2306919 -20.25  0.001956323    2.338    0.572
        34 -10.0011     97.8390      6.3858   3.1166661658e+01   5.9857077846e+01    0.3158022    0.1882978  50.82  0.001015048    1.547    0.354
        35  -8.8916     32.4721     11.6643   6.2309040825e+01   7.3772041173e+01    0.2375591    0.1280221 -46.64  0.001119298    1.960    0.490
        36  -9.8320     55.2773      9.1551   4.7012799846e+01   6.9877847476e+01     0.397461    0.2454657 -49.34  0.001301282    2.080    0.519
        37 -10.4137      7.8849      9.2341   8.2142513987e+01   7.7143414763e+01    0.3508805    0.2083375  -0.01 0.0005763202    1.765    0.433
        38  -9.8222      3.1495      6.9624   8.5895870637e+01   7.7941676457e+01    0.4245621    0.2162705 -68.05  0.002112496    2.055    0.513
        39  -9.9155      4.7478      2.2421   8.1643582532e+01   7.8837892326e+01    0.5656978    0.1998025 -40.38  0.002419202    2.568    0.611
        40  -9.9265    212.6329      8.3695   1.8166933352e+01   3.0977194744e+01    0.2710045    0.2271039  41.74  0.001061591    1.509    0.337
        41 -11.3880    207.4839      3.0729   1.7144066609e+01   3.2573739157e+01    0.5609108     0.262405 -67.86  0.002726617    2.193    0.544
        42  -8.7221    103.4789      7.4810   3.0450225855e+01   5.8268458431e+01    0.1435934    0.1300205  58.42 -1.555439e-05    1.035    0.034
        43 -10.0002    107.4106      7.1681   2.9503376299e+01   5.7261106682e+01    0.2995615    0.2130905  67.89 0.0007824755    1.288    0.224
        44  -6.8811     69.0501      2.2411   3.6996810810e+01   6.7556731249e+01     1.120457    0.6005272 -69.93  0.003718153    4.494    0.777
        45 -11.2058     79.2283      4.2284   3.4878005063e+01   6.4846995294e+01    0.2990659    0.2607554  29.93 0.0006886484    1.138    0.121
        46 -11.2180     75.5038      2.0000   3.4741412520e+01   6.6000370382e+01    0.5304442    0.2561427  59.15  0.002138351    1.824    0.452
        47  -9.5936    141.6293      1.8962   2.2192667947e+01   4.8658983431e+01    0.3243935    0.1763098  84.38  0.000948054    1.803    0.445
        48 -10.1902    138.7024      6.9133   2.4372599022e+01   4.8981315650e+01    0.2536846    0.1985008  85.22  0.001386332    1.198    0.165
        49 -10.1922    136.0210      2.5532   2.3101199164e+01   5.0078620016e+01    0.3558427    0.2387195 -47.46  0.001364682    1.491    0.329
        50  -9.4236    170.4364      6.1931   2.0709637134e+01   4.0921712692e+01    0.2442999    0.1389667  61.23 0.0006708779    1.754    0.430
        51  -9.6017    151.0221      4.4428   2.2044887288e+01   4.5991170679e+01    0.5698116     0.271656  67.88  0.002176667    1.914    0.477
        52 -12.0989    160.1310      1.9859   2.0323306104e+01   4.3875944317e+01    0.4560854    0.3378562 -84.58  0.002559764    1.263    0.208
        53  -9.6575    107.1506      2.4084   2.7405242851e+01   5.7771357194e+01    0.4849149    0.2106919  36.91    0.0017905    2.941    0.660
        54  -9.6406     45.6155      5.0724   4.9346945265e+01   7.2449203719e+01    0.3272859    0.1888314  -5.97  0.001264122    2.607    0.616
        55 -11.3550    218.0475      3.2815   1.6600347667e+01   3.0301669951e+01    0.3015424    0.2524233 -57.09 0.0005735124    1.033    0.032
        56  -9.8531     38.4606      4.3146   5.3138219608e+01   7.3942565185e+01    0.3412209    0.2122454  13.85  0.001609388    2.087    0.521
        57  -8.9600     42.0414      1.2159   4.8638501972e+01   7.3687772217e+01    0.1999072    0.1265698  42.40 0.0003695672    1.454    0.312
        58 -10.4693    237.7880      3.8245   1.5739382845e+01   2.6301539719e+01    0.3224361    0.1673317  56.90  0.001501763    2.406    0.584
        59 -10.4850    232.0460      2.7275   1.5761017730e+01   2.7514441697e+01    0.2662354    0.1836762 -67.00 0.0003905097    1.315    0.240
        60 -10.3440    156.0395      3.5027   2.1211129953e+01   4.4784930704e+01     0.205281    0.1713997 -51.19 -6.68438e-05    1.146    0.128
        61 -10.7167     30.4681      2.6554   5.7500380702e+01   7.5607600557e+01    0.3364126    0.2844275  81.76  0.001797524    1.893    0.472
        62  -9.7003     23.4860      1.3628   6.2158097443e+01   7.6918292900e+01    0.2734088    0.1138403  37.12  0.001170696    2.342    0.573
        63  -9.9933    115.8269      2.1145   2.5782326406e+01   5.5486732795e+01    0.2351506    0.2030371 -61.89 0.0003980187    1.188    0.158
        64 -10.4237    249.9882      1.5769   1.4721424512e+01   2.4227806281e+01    0.1683144    0.1209226 -62.09 0.0003155602    1.222    0.182
        65  -9.6154    221.3019    119.7665   4.3691581904e+01   1.5509461162e+01    0.2169971    0.1705868  29.82 0.0006834639    1.352    0.261
        66 -10.9418    200.1688    248.9509   6.9241381985e+01   1.7823692552e+00     0.359861    0.2115136  42.26   0.00217426    2.556    0.609
        67  -8.6906     61.6445    120.2855   8.3220088837e+01   4.4162895482e+01    0.1561487    0.1029547  58.23 0.0007021339    1.670    0.401
        68 -10.5639     28.3479    117.8282   9.4922654685e+01   4.8489059271e+01    0.4130042      0.22503  85.80  0.001487528    2.001    0.500
        69  -8.8469     93.8606    119.1465   7.2222471741e+01   3.9441082178e+01    0.2047764    0.1773415  -5.04 0.0007486422    1.308    0.235
        70  -8.2176     74.3139    119.3106   7.8664209603e+01   4.2589365374e+01    0.1498155    0.1143074 -21.25 0.0007030321    1.632    0.387
        71  -8.6943     41.2519    118.9268   9.0320452562e+01   4.6965225144e+01    0.1802583    0.1179169 -75.74 0.0007454507    1.525    0.344
        72  -8.7122    239.3219    118.3127   4.0873654818e+01   1.2840890224e+01    0.1210871   0.08163198   1.20 0.0006057447    1.654    0.396
        73  -9.1538     80.6438    115.8478   7.5825072881e+01   4.2444574816e+01    0.2048625     0.191888  87.52   0.00111541    1.110    0.099
        74 -10.1072     35.6355    115.2168   9.1896361468e+01   4.8494871716e+01    0.4064617    0.1425274  44.44  0.001472099    2.826    0.646
        75 -10.1799      8.9585    114.4388   1.0179129595e+02   5.0760060239e+01    0.3155718    0.1352772  73.41  0.001290061    2.500    0.600
        76 -10.7670     36.9313    110.2012   9.0716737930e+01   4.9669807347e+01    0.2671924     0.211703 -88.59 0.0004030304    1.256    0.204
        77 -10.4685     20.8913    109.4658   9.6832608568e+01   5.1261350387e+01    0.3312938    0.2366575 -54.62 0.0003844661    1.405    0.288
        78  -9.0579      4.8190    110.9117   1.0309658224e+02   5.1890077709e+01    0.1938145     0.165001 -48.29 0.0005377099    1.261    0.207
        79 -10.3381     89.8399    108.1543   7.1041559666e+01   4.2733370754e+01    0.2642215    0.2331455  64.60 0.0003348379    1.206    0.171
        80  -8.5775     81.7598    107.9663   7.3727562474e+01   4.4172603562e+01    0.1929697    0.1269945 -55.55 0.0006181804    1.550    0.355
        81 -10.6284     32.2852    106.3359   9.1986138733e+01   5.1126774448e+01     0.320817    0.2134753 -15.38  0.001526026    1.918    0.479
        82 -10.1954     71.0030    102.5239   7.6324528213e+01   4.7254927108e+01    0.3412183    0.2960614  87.47  0.001784666    1.254    0.202
        83 -10.8005     50.8880     99.9349   8.3502116455e+01   5.0762141183e+01    0.3716119    0.2071768 -63.68  0.001500897    1.753    0.430
        84  -9.4639     53.4500     95.7408   8.1621620021e+01   5.1509869745e+01    0.2128973    0.1301575 -51.76  0.000952977    1.613    0.380
        85  -9.3725    161.6597    103.8336   5.0533408034e+01   2.9207697209e+01    0.2182728     0.186257  29.27 0.0002983015    1.190    0.160
        86  -9.8589     27.7204    103.1736   9.3382564283e+01   5.2361697458e+01     0.312978    0.2101199 -29.66 0.0009492111    1.763    0.433
        87  -8.6144    142.3288    103.7226   5.4871847762e+01   3.3275727265e+01    0.1447266    0.1194247  86.57 0.0004806079    1.595    0.373
        88 -10.4427    103.1988    101.9585   6.5207934314e+01   4.1676146489e+01    0.5109782    0.3479474   1.73  0.001797997    2.357    0.576
        89  -9.0994     63.4589    103.4482   7.9337808373e+01   4.8161354482e+01    0.1455925    0.1426113  63.82 9.306272e-05    1.002    0.002
        90 -10.7509     56.6533    100.9236   8.1424497136e+01   4.9755769686e+01    0.4606303    0.2899436 -22.79  0.001921344    2.264    0.558
        91 -10.0609    246.3899    101.2096   3.6464065578e+01   1.3910974893e+01    0.1766308   0.08783127 -37.27 0.0004553979    1.692    0.409
        92  -8.7804    112.4138    101.5435   6.2303450130e+01   3.9936931719e+01    0.1507677    0.1456787   7.14 -1.929801e-05    1.042    0.040
        93  -9.4430    126.2141     97.3297   5.7284756811e+01   3.7957725166e+01    0.2848977    0.2025488 -72.19  0.001156397    2.020    0.505
        94 -10.0612    117.7817     97.9388   5.9786301395e+01   3.9607225642e+01    0.2411444     0.214371  33.92 0.0004097301    1.110    0.099
        95  -9.5547    111.8347     97.8841   6.1502226455e+01   4.0847993009e+01    0.2191613    0.2166685 -45.11 0.0005167981    1.042    0.040
        96 -10.6331      2.7274     86.1247   1.0215480739e+02   5.8406081499e+01    0.7309607    0.2596782 -73.41   0.00296968    2.388    0.581
        97  -8.9773      9.3555     98.6779   1.0039136226e+02   5.4820564584e+01    0.2031707    0.1170363  39.37 0.0009089726    1.729    0.422
        98  -9.4108      6.7031     97.3266   1.0137057805e+02   5.5310442984e+01    0.3821573    0.2444398  70.60   0.00146742    1.544    0.352
        99  -9.7833    165.6917     95.7961   4.7644504712e+01   2.9764209902e+01    0.3429637    0.2313051  -3.69  0.001513396    2.119    0.528
       100  -8.9623    141.7134     95.9385   5.2962717037e+01   3.4899602554e+01     0.207746    0.1918524 -39.65 0.0004934241    1.092    0.084
       101  -8.7381     91.5826     95.7978   6.7373489384e+01   4.5312955719e+01    0.2071961    0.1482179 -67.17 0.0004051355    1.645    0.392
       102  -9.5967     86.6068     96.2192   6.9192115764e+01   4.6136227075e+01    0.2127814     0.140907 -42.48 0.0003838455    1.590    0.371
       103  -9.3903     62.6334     96.1151   7.8047201338e+01   5.0131162440e+01    0.5066957    0.1231563  38.93  0.001195487    3.716    0.731
       104 -10.8077     47.7283     92.9106   8.3386795582e+01   5.2967395058e+01    0.4773159     0.263582 -73.47  0.002015943    1.978    0.494
       105 -10.8758     42.9390     89.8956   8.4806391191e+01   5.4317676066e+01    0.3882568    0.2896982 -36.08  0.001959671    1.452    0.311
       106 -10.7122     32.0688     92.4352   8.9970635025e+01   5.4790846362e+01    0.4405034    0.2950191 -24.87  0.001274994    1.797    0.443
       107 -10.5349     64.7268     90.8217   7.5970111758e+01   5.1141393308e+01    0.4299138    0.2756834  17.92  0.001482345    1.849    0.459
       108  -9.6233     59.3370     72.8488   7.3403216190e+01   5.6401206498e+01    0.2612248    0.2259037  48.94 0.0003328294    1.203    0.169
       109 -10.9807     67.1281     74.7755   7.0633196147e+01   5.4670530227e+01    0.5978041    0.2683391  32.02 0.0006751996    2.341    0.573
       110 -10.1798     65.7716     85.5854   7.4222246330e+01   5.2274099236e+01    0.3774786    0.2819913 -31.42  0.001803666    1.518    0.341
       111 -10.0699     66.1405     80.0866   7.2580665107e+01   5.3558209418e+01    0.3731332    0.2470909 -47.17 0.0008310642    1.513    0.339
       112  -9.6286     54.3293     91.4023   8.0319140433e+01   5.2501083505e+01    0.3959877    0.1806783  34.60  0.001564089    2.113    0.527
       113 -10.8493     17.3430     91.1035   9.6199227953e+01   5.6323799835e+01    0.4265954    0.2548952 -22.10 0.0005016186    2.046    0.511
       114  -9.1184    111.5687     88.2711   5.8897477446e+01   4.2961039251e+01    0.3796277    0.1497916 -42.48  0.001028606    2.625    0.619
       115  -9.2098     97.5829     88.2607   6.3288971211e+01   4.5861369425e+01    0.2921828    0.1508475 -54.03  0.001118076    2.120    0.528
       116  -9.6553     86.6392     88.6946   6.7157221089e+01   4.7892812162e+01    0.3681921    0.2552791  20.78  0.001622073    1.727    0.421
       117 -10.4729     25.8986     87.3801   9.1872674269e+01   5.6663717571e+01    0.4057806    0.2298164 -89.45  0.001568051    1.962    0.490
       118  -8.9661     12.6915     88.6310   9.7959906217e+01   5.7263450926e+01    0.2446418    0.1311988   2.75 0.0007031662    2.200    0.545
       119  -9.7982     57.0033     86.9996   7.8182387980e+01   5.3245203739e+01    0.3925132    0.1644692  43.12 0.0009579827    2.483    0.597
       120  -9.3300    154.9568     85.1707   4.7008727701e+01   3.3945897297e+01    0.2692382    0.2184695  11.64  0.001002359    1.450    0.310
       121  -9.4529    154.9748     81.0095   4.5838254582e+01   3.4662747959e+01    0.2775748    0.2076474 -36.59  0.001384175    1.311    0.237
       122 -10.0737    117.1834     83.1741   5.5756315527e+01   4.2801206033e+01    0.3102539    0.2550098  74.57 0.0002281478    1.441    0.306
       123 -10.8981     73.2634     80.6505   6.9872695334e+01   5.2216836613e+01    0.6692081    0.3299648 -39.04   0.00208816    2.417    0.586
       124 -10.0152     77.4851     83.9748   6.9189954924e+01   5.0681030744e+01    0.3735734    0.2813405 -50.65  0.001803202    1.337    0.252
       125 -10.1745     81.3023     82.6199   6.7365861013e+01   5.0303097164e+01    0.4679296     0.312062 -30.74  0.001292781    1.823    0.452
       126  -9.6034    143.3589     84.4431   4.9376509143e+01   3.6683335852e+01    0.2864932    0.1769182 -40.74 0.0006652484    1.610    0.379
       127 -10.1558     51.5579     82.4230   7.9396005583e+01   5.5157436273e+01    0.3882771    0.2719947 -29.79  0.001822409    1.667    0.400
       128  -9.9850     52.4557     77.3625   7.7716501170e+01   5.6307173714e+01    0.3521083    0.2501804  31.14  0.001466513    1.420    0.296
       129  -9.0376     60.0340     82.6933   7.5828297174e+01   5.3877942042e+01    0.2091762    0.1869598  29.28 0.0004303743    1.129    0.114
       130  -8.3416     22.3534     82.2764   9.2689925550e+01   5.8285465909e+01    0.1454855   0.09559193 -35.26 0.0007006946    1.646    0.392
       131  -9.4800     92.0373     80.4841   6.2870915816e+01   4.8710176990e+01    0.3361834    0.2357645 -16.63  0.001415755    2.016    0.504
       132  -9.9904     42.2672     80.0855   8.3003393317e+01   5.6927453344e+01    0.5209914    0.3060535  -2.23  0.002127907    2.450    0.592
       133  -9.6213    150.3935     79.7094   4.6441227323e+01   3.5930321709e+01    0.2814948     0.253577   9.83  0.001334097    1.200    0.166
       134  -8.8803    106.4054     79.7455   5.7924937016e+01   4.5864397932e+01    0.2195642    0.1460404 -32.18 0.0009445798    1.695    0.410
       135  -8.7836    166.4794     68.4592   4.0026000359e+01   3.4083935804e+01    0.2131083    0.1383884 -22.14 6.709326e-05    1.710    0.415
       136 -10.5433    166.9551     77.9694   4.2615144208e+01   3.2466480908e+01    0.2487859    0.2219524 -44.31  0.001391279    1.100    0.091
       137  -9.8897    169.7005     74.4170   4.1125849715e+01   3.2416606483e+01    0.2792858    0.2418893 -54.71 0.0005777506    1.184    0.156
       138 -10.0539    166.1140     72.6860   4.1293785210e+01   3.3503625080e+01    0.2666535    0.2027166 -36.03 0.0002553271    1.266    0.210
       139  -9.9884    119.0513     76.2810   5.3120776237e+01   4.3759257545e+01    0.3108759    0.2320769 -68.49 0.0009820154    1.703    0.413
       140  -9.2808    110.0000     76.9993   5.5970969206e+01   4.5646355192e+01     0.314782    0.2856123  51.92  0.001642024    1.096    0.087
       141  -9.6506    108.2800     73.2990   5.5314392060e+01   4.6780129943e+01     0.265139    0.2575644  62.04 0.0007059316    1.040    0.039
       142  -8.7455    100.1022     76.8793   5.9038817082e+01   4.7822234921e+01    0.2005555    0.1761044 -13.06  0.001007683    1.268    0.211
       143  -9.2814     93.2281     67.7474   5.8362408234e+01   5.1215467919e+01    0.2990718    0.2294272 -33.77 0.0008829054    1.385    0.278
       144 -10.7154     89.1413     73.3354   6.1651008066e+01   5.0873392455e+01    0.5592254    0.3940309 -27.44  0.002501058    1.700    0.412
       145 -10.2337     95.1632     71.9538   5.9101900139e+01   4.9917753204e+01    0.4540781    0.3147053  39.02  0.001005263    1.441    0.306
       146 -10.0794     29.1168     74.7086   8.8082840012e+01   5.9693469900e+01    0.3502093    0.2178622 -53.14  0.001050615    1.501    0.334
       147  -9.7783     18.8658     73.2001   9.2896819618e+01   6.0913631575e+01    0.3879714     0.217159 -68.36  0.001838752    1.622    0.383
       148  -8.6919    151.8625     73.3648   4.4282477020e+01   3.6679834199e+01    0.1963422    0.1322512  42.87 0.0001178062    1.555    0.357
       149  -8.4323    177.2879     71.7410   3.9073684550e+01   3.1129792022e+01    0.1348527    0.1050046 -66.88 0.0002383893    1.487    0.328
       150  -9.9701    144.2110     70.4649   4.5054392214e+01   3.8966797433e+01    0.4837479    0.2918154  50.65  0.001835653    1.650    0.394
       151 -11.1634     52.3688     69.0197   7.5439773486e+01   5.8382047847e+01    0.4834458    0.4125835  77.35  0.002554124    1.355    0.262
       152  -8.8191     81.4736     70.2632   6.3477287623e+01   5.3084633296e+01    0.2943406    0.2369919 -86.48  0.000848942    1.595    0.373
       153  -9.3081     83.6703     65.2866   6.0966815666e+01   5.3732669251e+01    0.2320953    0.2181319  81.57 0.0004524137    1.158    0.136
       154  -9.5238     82.6473     61.5892   6.0052875572e+01   5.4729174915e+01    0.3073296    0.2481244  26.17 7.206856e-05    1.315    0.239
       155 -10.8330     76.3984     65.6632   6.3916073138e+01   5.5091103476e+01    0.4285161    0.3977796  27.38  0.001454085    1.070    0.065
       156  -9.5945     77.6517     61.6938   6.2033106207e+01   5.5714587787e+01    0.2520033    0.2229258  14.38 0.0005478917    1.197    0.164
       157  -9.7297     63.9871     69.1362   7.0239050230e+01   5.6535336433e+01    0.2846702    0.2538947 -48.52  0.001019191    1.117    0.105
       158  -9.1635    102.7576     69.0514   5.5638604667e+01   4.8868986833e+01      0.32711    0.2061101 -14.41  0.001203867    2.709    0.631
       159  -8.7040    106.3468     66.3091   5.3590917580e+01   4.8608671141e+01    0.2586426    0.1538582  43.16 0.0006198084    1.671    0.402
       160  -9.6734     35.9673     53.3163   7.9020692291e+01   6.4367302989e+01    0.3935362    0.2571916 -36.90  0.001907681    1.572    0.364
       161 -10.1917     29.6838     68.0711   8.6372165543e+01   6.1350736509e+01    0.4171077    0.3268364  49.47  0.001669776    1.382    0.276
       162  -9.6200     26.8411     63.0501   8.6708718504e+01   6.2895724632e+01     0.290975    0.2070039 -84.78 0.0008803901    1.545    0.353
       163  -9.7558     22.7322     68.1747   8.9995966336e+01   6.1929802672e+01    0.3605533    0.2691615   7.28  0.001303143    1.455    0.313
       164 -10.4563     22.4368     62.2414   8.8915111134e+01   6.3477279895e+01    0.6522807    0.1643848 -54.57  0.001714207    3.071    0.674
       165 -10.6756     29.4381     52.0535   8.2354499303e+01   6.5395303591e+01    0.4121616    0.1966662  23.04 0.0008536114    2.165    0.538
       166 -11.0597     25.0831     55.6013   8.5852109234e+01   6.4933359168e+01      0.45059    0.2627221 -75.80   0.00121423    1.860    0.462
       167 -11.1069     20.4546     53.1543   8.7933807705e+01   6.5934437472e+01    0.4841777     0.319253   6.78  0.001594082    1.652    0.395
       168 -11.5796     13.2699     38.1082   8.8576966599e+01   7.0163411314e+01    0.8153647    0.2381869 -56.36  0.003138419    2.619    0.618
       169 -11.1893      8.1406     50.8599   9.4877703179e+01   6.7287422455e+01    0.6034834    0.3543427  -4.28  0.003016866    1.891    0.471
       170 -11.1457      2.2710     66.3915   1.0047964536e+02   6.3546938878e+01    0.3826492    0.1927374 -63.62  0.001315806    1.701    0.412
       171 -11.6857      5.6662     60.3648   9.7877596755e+01   6.4972410700e+01    0.6756963    0.5195681 -47.45  0.002681182    1.214    0.176
       172  -9.1713    173.1846     68.5156   3.8872315069e+01   3.2541201702e+01    0.1951169    0.1408034  61.96 0.0009878357    1.471    0.320
       173  -8.6466    157.3129     68.3278   4.1700124229e+01   3.6236492310e+01    0.1490384    0.1135928  16.52 0.0007042782    1.668    0.401
       174  -9.4209     11.3263     66.3247   9.5680123881e+01   6.3166395497e+01    0.2515573    0.1569162 -58.27 0.0008558799    1.428    0.300
       175 -10.1489     16.2190     64.2713   9.2707912149e+01   6.3406865687e+01    0.4945556    0.2308655 -28.67  0.002009073    2.614    0.617
       176  -9.3186    120.0553     67.2891   4.9958868027e+01   4.5247041361e+01    0.2262747    0.1954874  50.41 0.0008087787    1.137    0.121
       177  -9.5843    147.6588     66.0909   4.2975810511e+01   3.8885060880e+01    0.2419605    0.1964846 -33.19 0.0005365504    1.234    0.190
       178 -11.0048    135.1683     64.1947   4.5142335946e+01   4.2199935539e+01    0.4945176    0.3886382  80.45   0.00190191    1.488    0.328
       179  -9.9895    135.2333     57.2295   4.2852742270e+01   4.3354022573e+01    0.5150622    0.3012252  29.07  0.001570405    2.539    0.606
       180  -9.8958     97.4840     63.5193   5.5459123179e+01   5.1154628746e+01    0.4042558    0.2858752 -80.87 0.0007247836    2.213    0.548
       181 -10.7024     65.7477     61.3582   6.6894709856e+01   5.8027597775e+01    0.4445994    0.2956555  29.84  0.001233852    1.569    0.363
       182  -9.4497     70.5252     60.4620   6.4518515654e+01   5.7356091577e+01    0.2611473    0.2225461 -46.68 0.0006048694    1.184    0.156
       183 -10.2063     54.4871     62.9518   7.2576249288e+01   5.9527107321e+01    0.2998217    0.2606202  77.97 0.0009841222    1.346    0.257
       184 -12.0279     56.0000     56.7956   6.9775524527e+01   6.0724460460e+01     0.402416    0.3441631  39.38 0.0003375245    1.189    0.159
       185  -8.9771    193.4968     62.5183   3.4136268749e+01   2.8894032367e+01    0.1341879    0.1233936 -38.92 7.870577e-05    1.009    0.009
       186  -8.9401    156.2313     61.1763   3.9768786560e+01   3.7624036507e+01    0.1963287    0.1653588 -80.24 0.0004473859    1.316    0.240
       187  -8.8690     43.5292     61.5270   7.7521073737e+01   6.1430677656e+01    0.1440657    0.1352874 -30.99 0.0008090937    1.035    0.034
       188  -8.9433    142.9931     59.0019   4.1735752697e+01   4.1167478642e+01    0.2256697    0.1741577  25.40 0.0003210533    1.558    0.358
       189  -9.0478     31.0019     58.8744   8.3394930280e+01   6.3547809624e+01    0.2268875    0.1621594  65.07  0.001116781    1.736    0.424
       190  -9.6999    116.2577     56.4264   4.7281840499e+01   4.8122775278e+01    0.3070946    0.3012439  -5.53  0.001293256    1.054    0.051
       191  -9.1153    226.5009     57.0526   2.8872615611e+01   2.2855471693e+01    0.1889637    0.1048717 -31.87 0.0005774563    1.520    0.342
       192  -9.3397    125.4372     57.2076   4.5166786837e+01   4.5757001416e+01    0.2495552    0.1830123 -72.83  0.001123614    1.760    0.432
       193 -10.2498    123.0394     51.9087   4.3916749532e+01   4.7236444720e+01    0.3820113    0.3390019 -79.19   0.00124786    1.218    0.179
       194  -9.9072     82.8212     55.0822   5.7585620856e+01   5.6038219275e+01    0.4382133    0.2992494  -4.43  0.001456347    2.333    0.571
       195  -8.1958    163.6776     55.6784   3.6774794712e+01   3.6671947623e+01    0.1460976    0.1101495  22.72 0.0002762399    1.676    0.403
       196  -9.3446     64.4578     54.5307   6.5003630749e+01   5.9777449105e+01    0.2241741    0.2172999  43.09  0.000531772    1.069    0.065
       197  -9.4987     61.5180     52.4568   6.5567442021e+01   6.0758515257e+01    0.2709178    0.2359574   4.62 0.0006737472    1.216    0.178
       198  -9.1771     42.7622     53.0538   7.5211181488e+01   6.3568584767e+01    0.3973593    0.2633521 -51.23  0.001940863    1.445    0.308
       199  -8.8767    192.5030     53.4293   3.1851370535e+01   3.0332700214e+01    0.1316375    0.1236913 -40.93 8.495335e-05    1.040    0.038
       200  -9.3122    146.0951     52.6616   3.9059241798e+01   4.1399918025e+01    0.2346703    0.1817773 -87.18 0.0008117256    1.496    0.332
       201  -9.1207     95.9555     52.7707   5.2034580727e+01   5.3585415069e+01    0.2453829    0.1760752  77.93  0.001063457    1.918    0.479
       202 -10.4051     70.4417     51.9128   6.1363775471e+01   5.9210797782e+01    0.4453266    0.3606612 -43.37  0.001597292    1.251    0.200
       203  -8.8748    183.8783     52.2759   3.2689070838e+01   3.2423296256e+01    0.1808275    0.1705239  81.72 0.0009163482    1.104    0.094
       204  -9.9182    111.0300     51.9091   4.7097222711e+01   5.0177910758e+01    0.2206788    0.2111029  48.92   0.00119445    1.019    0.019
       205  -9.9386    175.0337     49.2111   3.3074163320e+01   3.4885698131e+01    0.4848801    0.3425207  15.51  0.002341595    1.980    0.495
       206  -9.3251    200.6075     50.1698   2.9989285021e+01   2.8981210943e+01    0.2196542    0.1738236 -88.90  0.001282195    1.396    0.284
       207 -10.1077    140.8538     48.6685   3.8792884222e+01   4.3307210880e+01    0.5233079    0.2276639 -30.20  0.001963425    2.413    0.586
       208  -9.6681    136.7877     49.3820   3.9877296970e+01   4.4215676106e+01    0.2928242    0.2327992  48.59 0.0003830318    1.264    0.209
       209  -9.2680    133.4872     48.5278   4.0295686196e+01   4.5173613543e+01    0.2707855    0.1871194  73.09  0.000665124    1.594    0.373
       210 -10.1445     87.1231     49.0370   5.3633061404e+01   5.6286755009e+01     0.389807    0.2967131  39.54  0.001057944    1.297    0.229
       211 -10.1718    128.4736     48.5707   4.1435860672e+01   4.6422989732e+01    0.2946209    0.2512109 -76.80 0.0006955346    1.284    0.221
       212  -9.4688    150.7242     46.3191   3.6131138108e+01   4.1187631596e+01    0.4418853    0.1363597 -49.41  0.001181627    4.922    0.797
       213  -8.6128    149.6292     43.3102   3.5347478262e+01   4.1886061674e+01    0.2908716    0.1889223 -74.40  0.001276822    1.987    0.497
       214  -9.7803     86.0435     37.1645   4.9042804899e+01   5.8664131997e+01    0.3914265    0.2370347 -33.33  0.001416076    1.745    0.427
       215 -10.4205    115.6291    248.2789   8.5076431818e+01   1.1390105122e+01    0.2155104    0.1608133  12.89   0.00122421    1.240    0.193
       216  -9.0703    235.0301     47.2516   2.5798204197e+01   2.2389682156e+01    0.1601558    0.1354535 -50.02 0.0003758052    1.092    0.084
       217 -12.6816     61.7742     44.4602   6.2243269733e+01   6.2411375583e+01    0.4188153    0.3085089  45.22 0.0003278489    1.382    0.277
       218 -11.1134     57.5843     45.4980   6.4693369731e+01   6.2953767675e+01    0.3160825    0.2779878  66.84 6.265895e-05    1.344    0.256
       219 -10.0016     46.7008     46.8758   7.0853697363e+01   6.4432654608e+01    0.3699113    0.2072839  33.48 0.0009625868    1.786    0.440
       220  -9.7606     38.8675     47.1002   7.5285027340e+01   6.5482155070e+01     0.220526    0.1981704  12.36 0.0005014752    1.117    0.105
       221  -8.8300     31.9428     47.3656   7.9412986579e+01   6.6260846514e+01     0.187341    0.1652288 -26.40  0.001074535    1.093    0.085
       222  -9.8927     17.0498     46.6422   8.8374486477e+01   6.7812660395e+01     0.257117     0.222479 -45.40 0.0008942718    1.052    0.049
       223 -10.2259    115.4615     45.0401   4.3333855305e+01   5.0237878423e+01    0.3452699    0.2271062  56.42 0.0004635692    1.469    0.319
       224  -9.4317    122.8347     45.1718   4.1541625201e+01   4.8370845076e+01    0.3901159    0.2000553  57.54  0.001580685    1.885    0.469
       225 -10.7088    105.6929     43.2221   4.5303308275e+01   5.2949716889e+01    0.5655911    0.3887644  75.35  0.002513214    1.794    0.443
       226  -9.5550    245.5273     44.5032   2.4318083558e+01   2.0776705453e+01    0.2050714    0.1156176  70.19  0.001063294    2.126    0.530
       227  -9.5206    248.9977     43.4772   2.3827901631e+01   2.0273051177e+01    0.1725312    0.1458124 -14.71 0.0004163084    1.275    0.216
       228 -10.1120     91.9474     43.6085   4.9744519069e+01   5.6177566815e+01    0.2811534    0.2196198 -48.75 0.0007038901    1.371    0.270
       229 -10.1936     72.8911     42.3759   5.6400578472e+01   6.0628638283e+01    0.4537622    0.2130387 -31.17  0.001635868    2.747    0.636
       230  -9.8850      3.1783     42.9218   9.6575542618e+01   6.9485952516e+01    0.2907032     0.181518 -43.51 0.0007888784    1.450    0.310
       231 -11.5211      6.4443     35.6677   9.2773069921e+01   7.1140649747e+01     0.667134    0.4192109  84.66  0.003399271    1.905    0.475
       232 -10.5798      9.7216     31.6137   8.9264427904e+01   7.1945889733e+01    0.3209449     0.211284  34.95  0.001201433    1.690    0.408
       233  -9.4354    200.5386     43.1962   2.8170109090e+01   2.9859463806e+01    0.2206212     0.179894  78.74 0.0007630239    1.311    0.237
       234  -8.6877    189.4303     43.4843   2.9533210677e+01   3.2298028845e+01    0.1338013    0.1212695 -48.91 8.314273e-05    1.009    0.009
       235  -8.7669     86.9901     43.0105   5.1215684776e+01   5.7426913068e+01    0.1743358    0.1700675 -12.25 0.0003533313    1.049    0.047
       236  -9.4226     28.3038     42.5025   7.9992084146e+01   6.7813292241e+01    0.2722404     0.181307  -5.40  0.001228591    1.748    0.428
       237  -9.1226     46.3855     42.0967   6.9124047992e+01   6.5540967527e+01    0.3032545    0.1736955  -8.03  0.001047345    3.551    0.718
       238  -9.9469     22.4250     41.4053   8.3396237561e+01   6.8652558695e+01    0.2466704     0.199231 -37.16 0.0008401317    1.154    0.133
       239 -10.1323    145.2885     40.3172   3.5133710995e+01   4.3394989402e+01    0.3361433    0.2440387  26.83   0.00116239    1.733    0.423
       240  -9.1730    148.5454     38.4876   3.3944109972e+01   4.2819721530e+01     0.238505    0.2069546 -66.31 0.0001256492    1.157    0.135
       241  -8.7362     34.5718     41.4435   7.5725828459e+01   6.7336987706e+01    0.2397496    0.1334607  10.56   0.00101179    2.287    0.563
       242 -10.2628    228.6932     39.1708   2.4462646838e+01   2.4508870578e+01    0.2960027    0.2181557 -17.35  0.001839329    1.421    0.296
       243 -12.0851    238.7654     37.5752   2.3291264320e+01   2.2764772276e+01    0.3080976    0.2720013  24.53 0.0003671469    1.434    0.302
       244  -8.9174    203.5015     39.1205   2.6788191052e+01   2.9701779777e+01    0.1889241    0.1141109 -33.01 0.0006795056    1.472    0.321
       245  -9.5539    126.8829     39.5995   3.8567220959e+01   4.8185673070e+01    0.6477832    0.1250166  58.74  0.001701598    4.565    0.781
       246  -9.9155    247.4770     36.4296   2.2399680832e+01   2.1296465758e+01    0.2126362    0.1491631  -7.95  0.001164091    1.707    0.414
       247  -9.4628    177.2639     36.9832   2.9204728537e+01   3.5936327459e+01    0.2639714    0.1945307 -89.88  0.001177066    1.448    0.309
       248  -9.3827    153.9409     37.1761   3.2611727519e+01   4.1632601889e+01    0.2145641    0.1814575 -70.56 0.0003158191    1.194    0.163
       249  -8.6847    166.9863     36.2116   3.0346780143e+01   3.8515599786e+01    0.1734547    0.1104166  69.00 0.0003293405    1.584    0.369
       250 -11.0097    113.3992     34.4709   3.9760550967e+01   5.2374224444e+01    0.5565587     0.448059  50.80  0.002868718    1.197    0.164
       251 -11.7146    107.1166     30.3800   3.9686199871e+01   5.4560654680e+01    0.6336178    0.4353153  33.33  0.002944916    1.660    0.398
       252 -10.5814     97.9906     34.9859   4.4192771342e+01   5.6160740206e+01    0.2881012    0.2649298  46.22 0.0003200722    1.042    0.041
       253 -10.2404     64.8810     30.7332   5.4537390096e+01   6.4441051926e+01    0.4419706    0.2768255 -37.87  0.001497029    1.642    0.391
       254 -10.6383     72.2410     30.4503   5.1211527823e+01   6.2920538964e+01    0.5485789    0.3755583 -55.57  0.001399744    1.823    0.451
       255 -10.2283     78.5770     35.0650   5.0857748286e+01   6.0726990593e+01    0.3998133    0.2726767  60.35 0.0008785605    1.614    0.380
       256  -8.9545    158.3164    244.3236   7.6236267854e+01   6.9748326280e+00    0.1137035   0.06979456   3.22 0.0003333431    1.667    0.400
       257  -9.1766     56.6314     36.1643   6.1095766146e+01   6.5038479280e+01     0.227953     0.186128 -11.48  0.000348369    1.332    0.249
       258 -10.5721     60.7694     34.4237   5.8242485850e+01   6.4590113405e+01    0.2499982    0.2430814 -43.77 0.0002724156    1.121    0.108
       259 -10.3398    146.3969     28.9403   3.1073940120e+01   4.4595032156e+01    0.2749493    0.2258617  72.11 0.0003617344    1.177    0.151
       260 -10.0733    140.0139     33.7697   3.3840536237e+01   4.5623086615e+01    0.2770707    0.2293487 -40.20            0    1.214    0.176
       261  -9.6448    141.9763     30.5391   3.2362332096e+01   4.5533937581e+01    0.3763822    0.2170853  45.02  0.001056762    1.891    0.471
       262  -9.3865    130.1366     35.0374   3.6199696206e+01   4.7996517420e+01    0.2902852    0.2215352 -59.66   0.00136096    1.413    0.292
       263  -8.7482     46.9650     34.4885   6.5477338646e+01   6.7062667341e+01    0.3050643    0.1345178  37.39  0.001223736    2.243    0.554
       264  -9.2307     43.5605     32.4959   6.6508358357e+01   6.8020844066e+01    0.2259623    0.1787411 -50.87 0.0006836818    1.324    0.244
       265  -9.8077     31.0666     33.8632   7.4920602208e+01   6.9482554190e+01    0.2187369    0.1798422  19.99 0.0002687292    1.222    0.182
       266 -10.0414    233.9812     30.6711   2.2070438208e+01   2.4407221618e+01    0.2736648    0.2131169  53.48 0.0009673154    1.567    0.362
       267  -9.1676    158.1893     32.0058   3.0284042170e+01   4.1220938248e+01    0.2753042    0.1650888 -71.39 0.0007726558    2.058    0.514
       268  -8.4205     55.4882     32.5125   5.9950067508e+01   6.5960524646e+01    0.1410946    0.1356876  13.07 0.0008098814    1.053    0.050
       269  -8.0374     51.9984     33.0000   6.2011997311e+01   6.6500990699e+01    0.2315706   0.07888367  39.71 0.0007306237    2.892    0.654
       270  -9.7763     24.5794     31.6753   7.8427344828e+01   7.0711828581e+01    0.2721009    0.1979202  25.69  0.001432542    1.407    0.289
       271 -10.1668    248.5051     30.1298   2.0954344384e+01   2.1767832887e+01    0.2550417     0.178206  -7.80 0.0008843823    1.734    0.423
       272  -9.2659    178.6328     30.7082   2.7201850238e+01   3.6361857991e+01    0.2644054    0.1592786 -31.37   0.00131106    1.575    0.365
       273  -9.1092    133.0345     31.2887   3.4252084327e+01   4.7749638654e+01    0.2114247    0.1810073  71.89  0.001014434    1.126    0.112
       274  -9.9151    119.3526     30.8773   3.6932169635e+01   5.1349588510e+01    0.2994408    0.2112681  52.85 0.0006263084    1.356    0.263
       275  -9.0045    196.6554     29.8025   2.5009240617e+01   3.2285326496e+01    0.1903884   0.09918975 -38.96 0.0004228714    1.665    0.400
       276 -10.6766     18.8137     28.2233   8.1231552916e+01   7.2059851076e+01     0.375023    0.2724631 -72.07 0.0008374423    1.554    0.357
       277  -9.3959    190.5820     29.0882   2.5425393647e+01   3.3746538144e+01    0.2346905    0.1680818 -70.76  0.001296728    1.423    0.297
       278  -9.3392     29.9653     28.9157   7.3498565819e+01   7.0703687607e+01    0.2274622    0.1465701 -24.34  0.001107223    1.735    0.424
       279 -10.9709     37.6473     26.7450   6.7347189670e+01   7.0104785278e+01    0.4677247    0.3031436  36.20  0.002369156    1.552    0.356
       280 -10.3920    222.0883     26.6102   2.1995135137e+01   2.7185530680e+01    0.2736476    0.1925219 -47.11 0.0004870928    1.201    0.167
       281 -10.4275    221.4568     21.0552   2.0698226005e+01   2.7889578414e+01    0.3026063    0.2277897 -70.66  0.001225897    1.289    0.224
       282 -10.1787    217.3032     17.4817   2.0117521490e+01   2.9108481710e+01    0.2228233    0.1992418 -44.94 0.0002719726    1.095    0.087
       283  -9.5060     48.7830     26.9866   6.0778087875e+01   6.8231547225e+01    0.2554519    0.1866589  41.19 0.0004160905    1.370    0.270
       284  -9.6220      1.6556    244.0009   1.0830297370e+02   2.3373945935e+01    0.1434746    0.1026872  54.12 0.0004865233    1.123    0.110
       285  -8.9167     82.7132     26.0099   4.5076643343e+01   6.1230802498e+01    0.1879094    0.1829628  -1.31 0.0002706518    1.064    0.060
       286 -10.6039      1.9179     24.8989   9.3508911801e+01   7.3917979471e+01    0.3701883    0.2079242 -58.49  0.001236226    1.505    0.335
       287  -9.0546     44.0295    243.7935   9.9642924899e+01   1.9757079317e+01    0.1544957   0.06684084  29.10 0.0008665051    1.733    0.423
       288  -9.0581    244.5609    242.2420   6.1242402441e+01  -1.9974304051e+00    0.1296789   0.06921678 -12.92  0.000504459    1.561    0.360
       289  -9.1854    145.6820    242.2958   7.8448135246e+01   8.7147564658e+00    0.1073128   0.07328711  42.49 0.0003748103    1.609    0.379
       290 -10.2555    247.8416    239.3891   6.0362948245e+01  -2.0400134433e+00    0.1674159    0.1216467  21.13  0.001398255    1.565    0.361
       291  -9.2068    201.4972    240.4796   6.7916358488e+01   2.5589209089e+00    0.1094543   0.07561111   9.25 3.467927e-05    1.028    0.027
       292 -10.6623     62.2397     23.2456   5.1913674892e+01   6.6271134472e+01    0.3979254    0.2932152  -9.10  0.001990825    1.607    0.378
       293  -9.6599    154.0265     23.5428   2.8110173045e+01   4.3278114335e+01    0.3224028    0.2710378 -65.76  0.001810245    1.156    0.135
       294  -9.8959    189.9611    240.4935   6.9931455583e+01   3.8282564771e+00     0.166902     0.081862  27.22 0.0006247912    1.578    0.366
       295  -8.9609    152.7908     13.6303   2.4954449648e+01   4.4660474763e+01    0.2382425     0.157206 -77.59 0.0005274174    1.587    0.370
       296  -9.3595    109.2886     23.7455   3.6347176132e+01   5.4897230272e+01     0.218059    0.1878513  -5.89 0.0004668964    1.301    0.232
       297  -9.3963    171.0069    239.6699   7.3278279260e+01   6.0862248773e+00    0.1885885   0.07253742  15.62 0.0007049784    4.315    0.768
       298 -10.7429     79.6254     44.5121   5.4591424908e+01   5.8790090001e+01    0.6032984    0.3541719 -30.14  0.001862662    1.969    0.492
       299 -10.4057    173.3363     22.1522   2.5268635038e+01   3.8606307176e+01    0.4691345    0.1712319  59.80  0.001870083    2.600    0.615
       300  -9.2718    143.5634     16.4971   2.7163981820e+01   4.6753746470e+01    0.3441533    0.1385039  75.25  0.001279966    2.594    0.614
       301  -9.0313    144.1042     21.0348   2.8685451285e+01   4.6117104278e+01    0.3646864    0.2002976 -79.69  0.001123452    2.375    0.579
       302 -10.7073    221.8589    236.8192   6.4027833240e+01   7.8514470820e-01    0.2405776    0.1577592  -5.63  0.001832504    1.215    0.177
       303  -9.5835    139.9632     20.1023   2.8987013724e+01   4.7300195247e+01    0.2307647     0.212725  15.99 0.0008315274    1.231    0.188
       304 -10.2529     86.1194     22.1718   4.2071351715e+01   6.0964442408e+01    0.2469266    0.2098175  51.62   0.00047395    1.103    0.093
       305 -10.6349     50.4954     22.0242   5.7168727918e+01   6.8822718663e+01    0.3010829    0.2377491 -18.63 0.0007187125    1.320    0.242
       306 -10.2384    188.0592    235.5071   6.9617596329e+01   4.6251037093e+00    0.1675737   0.08408035  27.30 0.0006946041    1.561    0.359
       307  -9.5453    116.9248     22.2940   3.4024883793e+01   5.3089373435e+01    0.2469577    0.1719446  49.98 0.0002817676    1.394    0.283
       308  -9.1043     12.2770     22.3623   8.4058241259e+01   7.3930529741e+01    0.2265479     0.125201 -29.05  0.001098174    1.852    0.460
       309 -10.2422    244.0230     20.8395   1.9193048879e+01   2.3519244791e+01    0.2399139    0.1590676  84.22 0.0009070014    1.696    0.410
       310  -9.0881    207.3927     21.1714   2.1783159199e+01   3.0842664551e+01    0.1932975   0.08892106 -40.16 0.0005838822    1.802    0.445
       311  -9.1684     36.2708     20.5875   6.4997844314e+01   7.1529802142e+01    0.2363915    0.1911385  14.88 0.0008382414    1.209    0.173
       312  -9.7579    193.4032     20.1377   2.2688856839e+01   3.4070455320e+01    0.1992508    0.1725927 -89.52 0.0002030627    1.150    0.130
       313 -10.6885    166.0952     18.4191   2.4937337980e+01   4.0793464692e+01    0.3325345    0.2451883  37.14   0.00080867    1.629    0.386
       314  -9.4668     83.4928     41.0636   5.1659394737e+01   5.8568305407e+01    0.2568069    0.2089886 -42.49 0.0004151313    1.280    0.219
       315  -9.3499     80.1970     19.3273   4.2634811516e+01   6.2793410969e+01     0.248631    0.2011361  34.83  0.001318697    1.219    0.180
       316  -9.0574    119.8814     25.8452   3.4828258198e+01   5.1873860151e+01    0.2129001    0.1867734  40.70 0.0004226388    1.178    0.151
       317  -8.7792     31.9757    232.0530   1.0167967086e+02   2.2886113944e+01    0.1348892   0.09983607  42.53 0.0003545214    1.004    0.004
       318  -9.3514    198.9449     18.7694   2.1841913955e+01   3.2955563122e+01    0.2662966    0.1596699  88.11  0.001038119    1.767    0.434
       319 -10.8471    182.2992     18.4624   2.3249248896e+01   3.6838307984e+01     0.249527    0.2312297  70.23 0.0004466341    1.163    0.140
       320  -9.3745     73.0628     18.4653   4.4780209506e+01   6.4600482738e+01    0.4768289    0.2153001  57.73  0.001881416    2.244    0.554
       321  -9.1404    178.7549    231.4036   7.0772190507e+01   6.2062022894e+00    0.1612303   0.08330151  20.58  0.000553023    1.610    0.379
       322  -9.4152     11.9632    231.0006   1.0592167640e+02   2.4795195104e+01    0.1367176    0.0976878  42.64  0.000879281    1.039    0.038
       323  -9.7055     15.3778     17.7570   7.9439769338e+01   7.4695284343e+01    0.2452844    0.1764565 -18.38  9.06303e-05    1.367    0.269
       324  -9.0755    224.1269    225.4357   6.2055857994e+01   1.7480825422e+00    0.1583485     0.107194 -22.84  0.001178549    1.456    0.313
       325  -9.1326    207.7176    226.5349   6.4938604566e+01   3.4348874299e+00    0.2003741   0.08382151  25.78 0.0009481054    2.003    0.501
       326  -8.5468    163.3440    226.7327   7.3087902593e+01   8.6753292675e+00    0.1087245   0.07756247  40.85 0.0005554451    1.608    0.378
       327  -9.2622    188.7016     22.1956   2.3693436187e+01   3.4938099635e+01    0.2267561    0.1429132 -48.99  0.001197172    1.448    0.309
       328  -9.2832    210.2833     13.3364   1.9569517360e+01   3.1005810511e+01    0.1149943   0.09330722  24.79 0.0003093738    1.623    0.384
       329  -9.8753     45.4263     15.2578   5.6111780719e+01   7.0927800118e+01    0.3920793    0.2178849  36.62  0.001832369    1.758    0.431
       330 -10.7676    229.8743     14.7259   1.8647001522e+01   2.6824383638e+01    0.2912627    0.1478628 -81.80  0.001535093    2.252    0.556
       331  -9.5853    195.0148     15.0310   2.1158969041e+01   3.4223738377e+01    0.1933179    0.1661754 -62.26 0.0003621889    1.032    0.031
       332  -8.8670    235.4643    225.4362   6.0262049972e+01   5.5086958680e-01    0.1057848   0.07220419   2.99  0.000155343    1.013    0.012
       333  -8.5437    109.5048    221.5832   8.3695540486e+01   1.6203716234e+01    0.1231657   0.09476507  30.81 0.0001489062    1.043    0.041
       334  -9.1824     89.0146    221.0070   8.8219072201e+01   1.8800722867e+01    0.1818302    0.1338856  -5.27 0.0008162489    1.691    0.409
       335  -9.3174    174.8763    217.7008   6.9628639405e+01   8.4543034977e+00    0.1853938     0.133441 -11.15   0.00038592    1.339    0.253
       336  -7.9657     56.1956    216.6882   9.5408212804e+01   2.3283744082e+01    0.1104475   0.07283242  58.51            0    1.461    0.316
       337  -8.9939    117.2753     15.0551   3.0973161179e+01   5.3835250138e+01    0.1991513    0.1908298 -49.39  0.001154191    1.099    0.090
       338  -8.6998    117.6491    211.7814   8.0772257923e+01   1.6793294750e+01    0.1356881    0.1203395 -76.74 0.0003170756    1.512    0.339
       339  -9.1401    112.4925     13.9046   3.1437133435e+01   5.5223845911e+01    0.2007265    0.1454217 -20.57  0.001004078    1.518    0.341
       340  -9.6039     90.2624     13.8279   3.6720959656e+01   6.1005430426e+01    0.3903078    0.1635522  56.60  0.001536973    2.095    0.523
       341  -8.7720     12.6499    203.3109   1.0496139471e+02   2.9941041643e+01    0.1310076   0.05943002  50.42 0.0002390581    1.718    0.418
       342  -8.4048    132.9946    199.0028   7.5673172529e+01   1.6875501876e+01    0.1555381    0.1168706  26.19 0.0009417878    1.103    0.094
       343  -8.5211     80.9898    198.7834   8.7944263359e+01   2.3851844337e+01    0.1707932   0.08855771  29.77 0.0004966391    1.615    0.381
       344  -9.7697      5.2797    195.9751   1.0649631282e+02   3.1983853697e+01    0.1902707    0.1001253 -29.50 0.0008955385    3.482    0.713
       345  -9.2940     22.5431    181.4828   1.0159173908e+02   3.3675631289e+01    0.1247416    0.1020614  52.45 5.615674e-05    1.013    0.013
       346 -10.1710      5.1682    174.7872   1.0589480582e+02   3.6487106847e+01     0.149978    0.1403272 -48.39 0.0006076072    1.331    0.249
       347 -11.5076     39.5172    160.0135   9.5396157134e+01   3.6973260206e+01    0.6385012    0.2765848  55.55  0.002484689    2.389    0.581
       348 -12.3996     33.1994    156.9117   9.7010928007e+01   3.8318133617e+01     1.181885    0.3281741  50.01  0.004078087    3.557    0.719
       349 -10.4395      9.5074    157.4776   1.0403151921e+02   4.0116292407e+01    0.3067462    0.1413497  70.97  0.001423166    2.094    0.522
       350  -8.9049     20.6583    157.7155   1.0078712731e+02   3.9222411030e+01    0.1232336   0.09432843 -34.28 0.0005091785    1.637    0.389
       351  -8.9251    184.5149     12.5061   2.1336789617e+01   3.6914492579e+01    0.1339053    0.1128813 -60.79 7.019563e-05    1.056    0.053
       352 -10.2830      2.2647    156.2697   1.0607403663e+02   4.0875022630e+01     0.363657    0.1734383 -89.42  0.001819264    1.980    0.495
       353  -8.9167    249.3855    153.7856   4.6388585639e+01   7.0043369229e+00    0.1572537   0.08545884 -20.61  0.000712085    1.572    0.364
       354  -9.7704     58.3417    150.9222   8.8782502894e+01   3.7046826732e+01    0.2174677     0.166987  44.50 0.0002899173    1.189    0.159
       355 -10.3789     14.9875    150.9314   1.0207935279e+02   4.1272500837e+01    0.2453717    0.1624949  36.46 0.0003740811    1.371    0.270
       356 -10.4378     10.3056    147.4297   1.0331502847e+02   4.2444946104e+01    0.2390288    0.2081562  10.98 0.0009063343    1.301    0.231
       357  -9.4199     24.1058    163.1814   1.0012359609e+02   3.7658644218e+01    0.1755302    0.1706502 -22.12 0.0005115354    1.233    0.189
       358  -9.5436    236.6796    145.9974   4.6722603099e+01   9.6742157776e+00    0.1672231    0.1236474 -18.61 0.0004295108    1.099    0.090
       359  -9.1344     36.6293    144.0326   9.4812364592e+01   4.1100499448e+01    0.1823085    0.1617805  80.60  0.001096016    1.083    0.076
       360  -9.8484     29.0800    143.9942   9.7215685099e+01   4.1813553776e+01    0.1967321    0.1824143  65.61 0.0004551956    1.042    0.041
       361  -9.8717     13.5486    141.8848   1.0200053147e+02   4.3566440271e+01     0.342693    0.1928474 -44.50 0.0009234592    2.147    0.534
       362  -9.6965      2.4099    140.6881   1.0544560356e+02   4.4569898447e+01     0.293866    0.1651108  31.55  0.001571048    1.658    0.397
       363  -8.9988    239.5568    140.0265   4.5164220791e+01   1.0028109064e+01    0.1854634   0.09580079 -28.66  0.001035195    1.623    0.384
       364  -9.7018     41.4887    137.4721   9.2547474689e+01   4.2234966304e+01    0.3192621    0.2242275  40.74  0.001588403    1.321    0.243
       365  -8.8273     38.3946    134.1937   9.3211377692e+01   4.3371533022e+01    0.1935016     0.168461  73.44 0.0002999795    1.090    0.083
       366  -9.9812     34.9787    137.0026   9.4649833189e+01   4.3002445571e+01    0.1983986     0.181177  61.50            0    1.007    0.007
       367  -9.6429     60.7816    133.5031   8.5642423519e+01   4.0976223752e+01    0.4535498    0.2616076 -28.07  0.001608103    2.661    0.624
       368  -9.6771     16.0000    133.4706   1.0066099168e+02   4.5474768877e+01    0.4180256   0.08563736 -73.49  0.001348255    4.034    0.752
       369  -9.2098     17.0173    129.2206   1.0000906292e+02   4.6469533394e+01    0.3440227    0.1755777 -42.92   0.00154338    2.363    0.577
       370  -9.1002     25.0725    134.2555   9.7690946145e+01   4.4576963756e+01    0.2431747    0.1159363  49.76  0.001081386    1.997    0.499
       371  -9.6205      7.9001    133.3173   1.0333484581e+02   4.6051744120e+01    0.3258472    0.2013803 -23.62  0.001655888    2.122    0.529
       372  -8.8349    249.3157    133.3322   4.2548821161e+01   9.4946359450e+00    0.1189213   0.07546592  -1.52 0.0007046595    1.685    0.407
       373  -8.7285    225.4990    133.5163   4.5914949070e+01   1.2957361426e+01    0.1223749    0.1018176 -15.30 0.0008100791    1.044    0.042
       374  -9.7908      3.0816    130.6295   1.0478936480e+02   4.6999602494e+01    0.2946427    0.1206277  70.33  0.001254104    2.413    0.586
       375  -9.7284     41.4595    129.5210   9.1623086249e+01   4.4236495401e+01    0.2383448    0.2149286  47.12 0.0001369621    1.062    0.058
       376  -9.0220     33.9343    126.9512   9.3934621863e+01   4.5639779362e+01    0.2304166     0.142078  56.72 0.0009307269    1.630    0.386
       377  -9.5993    241.0341    124.3039   4.1861329318e+01   1.1815170781e+01    0.1648701    0.1404578 -10.92  0.001170834    1.087    0.080
       378  -8.1593     77.6876    124.7096   7.8569157192e+01   4.0754878100e+01    0.1463708    0.1143234 -17.65 0.0001951911    1.587    0.370
       379 -11.6370     21.4381    118.7410   9.7555658996e+01   4.8816007645e+01    0.5705264    0.4004365  71.20  0.001157511    1.397    0.284
       380 -10.4762      6.6830    120.5016   1.0301307738e+02   4.9341712120e+01    0.4603042    0.1311016  40.38  0.001757813    2.988    0.665
