#   1 NUMBER                 Running object number                                     
#   2 MAG_AUTO               Kron-like elliptical aperture magnitude                    [mag]
#   3 X_IMAGE                Object position along x                                    [pixel]
#   4 Y_IMAGE                Object position along y                                    [pixel]
#   5 X_WORLD                Barycenter position along world x axis                     [deg]
#   6 Y_WORLD                Barycenter position along world y axis                     [deg]
#   7 A_WORLD                Profile RMS along major axis (world units)                 [deg]
#   8 B_WORLD                Profile RMS along minor axis (world units)                 [deg]
#   9 THETA_WORLD            Position angle (CCW/world-x)                               [deg]
#  10 FWHM_WORLD             FWHM assuming a gaussian core                              [deg]
#  11 ELONGATION             A_IMAGE/B_IMAGE                                           
#  12 ELLIPTICITY            1 - B_IMAGE/A_IMAGE                                       
         1 -13.5815    225.8236      6.9211   3.3538408666e+01   2.8086808633e+01     2.098089     1.060544  51.24   0.01007434    2.434    0.589
         2 -13.0972    182.6765     51.4146   4.9760035262e+01   3.2928356153e+01     1.598019     1.077516  26.07  0.002499324    2.097    0.523
         3 -13.2626    194.8706     41.5252   4.5234493952e+01   3.1286439147e+01       1.0857    0.9555396 -71.59  0.003288536    1.079    0.073
         4 -13.4612    202.5667     33.2925   4.2099142207e+01   3.0479721135e+01    0.9845989    0.9252243   0.48  0.001390515    1.313    0.239
         5 -11.6718     43.5543      6.5779   7.0981943835e+01   6.9097229607e+01    0.4353652    0.2256722   6.60  0.002071468    2.542    0.607
         6 -12.2410     59.0348      3.5795   6.2905618793e+01   6.6899781780e+01    0.7484958    0.2449058  47.07  0.003229703    2.705    0.630
         7  -9.1499    168.0579    233.3752   9.4203340094e+01   2.2025175448e+00    0.3149859    0.1617114  51.84  0.001404466    2.487    0.598
         8 -11.4751    140.1286    249.4443   1.0210782475e+02   4.0282280802e+00    0.6126255    0.3516697 -62.18  0.003274423    2.461    0.594
         9 -18.8733     14.3726    182.3481   1.2212415069e+02   3.4303173045e+01     17.10785     4.578088 -79.85   0.06475776    3.617    0.724
        10 -15.2174     71.1806    147.6233   1.0367551860e+02   3.6310221494e+01     7.901903     3.903251  75.95   0.01089384    5.911    0.831
        11  -9.2299     92.2856    184.1954   1.0388497929e+02   2.4436052579e+01    0.2613739    0.1829295  44.95  0.000583606    1.341    0.254
        12 -10.3440    173.7026    211.2227   8.9456529840e+01   4.9852254782e+00    0.2529505    0.1831253  31.49  0.001380577    1.217    0.178
        13 -10.5455     98.8115    180.9881   1.0178624582e+02   2.4135715238e+01     0.432743    0.2523143  29.03  0.001651594    1.889    0.471
        14 -10.7835    120.2361    194.2602   9.8679990858e+01   1.7622645265e+01    0.3246443    0.2451518  89.26 0.0006496633    1.665    0.399
        15 -11.5041     52.7560    165.2583   1.1124756693e+02   3.4373366522e+01     0.906806    0.2191778 -51.52  0.002813214    4.501    0.778
        16 -10.2550     51.2162    171.2291   1.1237323297e+02   3.3128299688e+01    0.3587161    0.2268736  56.98 0.0006442912    1.577    0.366
        17  -9.9124    188.3983    176.6192   7.9795485347e+01   8.6326898709e+00    0.3777917    0.3482591  78.15  0.001939394    1.415    0.293
        18  -9.7504    146.7182    172.3004   8.8414521774e+01   1.7520189040e+01     0.367567    0.2444834 -71.69   0.00124707    2.239    0.553
        19  -9.7005     84.3294    173.6559   1.0430826216e+02   2.8101441771e+01     0.259842    0.2189139 -23.23 0.0001713996    1.513    0.339
        20  -8.9552    194.0634    171.5149   7.7538352273e+01   8.5138729060e+00    0.2243831    0.1915085 -25.80 0.0008925524    1.148    0.129
        21  -9.0353    185.4998    169.9481   7.9038571644e+01   1.0453747485e+01    0.2123933    0.1430433 -39.87 0.0005089365    1.508    0.337
        22  -9.4780    240.3021    169.3361   6.8160945994e+01   6.0525486688e-01    0.1397385   0.09366412  -3.36 0.0003536417    1.663    0.399
        23  -9.5926    137.4374    168.4267   8.9914144441e+01   2.0139207355e+01    0.3141576    0.2594109  59.77  0.001355017    1.310    0.237
        24  -9.1394    110.8578    168.1127   9.6572388213e+01   2.5084600678e+01     0.231523    0.1968524  74.70 0.0007078724    1.264    0.209
        25 -11.4461     47.2567    172.5575   1.1351328962e+02   3.3273292454e+01    0.4388258    0.3967304  26.74  0.001262857    1.322    0.244
        26 -11.5175    163.4242    213.6626   9.2068214694e+01   6.3199149894e+00    0.5101593    0.2941262  32.46  0.002482033    1.572    0.364
        27 -11.5730     92.5599    151.7803   9.8454113679e+01   3.2064557677e+01     0.720632    0.5457368 -18.51  0.003449482    1.776    0.437
        28 -10.8816    133.7181    145.1214   8.5968381735e+01   2.6115223523e+01     1.274162    0.3452328 -54.80  0.002986842    5.699    0.825
        29  -9.7703    135.7179    135.5842   8.3255249303e+01   2.7880973654e+01    0.3169533    0.1972632  45.39 0.0009728388    1.611    0.379
        30  -8.5007    187.3031    151.6459   7.4669257347e+01   1.3658623149e+01    0.1488114    0.1225847 -80.45 0.0007039668    1.708    0.415
        31  -9.2138    112.8175    151.0350   9.2782815790e+01   2.8745898815e+01    0.2337371    0.2018584  77.81 0.0005071284    1.280    0.219
        32  -9.2968    174.9285    149.1638   7.6840304309e+01   1.6712996532e+01    0.2319848    0.2152419  78.61 0.0006852185    1.272    0.214
        33 -10.2804    105.1904    138.0252   9.2160284707e+01   3.3234506457e+01    0.5761938    0.3514714 -26.75  0.002225114    2.438    0.590
        34 -10.2994    105.9178    130.8533   9.0363104141e+01   3.4822900984e+01    0.4021771    0.3314501 -63.85  0.001207872    1.262    0.208
        35 -10.8574    192.7753    194.8347   8.2461829366e+01   4.5279421797e+00     1.112081    0.6205956 -64.94  0.003358945    5.968    0.832
        36 -11.7532     92.7717    137.7674   9.5654031490e+01   3.5443882274e+01    0.2908786    0.2689716 -48.06 0.0005358194    1.077    0.071
        37 -11.9059    196.0114    204.9960   8.3686907491e+01   2.2306273477e+00     0.612696    0.3314523  28.80  0.002877712    1.788    0.441
        38 -11.2275    112.0393    205.4787   1.0227332647e+02   1.6627416321e+01     0.350141    0.2638098  37.63 0.0003743427    1.227    0.185
        39  -9.9128    135.6201    128.1231   8.1484382234e+01   2.9590139561e+01    0.5360958    0.1518173 -47.15  0.001513186    3.570    0.720
        40 -10.5538    113.9491    129.0439   8.7651729169e+01   3.3747499804e+01    0.5422094    0.3295995  27.22  0.001230956    1.943    0.485
        41  -9.2763    161.1749    128.1868   7.5058959990e+01   2.4047590463e+01    0.2204559     0.195865 -83.30  0.001084251    1.335    0.251
        42  -8.4296     95.7964    127.8766   9.2644235542e+01   3.7336797013e+01    0.1948269    0.1717446  79.77 0.0003050048    1.262    0.208
        43 -10.2957    100.6515    124.9998   9.0551536982e+01   3.7176986864e+01    0.3111604    0.2600195 -13.21 0.0009273708    1.392    0.282
        44 -11.0800    119.6409    123.0363   8.4594392345e+01   3.4036151091e+01    0.5478882    0.4050007   1.82  0.002371269    1.860    0.462
        45 -10.2911    134.8809    118.8440   7.9347421023e+01   3.1826774701e+01    0.7700852   0.08687085 -44.81  0.001367823    8.884    0.887
        46 -10.0153    134.5592    105.0816   7.5768082040e+01   3.4906092198e+01    0.6477474    0.1541833 -45.56  0.001662444    4.321    0.769
        47  -9.3082    109.0361    118.2863   8.6463168303e+01   3.7216050756e+01    0.2513976      0.21343 -44.64 0.0003505494    1.158    0.136
        48 -10.0456    231.2868    113.8648   5.7575062101e+01   1.1592225130e+01    0.2657995    0.2553969  -9.47 0.0007668047    1.085    0.078
        49  -8.7839    167.7125    112.7143   6.9587218715e+01   2.5783585347e+01    0.3260041    0.1877654 -60.44  0.001172434    2.533    0.605
        50 -11.6926    117.5029    108.6944   8.1512531374e+01   3.7744302440e+01    0.7560492    0.6457446  79.57   0.00339768    1.431    0.301
        51  -9.5371    205.4802    110.1866   6.1155087819e+01   1.7696983979e+01    0.3061656     0.212419  41.56 0.0009417622    1.541    0.351
        52  -7.9588    143.4858    110.4309   7.4872209238e+01   3.1775565785e+01    0.1575647    0.1534992  15.12 7.658103e-05    1.013    0.013
        53  -9.8212     81.6108    193.8975   1.0779064404e+02   2.3846899121e+01    0.5129772    0.2761679  62.17  0.002278764    2.187    0.543
        54 -11.2357    184.2091    211.8907   8.7358243207e+01   3.0764825957e+00    0.3813349    0.3362718  29.15  0.002339432    1.131    0.116
        55 -11.8151    107.7945    203.8430   1.0301700203e+02   1.7656732715e+01     0.569474    0.4502206  -7.74  0.001277307    1.787    0.440
        56  -9.9769     39.9684     88.7552   1.0215873765e+02   5.4373567798e+01    0.2463566    0.1736303 -56.10 0.0007877824    1.241    0.194
        57  -8.6316    156.8103     82.3823   6.3731021901e+01   3.4260445409e+01    0.2195778    0.1399981  42.02 0.0004093533    1.605    0.377
        58  -8.4942    184.5101     77.4731   5.6603782633e+01   2.8382049645e+01    0.1468039    0.1458124  73.86 8.974729e-06    1.037    0.036
        59  -8.3884    224.2365    206.6409   7.8425486332e+01  -2.6393603039e+00    0.1121166    0.1016421 -48.28 0.0002419233    1.585    0.369
        60  -8.2385    168.3141    248.2525   9.6314111218e+01  -1.4673254087e-01    0.1221801   0.08327749  15.26 0.0001813773    1.524    0.344
        61  -8.9781     93.2801    205.7592   1.0659948348e+02   1.9521898587e+01     0.223232    0.1774125  40.76 0.0005997031    1.185    0.156
        62 -10.4447    149.5558    188.0529   9.0730356762e+01   1.3691794641e+01    0.4608219    0.3470945 -86.20  0.002194517    1.978    0.494
        63  -8.6971     96.3207    202.3121   1.0545377181e+02   1.9793134092e+01    0.1288076    0.1072003 -13.23 0.0003910296    1.650    0.394
        64  -8.8412     76.9923    212.9822   1.1109148138e+02   2.0367575136e+01    0.1558739    0.1323553  62.43 0.0004329471    1.003    0.003
        65 -12.5277    112.2912    196.6057   1.0091742974e+02   1.8459425642e+01    0.9656091    0.6247253   6.28  0.004053324    2.743    0.635
        66  -9.1789    189.4977     14.9995   3.8967511473e+01   3.5758563757e+01    0.1849762    0.1295588 -31.87 0.0006575937    1.559    0.359
        67 -10.4535     30.3330    194.9534   1.1959579876e+02   2.9978129735e+01     0.325638    0.1841147  53.36  0.001292863    1.590    0.371
