#   1 NUMBER                 Running object number                                     
#   2 MAG_AUTO               Kron-like elliptical aperture magnitude                    [mag]
#   3 X_IMAGE                Object position along x                                    [pixel]
#   4 Y_IMAGE                Object position along y                                    [pixel]
#   5 X_WORLD                Barycenter position along world x axis                     [deg]
#   6 Y_WORLD                Barycenter position along world y axis                     [deg]
#   7 A_WORLD                Profile RMS along major axis (world units)                 [deg]
#   8 B_WORLD                Profile RMS along minor axis (world units)                 [deg]
#   9 THETA_WORLD            Position angle (CCW/world-x)                               [deg]
#  10 FWHM_WORLD             FWHM assuming a gaussian core                              [deg]
#  11 ELONGATION             A_IMAGE/B_IMAGE                                           
#  12 ELLIPTICITY            1 - B_IMAGE/A_IMAGE                                       
         1 -14.8562    164.1659     41.1315   2.9013206903e+02   6.3691410937e+00   0.06512869   0.04517819 -50.25  0.003993856    1.502    0.334
         2 -14.5657    178.3980      8.6094   2.8977708194e+02   6.6649751710e+00   0.05115389   0.04816705   1.34  0.003714852    1.060    0.057
         3 -11.3243    133.7500    247.1479   2.9162948565e+02   4.1479858713e+00  0.008767796  0.008465784 -82.10 0.0003677674    1.112    0.101
         4 -19.8579     72.9303    169.0378   2.9196554962e+02   5.4034997606e+00    0.9061509    0.4032708 -68.58    0.0745696    2.546    0.607
         5 -11.9851    168.9834    202.5159   2.9094894899e+02   4.4658311355e+00   0.01235337  0.009597804  79.55 0.0005811742    1.526    0.345
         6 -10.5740    139.1644    200.8050   2.9131130118e+02   4.6561337933e+00   0.01214272  0.009031163  81.73  0.000733863    1.639    0.390
         7 -10.8040     21.9032    243.5957   2.9300429410e+02   4.8259895756e+00   0.01156977  0.008996383 -68.13  0.001269241    1.386    0.279
         8 -11.8833    169.7794    195.0916   2.9089878610e+02   4.5476149925e+00   0.01370269   0.01072119  26.66 0.0008117714    1.192    0.161
         9 -13.8045    165.7174    188.7980   2.9091528428e+02   4.6440321381e+00   0.04098519   0.02290407  29.52  0.003883877    1.632    0.387
        10 -12.9829    180.6602    193.4915   2.9075454011e+02   4.5039849767e+00    0.0243531   0.01786851  75.48  0.001901373    1.668    0.400
        11 -13.8016    174.6325    193.0446   2.9082721650e+02   4.5436627225e+00   0.03745326   0.02158302 -80.77  0.002655923    2.247    0.555
        12 -13.5995    175.4042    186.1688   2.9078031207e+02   4.6192004732e+00   0.03430593   0.02053467  88.21  0.002691128    2.385    0.581
        13 -10.5341    150.7717    245.5004   2.9140854997e+02   4.0699877822e+00   0.00894879   0.00641217  24.36 0.0003328995    1.309    0.236
        14 -10.1763     13.4948    233.4203   2.9305437923e+02   4.9921321360e+00  0.006822049  0.006331258  20.52 0.0002403891    1.017    0.016
        15 -11.6764     25.2092    225.4030   2.9286514127e+02   5.0189481184e+00   0.01869354  0.009051546 -50.75  0.001410431    2.120    0.528
        16 -11.5259    153.8532    185.1546   2.9104340803e+02   4.7542344693e+00   0.01090136  0.009058753  51.50  0.001231491    1.241    0.194
        17 -11.8521    118.0235    181.1752   2.9146861227e+02   5.0051821847e+00   0.03572499   0.01311806  51.49  0.002240488    4.253    0.765
        18 -10.4138    108.5667    182.3448   2.9159289892e+02   5.0455394371e+00    0.0109069  0.007019272  34.97 0.0002974389    1.442    0.306
        19 -11.0866      3.6337    180.1152   2.9289034035e+02   5.6684549398e+00   0.01570536   0.01075081  16.58  0.001610304    1.448    0.309
        20 -11.8130    218.9980    177.9592   2.9019273354e+02   4.4650408678e+00   0.01138674  0.007828149 -26.93  0.001132545    1.704    0.413
        21 -11.2493    170.5061    185.4585   2.9083749755e+02   4.6554793872e+00   0.01296702   0.01069536  63.15 0.0007435497    1.331    0.249
        22 -13.3052    195.6987    170.3736   2.9044172887e+02   4.6866839055e+00   0.02911579   0.02179768 -80.91  0.001874321    1.541    0.351
        23 -11.8547    193.8248    165.0076   2.9043593784e+02   4.7597946057e+00   0.01636746   0.01484264  46.01  0.001110425    1.104    0.094
        24 -12.8611    143.8214    168.4493   2.9107792004e+02   5.0058599369e+00   0.03608265    0.0181279  66.76  0.002557608    3.586    0.721
        25 -11.6039    140.6989    174.3070   2.9114861344e+02   4.9555759302e+00   0.01415675  0.009761719  32.71 0.0006162578    1.343    0.255
        26 -12.4474    138.0009    171.2892   2.9116590014e+02   5.0060915208e+00   0.03107237   0.02364546 -68.62  0.003400691    1.423    0.297
        27 -10.8142     11.0403    174.3344   2.9276671366e+02   5.6937137026e+00  0.009210549   0.00821666  19.29 0.0004366837    1.062    0.058
        28 -11.1255    126.0003    171.9314   2.9131905155e+02   5.0671701192e+00   0.01432715   0.01028155 -79.80  0.001013881    1.620    0.383
        29 -12.2375    177.1244    170.1178   2.9067179071e+02   4.7959914086e+00   0.01506912   0.01007314 -71.31  0.001525118    1.666    0.400
        30 -10.7813    219.1552    224.1626   2.9044156236e+02   3.9271165432e+00  0.009485755  0.007696048  58.04 0.0003555832    1.327    0.246
        31 -11.7290    230.0091    166.5027   2.8999339016e+02   4.5350705279e+00   0.01451917  0.008720328  83.90  0.001265505    2.439    0.590
        32 -11.3330    201.2570    164.4453   2.9034028647e+02   4.7237625404e+00   0.02230862    0.0144718 -80.05   0.00218415    1.866    0.464
        33 -10.5800    122.9045    165.9706   2.9132537091e+02   5.1541824316e+00   0.01350992  0.007101302  46.42 0.0007055138    2.002    0.501
        34 -10.4105     25.4955    164.9966   2.9253585986e+02   5.7203168014e+00   0.01513751  0.008491466  -2.33  0.001251242    2.501    0.600
        35 -11.1116    110.1957    222.9931   2.9179244923e+02   4.5633429238e+00  0.009512668  0.009362469 -27.90 0.0004539014    1.069    0.064
        36 -10.7684    222.4696    161.6859   2.9006108513e+02   4.6342704122e+00   0.01416386   0.00959443  66.16 0.0008107634    1.828    0.453
        37 -11.4512    130.2543    161.4219   2.9120903439e+02   5.1651138755e+00    0.0131921  0.008797237  51.41 0.0005627209    1.613    0.380
        38 -12.1574    121.7528    157.2021   2.9129221838e+02   5.2627511354e+00   0.01744421   0.01314223  48.74  0.001152761    1.361    0.265
        39 -12.5362    163.4742    155.5699   2.9076299427e+02   5.0432537115e+00   0.01682968   0.01456155  78.65  0.001104305    1.292    0.226
        40 -10.2410     19.5469    222.9982   2.9292280850e+02   5.0790813681e+00  0.009311765   0.00639196 -52.93 0.0009554893    1.510    0.338
        41 -14.2775    133.7012    144.7289   2.9107551104e+02   5.3395627295e+00   0.07366038   0.02540624 -75.93  0.004213848    5.537    0.819
        42 -10.6478      7.8346    220.7070   2.9305655052e+02   5.1722067422e+00  0.006215498  0.004597674 -43.08 0.0003696364    1.433    0.302
        43 -13.8567    144.2947    145.9320   2.9094988287e+02   5.2650193586e+00   0.04401846   0.02245828 -88.87  0.003315698    3.347    0.701
        44 -11.4129    174.4347    148.9386   2.9059034035e+02   5.0576284437e+00   0.01380884   0.01086432  43.18 0.0007987317    1.248    0.199
        45 -10.7378     23.7370    214.6278   2.9282546351e+02   5.1527114234e+00   0.01885144  0.007726534 -44.82  0.001458438    2.759    0.638
        46 -12.5197    116.1221    212.0604   2.9165946024e+02   4.6567307271e+00   0.01544746   0.01119507  69.84  0.001481586    1.669    0.401
        47 -12.2571    110.5600    212.0567   2.9172878396e+02   4.6885003856e+00   0.02080726   0.01052696  55.69  0.001346872    2.603    0.616
        48 -12.7250    134.6484    112.5652   2.9088911750e+02   5.7081387762e+00   0.02151408  0.008890011 -63.98  0.001741479    2.537    0.606
        49 -14.0192    135.7533    128.1353   2.9095986365e+02   5.5207922402e+00   0.06245338   0.01750774 -69.31  0.003747927    4.813    0.792
        50 -11.4002     23.7797    137.9715   2.9241132203e+02   6.0445110961e+00   0.01740929   0.01076753   0.22  0.001307441    1.989    0.497
        51 -11.7439      4.9417    137.5401   2.9264432629e+02   6.1564541904e+00   0.01576229   0.01318259 -25.75 0.0005694155    1.279    0.218
        52 -12.1933    108.6221    207.8402   2.9173014426e+02   4.7486093096e+00   0.01562025   0.01321366  47.79 0.0007887987    1.192    0.161
        53 -12.2157    160.6689    128.1138   2.9064889716e+02   5.3785261166e+00   0.01753228   0.01543948  54.62  0.002057957    1.179    0.152
        54 -12.2877    140.0236    120.8278   2.9086690230e+02   5.5813414763e+00   0.01589978   0.01030627  35.61 0.0008829627    1.436    0.304
        55 -11.1073    125.0559    243.5414   2.9171830833e+02   4.2395398948e+00    0.0088755  0.007986187 -59.50 0.0006908462    1.178    0.151
        56 -13.1957     11.7375    206.0918   2.9292917427e+02   5.3201652619e+00   0.03072986   0.01683395  17.04  0.002250121    1.883    0.469
        57 -11.8830     33.2456    113.9881   2.9216336649e+02   6.2697264737e+00   0.01309103  0.009614498  12.98 0.0005652889    1.369    0.270
        58 -10.6746    167.5534    112.4720   2.9047802284e+02   5.5209369935e+00   0.01478546  0.007797531  50.16  0.001281502    2.145    0.534
        59 -12.3831    161.3027    197.6786   2.9101843969e+02   4.5659968694e+00   0.01728795   0.01375721  79.40  0.001460417    1.469    0.319
        60 -12.1363    163.8891    203.1030   2.9101560567e+02   4.4881277961e+00   0.01719544   0.01272718  47.90 0.0003564916    1.378    0.275
        61 -10.8548    205.3399    110.2452   2.8999474152e+02   5.3302502515e+00   0.01467107  0.009382491  17.21  0.001009222    1.563    0.360
        62 -11.1028      9.3345    101.9932   2.9239734161e+02   6.5450303576e+00   0.01611636  0.009815895  26.49  0.001326097    1.522    0.343
        63 -12.1289    157.5828    201.8635   2.9108747322e+02   4.5385901427e+00   0.02830128   0.01650908  60.59  0.002335191    2.226    0.551
        64 -10.4982    144.5281     80.4783   2.9059141370e+02   6.0245757413e+00  0.006829925  0.006396972  25.28 4.738615e-05    1.007    0.007
        65 -14.4185    152.5592     56.2011   2.9035905176e+02   6.2606430771e+00   0.05532558    0.0470803  19.79  0.002452232    1.115    0.103
        66 -11.1117    153.9991    195.4886   2.9109759540e+02   4.6332140579e+00   0.01621969   0.01001207  54.06  0.001538304    1.846    0.458
        67 -12.8677    168.2503     33.1265   2.9003745645e+02   6.4386620127e+00   0.01982751   0.01757171 -45.43 0.0008352186    1.183    0.155
        68 -11.0598     13.5386     59.9654   2.9211727438e+02   7.0098109349e+00   0.01258447  0.008550876  40.51   0.00041904    1.419    0.295
        69 -10.3683    142.4252     33.1198   2.9035994085e+02   6.5867255529e+00   0.01122435  0.008374023  43.68 0.0006924867    1.321    0.243
