#   1 NUMBER                 Running object number                                     
#   2 MAG_AUTO               Kron-like elliptical aperture magnitude                    [mag]
#   3 X_IMAGE                Object position along x                                    [pixel]
#   4 Y_IMAGE                Object position along y                                    [pixel]
#   5 X_WORLD                Barycenter position along world x axis                     [deg]
#   6 Y_WORLD                Barycenter position along world y axis                     [deg]
#   7 A_WORLD                Profile RMS along major axis (world units)                 [deg]
#   8 B_WORLD                Profile RMS along minor axis (world units)                 [deg]
#   9 THETA_WORLD            Position angle (CCW/world-x)                               [deg]
#  10 FWHM_WORLD             FWHM assuming a gaussian core                              [deg]
#  11 ELONGATION             A_IMAGE/B_IMAGE                                           
#  12 ELLIPTICITY            1 - B_IMAGE/A_IMAGE                                       
         1 -13.7093    204.5089     51.8912   8.7795618440e+00   2.7801173344e+01     1.113844    0.9094563  46.80  0.004504291    1.592    0.372
         2 -12.9242    236.7313     28.2687   9.4245114575e-01   2.4334334245e+01    0.7007231    0.5382916  61.39  0.004921431    1.642    0.391
         3 -12.4449    233.5026     22.9943   2.3466882938e-01   2.5597902230e+01    0.6316479    0.3784275  51.50  0.003730722    2.424    0.588
         4 -10.4220    250.1382     10.6681   3.5694476409e+02   2.3889798638e+01    0.1899659    0.1080427 -56.65 0.0006578777    1.360    0.265
         5 -10.5553     16.5789     11.0227   4.5195437732e+01   7.1278248482e+01    0.1972347    0.1354437  32.20 0.0006945497    1.575    0.365
         6  -8.5014     94.2559    235.6904   7.0745591517e+01   1.1332542120e+01    0.1349026    0.0966251  64.47 0.0001976788    1.521    0.342
         7 -10.4384    100.9403    247.3825   7.0633934020e+01   7.9067241434e+00    0.5671224    0.2820044 -70.98  0.002464863    2.798    0.643
         8 -10.1755     76.0039    245.0056   7.6007513780e+01   1.1987675610e+01    0.2926094    0.1762755 -59.79 0.0005422833    1.834    0.455
         9 -15.1194     69.2943    146.0672   6.3672578076e+01   3.7091994067e+01      7.85211     3.491872 -74.39   0.02362368    3.866    0.741
        10 -10.1459    210.8531    198.7671   3.8420100006e+01   2.2821133832e-01    0.2467871    0.1947734 -24.89 0.0004806556    1.127    0.113
        11 -10.3322    192.9631    194.8791   4.1268256496e+01   3.7682439910e+00    0.7458804    0.3567865 -62.89  0.001880693    7.506    0.867
        12 -11.6409     68.7361    193.4395   7.1583115243e+01   2.4975744635e+01    0.4318081    0.2727491  88.87  0.001220347    1.932    0.482
        13 -13.8265     20.5679    195.1969   8.4241044624e+01   3.0328929887e+01    0.5642733    0.3399954  77.92   0.00156518    1.646    0.392
        14 -11.5155     71.5351    185.2669   6.9655440592e+01   2.6635853518e+01    0.3931305    0.2994041  69.10  0.000710718    1.404    0.288
        15 -10.8924    128.9230    185.6517   5.4357701274e+01   1.7011974458e+01    0.2986214    0.2387729 -63.52   0.00135938    1.373    0.271
        16  -9.3469     78.2178    184.1374   6.7650086949e+01   2.5931492641e+01    0.2065541    0.1972823 -31.41 0.0006112129    1.148    0.129
        17 -10.7685    141.5756    181.3178   5.0335821229e+01   1.5708595177e+01    0.4075011    0.2667922 -65.16  0.001291705    1.917    0.478
        18 -10.3336    115.9739    181.8430   5.7016581833e+01   2.0242977207e+01    0.2380375    0.2102495  -4.83 0.0008080243    1.259    0.205
        19  -9.9588    174.6835    179.8969   4.2258871129e+01   9.9441025020e+00    0.2878264    0.2532537  30.10 0.0008390881    1.149    0.130
        20 -11.0630    180.6878    168.2777   3.8581160414e+01   1.1292089197e+01    0.7188568    0.3665282 -58.98  0.002641477    2.777    0.640
        21 -10.9359    177.4699    169.5155   3.9533953410e+01   1.1627221365e+01    0.3569525       0.2779 -61.21  0.001508091    1.482    0.325
        22 -10.9624    172.1571    175.6400   4.1962834532e+01   1.1306535753e+01    0.4049933    0.3429774 -41.55 0.0009564619    1.155    0.135
        23 -10.9007    173.9713    171.9587   4.0806850711e+01   1.1757038495e+01     0.449895    0.3562992  88.41  0.001753466    1.839    0.456
        24 -18.5643     11.2401    223.3139   8.8556236266e+01   2.4603236103e+01     7.595607     3.743799 -75.92   0.02411954    1.844    0.458
        25  -9.1231    194.1402    218.9219   4.5435042582e+01  -9.2796991279e-01    0.1875545    0.1762917 -25.42 0.0006006805    1.236    0.191
        26 -10.6879    104.8738    171.9901   5.8174059322e+01   2.4633471810e+01     0.391351    0.3020677 -65.08 0.0009078861    1.366    0.268
        27 -10.9660    234.6897    170.3049   2.8714816041e+01   1.7762975044e+00    0.2244892    0.1869949 -50.98 0.0009400335    1.280    0.219
        28 -11.6627    126.1719    232.1615   6.2773504940e+01   7.1512796130e+00    0.4581652    0.1970716  36.68   0.00189141    2.043    0.511
        29  -9.9087    110.7473    166.8457   5.5558095010e+01   2.4866178744e+01    0.2865657    0.2193975 -84.55  0.001293164    1.630    0.387
        30 -10.6977    230.4856    165.5134   2.8498017471e+01   3.2822801655e+00    0.2504007    0.1319757  41.61  0.001205598    2.187    0.543
        31 -12.2585    126.5600    228.2517   6.2102804353e+01   7.8996104262e+00    0.8191851    0.3531991  26.20  0.003063677    2.643    0.622
        32 -10.5975    238.7984    161.6177   2.6383306560e+01   2.6986885889e+00    0.1631102      0.12463  55.64 0.0009542782    1.711    0.416
        33  -8.6443    117.4944    158.9870   5.2101375426e+01   2.5557329856e+01    0.2055907    0.1413543 -85.48 0.0005846552    2.192    0.544
        34 -10.3475    128.2509    160.6528   4.9553174186e+01   2.3098583636e+01    0.2861333    0.2671664 -80.82 0.0005661893    1.148    0.129
        35 -11.1658     50.9999    155.9786   7.1062071025e+01   3.7002438756e+01    0.3376298    0.2696471  83.07 0.0005206068    1.336    0.251
        36  -8.7609     71.4262    232.4891   7.5717534068e+01   1.5331764757e+01    0.1331919    0.1199967  56.80 0.0001946529    1.040    0.038
        37 -10.1783     90.2486    154.7393   5.9003479742e+01   3.1528266935e+01    0.3881116    0.3322738 -53.07  0.001228284    1.155    0.134
        38  -9.3810    114.5758    153.7632   5.1802869221e+01   2.7392994289e+01    0.2671207    0.1997868 -62.90 0.0005823228    1.437    0.304
        39 -11.5254    133.2970    145.3013   4.4858179269e+01   2.5754825103e+01     1.142143    0.3857641 -55.20  0.003219962    3.746    0.733
        40 -10.6686     81.4133    150.1916   6.0746057745e+01   3.4154444182e+01    0.2660747    0.2529767  42.54  0.000338999    1.068    0.064
        41 -11.8388     88.2726    144.5855   5.7516088042e+01   3.4448724059e+01     0.725005    0.5144613 -26.60  0.001742032    1.736    0.424
        42 -11.6500    147.6876    222.7776   5.6300668906e+01   5.6216059301e+00    0.5965791    0.2919201 -40.59  0.001546378    2.255    0.556
        43 -10.8739    108.9796    145.2985   5.1544338891e+01   3.0538074044e+01    0.3180284    0.3007653  42.70  0.000637462    1.059    0.055
        44  -9.3676    127.1183    136.9239   4.4570292404e+01   2.8980357006e+01    0.2389912    0.2110944  88.50  0.000462376    1.286    0.223
        45  -9.5460    108.1885    136.8460   4.9862645302e+01   3.2759020010e+01    0.2355666    0.2201895 -84.92  0.001201723    1.142    0.124
        46 -10.3677    154.7760    227.6084   5.5467871018e+01   3.5236036758e+00    0.2045898    0.1180631  41.25 0.0009540633    1.694    0.410
        47 -11.9105    104.4068    131.5794   4.9744380919e+01   3.4760628152e+01     0.715951    0.5032755  -9.63  0.002061747    2.094    0.522
        48 -10.7314    136.0000    128.4932   4.0211959868e+01   2.9075636894e+01    0.7862069   0.08926904 -46.98     0.001415    8.805    0.886
        49 -10.9184     43.7854    129.8297   6.8867116430e+01   4.4627061695e+01     0.479969    0.4494294 -68.13  0.002797683    1.058    0.055
        50 -10.3347     71.9815    224.5138   7.4689533958e+01   1.7051192761e+01    0.3753714    0.1904162 -63.34 0.0009097283    2.047    0.512
        51  -9.6418    162.3346    127.7898   3.3685815762e+01   2.3605380215e+01    0.3156714    0.2142536  36.04  0.001165005    1.630    0.386
        52 -10.2955    111.7868    126.0189   4.6244016986e+01   3.4646270892e+01    0.3663475    0.2713543  17.88  0.000915358    1.631    0.387
        53 -10.4168    240.8256    125.8219   1.9150322572e+01   8.6988569338e+00    0.1839082    0.1362357 -61.17 0.0006808999    1.353    0.261
        54 -11.3823     89.7964    131.8575   5.4252363144e+01   3.7375950759e+01    0.2963359     0.273009 -36.22 0.0003739576    1.084    0.078
        55  -9.7351     77.4928    124.4911   5.6483865872e+01   4.1281793515e+01    0.3874095      0.21505  58.07  0.001405408    2.728    0.633
        56  -9.5979     75.6324    121.1851   5.6326776223e+01   4.2394384164e+01    0.3263936    0.1991439 -41.14  0.001061329    1.676    0.403
        57 -11.3092     46.5888    122.9565   6.6585963336e+01   4.6036440867e+01    0.4827462    0.2536485  35.46   0.00057317    1.990    0.497
        58 -10.3158     98.5785    121.2877   4.9017975928e+01   3.8333351292e+01    0.3170236    0.2552544  14.28 0.0008484876    1.403    0.287
        59  -9.4321    103.1254    120.8300   4.7521850261e+01   3.7570093385e+01    0.2259592    0.2063871  71.03  0.000415042    1.201    0.167
        60  -9.6690    145.3861    122.3415   3.6351737301e+01   2.8428399000e+01    0.4925923     0.293803 -70.33  0.001420397    2.812    0.644
        61 -10.0632    171.7744    219.5717   5.0317264374e+01   2.3897862839e+00    0.1930329    0.1231862  41.33 0.0006198615    1.617    0.382
        62 -11.2564     53.3277    116.6000   6.2903722332e+01   4.6776460396e+01    0.5061527    0.3613809 -64.23  0.001241671    1.432    0.302
        63 -10.7655    116.9084    121.6704   4.3702169995e+01   3.4620908473e+01    0.2759647    0.2208445 -33.45 0.0007834877    1.329    0.248
        64  -9.7959    107.7159    116.0033   4.4932031170e+01   3.7783969586e+01    0.2474243    0.2201525  37.80 0.0003096636    1.114    0.102
        65  -9.8174    134.7269    111.8963   3.6407298269e+01   3.3004215614e+01    0.3730614    0.1354259 -47.45  0.001206291    2.831    0.647
        66 -10.1378     39.7408    113.0136   6.6974364093e+01   4.9283623607e+01    0.2337051    0.1998527  29.56 0.0003992219    1.264    0.209
        67  -9.3961    194.5313    224.9976   4.6416321709e+01  -2.0700079209e+00    0.1963011    0.1233594 -40.51  0.001029821    1.590    0.371
        68 -11.3249    112.0173    105.0513   4.0801597673e+01   3.9343394050e+01    0.4243801     0.267644 -54.35  0.001816383    1.739    0.425
        69  -8.6586     93.2791    108.6953   4.7464664842e+01   4.2257470782e+01    0.1481106     0.122526  81.80 0.0001997601    1.551    0.355
        70  -9.4110    134.4988    105.4668   3.4803467984e+01   3.4409884649e+01     0.282036     0.143444 -55.01  0.001034999    2.345    0.574
        71 -10.9233     36.0506    101.4006   6.5837995550e+01   5.2472101808e+01    0.6827693    0.3866365  45.84  0.003112834    2.217    0.549
        72  -9.3993    106.2836    215.6705   6.5126603471e+01   1.3895667492e+01    0.2896927    0.2035498 -13.52   0.00131548    2.074    0.518
        73  -9.4278     88.6511     96.1329   4.5552662700e+01   4.5904338215e+01    0.3934357    0.2030923  44.46  0.001421206    1.971    0.493
        74 -10.6172     17.1813     96.0575   7.1964961135e+01   5.5423314665e+01    0.2138596    0.1849605  -4.98 0.0004858818    1.208    0.172
        75  -9.5199    102.9652     92.1007   3.9903725087e+01   4.3939739959e+01     0.408289    0.2727214  85.70  0.001512428    3.038    0.671
        76 -10.1215     61.3645     91.9001   5.3904800107e+01   5.1432274113e+01    0.4280849    0.2077795 -40.61   0.00176426    2.075    0.518
        77  -8.4940    145.6966     92.3222   2.8644359267e+01   3.4505171310e+01    0.1529273      0.11648 -82.65 0.0003764198    1.634    0.388
        78 -10.1880     75.8108     88.3545   4.7690463725e+01   4.9868320047e+01     0.264449    0.2430162  77.49 0.0008100366    1.342    0.255
        79  -8.8829    160.3126     87.3062   2.4188596056e+01   3.2083605626e+01    0.1424633    0.1169636  17.88 0.0003716836    1.620    0.383
        80 -10.4650    174.6832    223.1362   5.0295100656e+01   1.2562294664e+00    0.2717808    0.1879642  21.09 0.0009993933    1.387    0.279
        81  -9.6334     45.4610     85.5074   5.8255933477e+01   5.5007368300e+01    0.2290872    0.2047569 -27.68 0.0003724397    1.039    0.037
        82 -11.6432     26.0566     84.0364   6.5738314363e+01   5.7424667701e+01    0.5939443    0.2471933  35.27  0.002553802    2.681    0.627
        83  -9.7645     96.5020     83.1061   3.9276295451e+01   4.7048813031e+01    0.3830854    0.2674907 -77.32    0.0016133    2.444    0.591
        84 -10.7967     51.6511     81.8620   5.4799789327e+01   5.4980101407e+01    0.4446512    0.2633505  48.38  0.002014938    2.220    0.550
        85 -10.7677     35.2322     80.6912   6.1094887275e+01   5.7240003415e+01    0.3123477    0.2324522  35.51  0.001022561    1.511    0.338
        86  -9.1658     28.2917     78.3343   6.3366990419e+01   5.8457608559e+01    0.1415926   0.08516332 -28.79 0.0003508989    1.636    0.389
        87  -8.6704    115.2962     77.6904   3.2177941535e+01   4.4092205298e+01    0.1445275    0.1166134 -88.42 0.0002763542    1.593    0.372
        88  -9.7971     52.5347     74.4978   5.2283939067e+01   5.6372986981e+01    0.2653789    0.1995861  49.60 0.0007212819    1.679    0.404
        89  -9.3159    110.3827    223.2108   6.5226103952e+01   1.1558835508e+01    0.1867628    0.1375487 -76.37 0.0004915321    1.651    0.394
        90  -9.2362     20.2937     74.5786   6.5814600737e+01   5.9981138017e+01    0.2090654    0.1163721  23.49 0.0006288602    1.874    0.466
        91  -9.4758     31.0004     72.5348   6.0641953524e+01   5.9409108723e+01    0.1946997    0.1230778  17.30 0.0006076418    1.601    0.375
        92  -8.6255    133.5572     69.5565   2.5234931937e+01   4.1364537068e+01    0.1445937    0.1328294  74.25 4.599358e-05    1.066    0.062
        93 -10.5250     29.5971     67.7400   5.9880531049e+01   6.0532891762e+01    0.2375468    0.2276451 -68.30  0.001260531    1.358    0.263
        94 -12.3233    187.8824     63.8561   1.3662108412e+01   2.9697136796e+01    0.4636642    0.4489289 -46.83 0.0008196962    1.253    0.202
        95  -9.0835     65.1894    249.1227   7.8821786418e+01   1.2601891178e+01    0.1666121    0.1631874  36.64 0.0002789856    1.238    0.192
        96  -9.2892    159.1999     59.5793   1.7283420464e+01   3.6937735181e+01     0.318029    0.1900059 -65.85   0.00142317    2.124    0.529
        97  -9.0005     67.5482     60.5339   4.1988327108e+01   5.6633790674e+01    0.1367349    0.1222395  11.41 0.0001037181    1.023    0.022
        98  -9.5982     34.5098     48.9699   5.1641290900e+01   6.3505987344e+01    0.1933038    0.1490429  12.62 0.0005051426    1.173    0.148
        99  -9.6129     29.4308     47.1804   5.3367525812e+01   6.4411079333e+01    0.2142054    0.1536772  15.83 0.0001486807    1.286    0.223
       100 -10.7041     19.5800     43.8653   5.6968994463e+01   6.6016455938e+01    0.2255865    0.1577659  21.53 0.0006548378    1.423    0.297
       101  -9.3739     35.3467     38.5550   4.7428661569e+01   6.5115667387e+01    0.2216199    0.1070972  34.57 0.0008746789    1.995    0.499
       102  -8.8811     37.4645     34.5580   4.4895678900e+01   6.5442667742e+01    0.1242391     0.101154   5.27 0.0001224396    1.024    0.024
       103 -10.6634     68.7879    243.9884   7.7524692911e+01   1.3196726939e+01    0.3820888    0.2767188 -40.33  0.002123691    1.835    0.455
       104  -9.7008    125.1747    243.2343   6.4578496845e+01   5.0793944258e+00    0.2791338    0.1501403 -49.99  0.001087493    2.081    0.520
       105 -10.0497     51.3999     30.8833   3.7382549852e+01   6.3874896759e+01    0.4178326    0.2037872  51.89  0.001843473    2.908    0.656
       106  -9.9878     60.7507     21.2623   2.9878465176e+01   6.3442885862e+01    0.1971225    0.1720215  39.66 0.0006187303    1.226    0.184
       107 -12.6980    210.6648     47.1344   7.0652464994e+00   2.7151188504e+01    0.5197669    0.4449552 -62.93  0.001290667    1.153    0.133
       108 -10.3900     33.0104     15.0101   3.8684171972e+01   6.8671413257e+01    0.1945062    0.1180043   7.61 0.0007049203    1.678    0.404
       109 -10.4898    102.9069    237.9418   6.9008853325e+01   9.5548960423e+00    0.3121761    0.1923864 -55.42 0.0008879009    1.802    0.445
