#   1 NUMBER                 Running object number                                     
#   2 MAG_AUTO               Kron-like elliptical aperture magnitude                    [mag]
#   3 X_IMAGE                Object position along x                                    [pixel]
#   4 Y_IMAGE                Object position along y                                    [pixel]
#   5 X_WORLD                Barycenter position along world x axis                     [deg]
#   6 Y_WORLD                Barycenter position along world y axis                     [deg]
#   7 A_WORLD                Profile RMS along major axis (world units)                 [deg]
#   8 B_WORLD                Profile RMS along minor axis (world units)                 [deg]
#   9 THETA_WORLD            Position angle (CCW/world-x)                               [deg]
#  10 FWHM_WORLD             FWHM assuming a gaussian core                              [deg]
#  11 ELONGATION             A_IMAGE/B_IMAGE                                           
#  12 ELLIPTICITY            1 - B_IMAGE/A_IMAGE                                       
         1  -8.7859     39.6670      1.8411   8.3976456141e+01   7.0243421633e+01    0.2810009    0.1561771  31.87  0.001248296    1.754    0.430
         2  -9.5951     39.5456      7.3564   8.7004357438e+01   6.9548223594e+01    0.3940786    0.2726284  10.79  0.002004567    1.352    0.260
         3 -10.7204     39.5795     29.6187   9.7439173216e+01   6.6089269063e+01     1.014566    0.3443796 -46.21  0.004302738    2.665    0.625
         4 -11.9604     44.3420     21.1353   9.1610215255e+01   6.6897975935e+01     1.126146     0.974322 -68.78  0.007127786    1.932    0.482
         5 -11.0676    128.1250     18.0923   6.3696895735e+01   5.0928551456e+01     1.119982    0.7563393  36.66  0.005461858    1.455    0.313
         6 -10.4042    100.7676      7.9607   6.5889310872e+01   5.8321701287e+01     1.258702    0.7026016 -59.78   0.00491047    3.702    0.730
         7 -11.3407    131.2538      3.5644   5.7609989642e+01   5.1559392678e+01     1.351071    0.5882301  62.49  0.005822041    2.030    0.507
         8 -10.6430    121.1737      4.0496   5.9692927422e+01   5.3962993356e+01    0.7292727    0.5803258 -86.06  0.004099599    1.532    0.347
         9 -10.9965    109.4114      4.3184   6.2281182165e+01   5.6704311515e+01     1.030899    0.4436978  61.24  0.004442475    2.197    0.545
        10 -13.4266    165.7467     17.5204   5.6810173461e+01   4.1544338681e+01      3.19093     1.207006  62.38   0.01237025    2.337    0.572
        11 -13.0451    167.2534      5.4095   5.2742597821e+01   4.2337966117e+01      3.49765    0.7368802  68.34   0.01052629    4.117    0.757
        12  -9.8138    117.1824     18.1938   6.6153562400e+01   5.3523754491e+01    0.7173837    0.2824858 -32.03  0.002876976    2.535    0.606
        13  -9.6783    113.6746     15.0660   6.5720663466e+01   5.4677813408e+01    0.7075593    0.2840728  47.20  0.002893799    2.218    0.549
        14 -10.5960     71.7745      5.5020   7.3210683573e+01   6.4525095134e+01    0.6250268    0.3701428  38.85  0.002964502    1.537    0.349
        15 -10.2454     77.3756     20.0664   7.8214890753e+01   6.1751275817e+01    0.4129939    0.3668749 -49.02  0.002551402    1.477    0.323
        16 -10.4611     78.5274     12.6066   7.4395013597e+01   6.2453058963e+01    0.5899978    0.5083243  37.67   0.00350771    1.209    0.173
        17 -11.2535     84.1873      3.9422   6.8569432627e+01   6.2243325530e+01    0.8386833    0.5276633  50.24  0.003517152    1.501    0.334
        18  -9.5676     93.7365     17.3450   7.1877197903e+01   5.8837095707e+01    0.4680169    0.3651751 -64.14  0.002371789    1.910    0.476
        19 -10.7152    248.2958     15.2756   4.7206325575e+01   2.1708775391e+01    0.4979418    0.3186195 -30.71  0.002821689    1.509    0.337
        20 -10.7493    249.9562      6.8553   4.5171743260e+01   2.2244493797e+01     0.480778    0.4256335 -84.46  0.003066469    1.130    0.115
        21  -9.6311     63.4824     15.8945   8.1254760313e+01   6.4769014625e+01    0.4996012    0.2605214  54.31  0.002309971    2.720    0.632
        22  -8.4945     48.8112      7.0449   8.2723525878e+01   6.8258524918e+01    0.2585042    0.1750647  32.09  0.001585839    1.445    0.308
        23  -8.7013     53.1373      2.1891   7.8359342738e+01   6.8156621105e+01    0.5299392    0.2237373  35.97  0.002546839    2.292    0.564
        24  -9.4616     55.3875      7.7057   8.0350408407e+01   6.7145738794e+01    0.3959772    0.2906576  65.41  0.001712014    2.444    0.591
        25  -9.7712     61.1156      2.9119   7.5658854891e+01   6.6732158294e+01    0.5213394    0.2939093  19.85  0.002713754    1.881    0.468
        26  -8.8408     19.5098     14.4730   1.0048371440e+02   7.0758079830e+01    0.4665368    0.1840789 -29.24  0.002126634    2.740    0.635
        27  -9.3145     70.1634     13.8688   7.7835071812e+01   6.3862686995e+01    0.3386854     0.278323  10.21  0.002130592    1.045    0.043
        28  -9.8286    227.4883     13.3418   4.8480005262e+01   2.6633312085e+01    0.4018981    0.2536806  52.11  0.002129814    1.763    0.433
        29  -8.1373     28.7371      8.5745   9.2867927318e+01   7.0728085892e+01    0.2123176   0.08645865 -39.38  0.001057253    2.155    0.536
        30 -10.1894    199.3721      8.0028   4.9776918492e+01   3.3977430602e+01    0.3043477    0.1604636  55.85  0.001349391    1.853    0.460
        31  -9.6728    230.2086      6.2663   4.6520562063e+01   2.6734950767e+01    0.2757644    0.1694081  69.06  0.001501208    1.591    0.371
        32 -10.1928    221.1465      1.8456   4.6170470947e+01   2.9289779293e+01    0.5007662    0.2006602  75.25  0.002182016    2.389    0.581
        33  -8.7198     26.8200      3.4038   9.1117600167e+01   7.1688741988e+01    0.2968001    0.1548219 -36.50   0.00171665    1.709    0.415
        34  -8.9191     17.1421      2.3389   9.5735122604e+01   7.2878711471e+01    0.2802403    0.2040341 -52.20  0.001793448    2.011    0.503
        35  -7.8490      1.5035      1.4467   1.0441200710e+02   7.4321345602e+01    0.1116473   0.07936814 -27.14 5.505071e-05    1.017    0.016
        36  -8.6288     22.2929     52.5898   1.1289072069e+02   6.3308775688e+01    0.3651603    0.1955161  -7.83  0.001827954    2.622    0.619
        37 -10.2295     86.4783     48.5228   8.6923711380e+01   5.5692906013e+01    0.3705995    0.3535887  -5.56    0.0018034    1.113    0.101
        38 -10.0939     83.4852     46.5001   8.7157550294e+01   5.6589984287e+01    0.4766102    0.3081888 -21.87  0.002333594    1.632    0.387
        39  -8.1267    110.9751     45.8061   7.8432218160e+01   5.1211997068e+01    0.2777118    0.1842727 -15.59   0.00128595    1.700    0.412
        40 -10.3570      3.5903     40.3482   1.1760637616e+02   6.7035155774e+01    0.4484478    0.3827169 -39.80   0.00296065    1.146    0.128
        41  -9.4789     11.6692     33.2771   1.1176296304e+02   6.7970509651e+01    0.3684989    0.2391153 -35.70  0.001610992    1.251    0.201
        42  -9.8895     81.8903     39.2427   8.4861373084e+01   5.8098176420e+01     0.398582    0.3483284 -20.07  0.001930423    1.077    0.072
        43 -11.1450    172.4967    242.6655   1.0887124711e+02   2.5018340663e+00     0.559641    0.1589504  44.61  0.002285741    3.058    0.673
        44 -10.5750    205.8607    224.0148   1.0013233390e+02  -2.5507418902e-01    0.3725908     0.200939  12.73  0.001730243    2.729    0.634
        45 -10.3007     51.1043     36.3412   9.5252507969e+01   6.3464217029e+01    0.6596326    0.5034497 -69.25  0.003630448    2.146    0.534
        46  -9.8360    123.9981    205.9871   1.1320689936e+02   1.6050805170e+01    0.1791579    0.1555145  51.51  0.001154046    1.007    0.007
        47  -9.3441    239.5504    202.7143   9.0571482683e+01  -2.8119954843e+00    0.3118164    0.1003872  45.69  0.001219648    3.559    0.719
        48  -9.3962     68.6028     36.6404   8.8524803067e+01   6.0818253331e+01    0.4187226    0.3382622  74.09  0.002280538    2.083    0.520
        49  -8.7144     28.2134     35.2792   1.0477136740e+02   6.6261901987e+01    0.2745365    0.1912941   7.72  0.001606664    1.570    0.363
        50 -10.2227    225.0751     29.1898   5.2698080477e+01   2.5413696471e+01     0.468431    0.3643216  63.87  0.001736125    1.323    0.244
        51  -9.4482     86.1316     31.4712   8.0267515910e+01   5.8505927239e+01    0.2773356    0.2220882 -11.58   0.00133444    1.173    0.147
        52  -8.9274     97.5479     28.3285   7.5430555629e+01   5.6651512878e+01    0.5605633     0.258562 -13.39  0.001973629    3.442    0.709
        53  -9.5302     66.5719     29.8284   8.6421867272e+01   6.2246908372e+01    0.3667465    0.2084128 -25.33  0.001822885    1.727    0.421
        54 -10.5526     75.3545     26.8599   8.1936897243e+01   6.1184492926e+01    0.5577576    0.4663506  61.01  0.003277249    1.628    0.386
        55 -12.6802    241.3533    132.3722   7.5881127585e+01   6.8588060800e+00     1.413819     1.212941  35.50  0.005280539    1.244    0.196
        56 -10.8877     11.1829    141.2073   1.3083140644e+02   4.4114156461e+01    0.4459432    0.3070861  31.39  0.002952109    1.739    0.425
        57 -10.8020     16.7084    127.3482   1.2806070949e+02   4.6836217013e+01    0.4176022    0.2156501 -83.57  0.002235276    1.730    0.422
        58  -7.4114    122.6822    128.3221   9.9719719290e+01   3.2266881507e+01    0.1519012    0.1174291  84.79 0.0003748551    1.666    0.400
        59 -10.5111     11.8000    118.5544   1.2838396684e+02   4.9211079112e+01    0.3675143    0.1941032  87.33  0.001955651    1.897    0.473
        60  -7.2073    192.6599    116.6814   8.0848622867e+01   1.9635092376e+01    0.1581425    0.1160839  10.65 0.0004639003    1.712    0.416
        61  -9.0428     14.4316    114.1845   1.2714292079e+02   5.0030142257e+01    0.1718018   0.09622651 -84.90 0.0004905903    1.629    0.386
        62  -8.3826    132.3071     26.0843   6.5794233437e+01   4.9003022489e+01    0.2000036     0.182828 -25.30  0.001141358    1.145    0.127
        63  -8.5512     19.5169     22.4591   1.0394565833e+02   6.9389562360e+01    0.1917618    0.1786785  47.54 0.0009524992    1.607    0.378
        64  -8.8329     40.5399    141.8320   1.2364359691e+02   4.1350751452e+01     0.224175    0.1685053 -67.91  0.001388151    1.182    0.154
        65  -9.9203     17.8015    105.1572   1.2498335604e+02   5.1871948127e+01    0.6488836    0.3276817  85.15  0.003072602    2.472    0.596
        66  -9.3901     29.5552    101.9678   1.2094000439e+02   5.1683725003e+01    0.3322316    0.1590738 -46.82  0.001627776    2.010    0.503
        67 -10.0161     47.1987     99.7716   1.1504321334e+02   5.0487982490e+01    0.4553703     0.154965 -59.66  0.001819485    2.424    0.587
        68  -8.3293     58.6571    100.6888   1.1164715445e+02   4.8944960704e+01    0.1396813   0.09641217 -31.07 0.0007045808    1.701    0.412
        69 -12.0440     43.3644     82.2286   1.1250483904e+02   5.4931349835e+01     1.073363    0.8768424 -23.32  0.006621282    1.332    0.249
        70  -9.1594      2.4232     88.7413   1.2741285380e+02   5.6583217442e+01    0.3737634    0.1971691 -86.01  0.002045779    1.845    0.458
        71 -10.3155     24.8396     65.7258   1.1528377082e+02   6.0298903764e+01    0.6872456    0.2363535 -51.05  0.002616097    2.172    0.540
        72 -11.5832     14.8411     73.1429   1.2061262057e+02   5.9374612004e+01    0.8647033    0.6217644 -62.72  0.005599427    1.114    0.102
        73  -8.6448    220.9894     80.4325   6.6511248542e+01   1.9290077157e+01    0.4059232    0.2278604 -39.49  0.001813277    1.650    0.394
        74  -9.2150    228.0271     78.6888   6.5017360750e+01   1.7960850496e+01    0.3791886    0.2611651  21.18  0.001168241    1.972    0.493
        75  -7.7870     71.2970     80.3671   1.0252618309e+02   5.1852570917e+01    0.1475655   0.09972641 -25.71 0.0007030937    1.726    0.420
        76  -8.6530    138.9579     78.0880   8.1986347782e+01   3.9284974331e+01    0.2965466    0.2810743  38.29  0.001056453    1.064    0.060
        77  -9.9781     73.7746     68.4873   9.8152707619e+01   5.4012407340e+01    0.3645643    0.3010789 -51.39   0.00206347    1.207    0.172
        78  -8.4518     33.8176     69.0524   1.1272594203e+02   5.8804723674e+01    0.2395267    0.1772386  -0.12  0.001440979    1.619    0.382
        79  -7.8751      8.1760     16.8228   1.0750678516e+02   7.1267250820e+01    0.2656087      0.10984 -12.97  0.001083547    4.240    0.764
        80  -9.0101     83.2532     69.2629   9.5216901204e+01   5.2320317191e+01    0.3011686    0.2021555  30.96  0.001487854    1.626    0.385
        81  -9.3353     48.5653     61.6396   1.0511843382e+02   5.8864112460e+01    0.3470903    0.2953776 -24.53   0.00218145    1.121    0.108
        82  -8.7259     69.7658     61.0923   9.7154483643e+01   5.6132130742e+01    0.3499674    0.1811791 -48.69  0.001588088    1.824    0.452
        83 -10.7852      3.9156     75.9212   1.2498269722e+02   5.9385691851e+01    0.5784357    0.4488509  66.12  0.003963625    1.545    0.353
        84  -8.0790     75.9916     60.2675   9.4696800807e+01   5.5320907222e+01    0.1960876    0.1806999 -16.71  0.001170136    1.046    0.044
        85  -8.4988    125.6600     28.6986   6.8246371808e+01   5.0283683163e+01    0.3392958    0.1725874 -26.42  0.001452585    2.021    0.505
        86  -8.4699     93.3203     56.8845   8.7760434201e+01   5.2917804723e+01    0.2491574    0.2027964  53.98  0.001329973    1.437    0.304
        87  -8.0892     90.6932     27.9765   7.7351228894e+01   5.8106070445e+01    0.1966568    0.1758062  -1.06  0.001125862    1.041    0.040
        88  -9.3611    198.9568     55.3917   6.3138092282e+01   2.8323109653e+01    0.2644721    0.2524526  37.10 0.0005640973    1.106    0.096
        89  -8.9501     66.0654     53.1229   9.5754580218e+01   5.8253004542e+01    0.4520979    0.1858813 -52.72  0.001724783    2.884    0.653
        90  -9.1383    104.4801     26.1150   7.2557712430e+01   5.5458860162e+01    0.4001249    0.2661073  59.45   0.00199757    1.656    0.396
        91  -7.9566      9.5878     26.7546   1.1055203826e+02   6.9356441973e+01    0.1551108   0.09642525 -60.53 0.0009424226    1.635    0.388
