#   1 NUMBER                 Running object number                                     
#   2 MAG_AUTO               Kron-like elliptical aperture magnitude                    [mag]
#   3 X_IMAGE                Object position along x                                    [pixel]
#   4 Y_IMAGE                Object position along y                                    [pixel]
#   5 X_WORLD                Barycenter position along world x axis                     [deg]
#   6 Y_WORLD                Barycenter position along world y axis                     [deg]
#   7 A_WORLD                Profile RMS along major axis (world units)                 [deg]
#   8 B_WORLD                Profile RMS along minor axis (world units)                 [deg]
#   9 THETA_WORLD            Position angle (CCW/world-x)                               [deg]
#  10 FWHM_WORLD             FWHM assuming a gaussian core                              [deg]
#  11 ELONGATION             A_IMAGE/B_IMAGE                                           
#  12 ELLIPTICITY            1 - B_IMAGE/A_IMAGE                                       
         1 -13.7760    220.1471     33.8754   3.8805917907e+01   2.6647972398e+01     1.212199    0.7625697  62.46  0.005785492    1.635    0.388
         2 -13.8681    226.3785     27.6517   3.6802167360e+01   2.6056317940e+01     1.431651    0.8529791  38.62  0.001522043    2.877    0.652
         3 -11.5079      2.3208     21.1866   9.5950678101e+01   7.1578891276e+01    0.5146541   0.05197907 -51.65  0.001688932    5.458    0.817
         4 -13.4740    246.7123      9.2489   3.1364055214e+01   2.3936428022e+01    0.7109087    0.4488397 -56.24  0.002821638    1.271    0.213
         5 -12.1798      4.3797      4.0093   8.6887017424e+01   7.4137496713e+01    0.5554871    0.3724497 -10.91  0.003966575    1.166    0.142
         6 -11.7623    151.2939    227.9721   9.4759218470e+01   5.0393223910e+00    0.4260761    0.1861804  34.50  0.001848826    2.078    0.519
         7 -15.3729     92.6442    239.8925   1.0868805826e+02   1.1942493604e+01     12.05168     6.575066  73.04   0.05626339    2.585    0.613
         8 -14.0256      5.6010    245.4573   1.2581991055e+02   2.1504125913e+01     2.553007    0.9038908 -76.46   0.01374442    2.544    0.607
         9 -15.3651     33.7423    190.5303   1.1661267028e+02   3.0310769480e+01     9.014338     3.329569  79.29   0.02669553    5.626    0.822
        10 -14.5658     28.3857    200.5325   1.1866921664e+02   2.8579322803e+01     3.087463    0.8667327  53.06   0.01159657    3.605    0.723
        11 -11.1702     44.0950    218.3599   1.1676784641e+02   2.2863245497e+01    0.2937561    0.2280141  49.91  0.001077539    1.206    0.171
        12  -9.8781    163.4180    217.2049   9.0477717075e+01   4.9923507388e+00    0.1763918    0.1332163 -60.56 0.0009489039    1.688    0.408
        13 -10.4485    170.0134    223.0061   9.0035182443e+01   2.8667019436e+00    0.1662596    0.1462694  19.29   0.00101946    1.012    0.012
        14 -10.1994    123.4508    217.7628   9.9305761764e+01   1.1548687471e+01    0.4523827    0.2351684 -74.62  0.001726196    3.484    0.713
        15  -9.6788    190.8234    191.4200   8.0040354421e+01   5.0373467674e+00    0.2786818    0.1738432 -72.01 0.0009542729    4.380    0.772
        16 -12.9723     19.6744    208.5276   1.2111132628e+02   2.7691760196e+01    0.6036122    0.3639889 -53.00 0.0007338976    2.070    0.517
        17 -11.7494     51.0134    180.7528   1.1148137715e+02   3.0652595005e+01    0.4014106    0.3029959 -26.47 0.0009834614    1.924    0.480
        18 -11.6226     57.6762    174.6495   1.0906023395e+02   3.1305425287e+01    0.3151321    0.2628793 -39.44 0.0007297816    1.456    0.313
        19 -11.0441     69.1597    164.5425   1.0463537612e+02   3.2270940886e+01     0.273616    0.2617983 -54.93 0.0003877076    1.158    0.136
        20 -13.5893     57.5321    122.9975   1.0080039326e+02   4.4344447169e+01     1.593282     0.903512 -72.84  0.002390772    1.934    0.483
        21 -12.8633     68.1876    144.3515   1.0157800168e+02   3.7503894404e+01    0.8473439    0.5766001  74.10  0.003023237    1.801    0.445
        22 -13.1514     55.1422    161.1227   1.0789454436e+02   3.4985743598e+01    0.5207046    0.3226227 -41.76   0.00139219    1.944    0.486
        23 -14.0524     10.4551    206.6168   1.2287955743e+02   2.9002675401e+01     1.142357    0.8860869  84.50  0.004064405    1.067    0.063
        24  -8.5718    151.3760    151.1565   8.0482550192e+01   2.0895063822e+01    0.2168227    0.1456105 -58.09 0.0005391132    1.663    0.399
        25  -8.9116    134.3202    148.6606   8.4170750176e+01   2.4922373699e+01    0.1616547    0.1248158  84.00 0.0007050011    1.714    0.417
        26 -10.1488     93.1323    143.8568   9.4306973623e+01   3.3770085091e+01    0.2893398    0.2663577 -26.22 0.0008159353    1.195    0.163
        27  -9.2400     96.2947    140.4048   9.2689320957e+01   3.4090133277e+01    0.3445004     0.210105 -28.49   0.00132859    2.407    0.585
        28 -11.8853     80.7765    142.2550   9.7536268631e+01   3.6176298010e+01     0.325947    0.2648514 -55.87 0.0005133878    1.170    0.145
        29 -10.5012    106.1420    131.5975   8.7920251767e+01   3.4491401941e+01     0.374643    0.3248757 -25.72  0.001037456    1.265    0.210
        30 -10.0470     93.1798    128.1532   9.0908450191e+01   3.7670663535e+01    0.3320926    0.2638631 -16.08  0.001434607    1.561    0.359
        31  -9.7821    114.2109    125.2141   8.4103138315e+01   3.4485436945e+01    0.2691317    0.1756592  -9.75 0.0009570488    2.810    0.644
        32  -9.4984    104.4052    120.1242   8.5671847565e+01   3.7594306780e+01    0.2308514    0.2093186  19.13 0.0003415065    1.184    0.155
        33  -9.3851    204.9251    110.5477   5.9368733644e+01   1.7816790533e+01     0.274979    0.1422677  47.04  0.001140367    2.100    0.524
        34 -12.5297     76.7699    157.3858   1.0141802311e+02   3.2967177241e+01    0.9574937    0.6488708  68.46  0.001936893    1.729    0.422
        35  -8.8615     81.0223     87.0192   8.4103081012e+01   4.9477706962e+01    0.1749699    0.1652087 -15.30 0.0003887152    1.027    0.026
        36  -8.9741     24.9481     82.7133   1.0366890970e+02   5.7519801994e+01    0.1689238     0.150351 -31.53 0.0003244806    1.117    0.104
        37 -10.8439     13.3153     60.3861   1.0304554001e+02   6.3320337969e+01    0.2413131    0.1760756 -47.64 0.0006007422    1.102    0.093
        38 -11.5900    203.0559     47.9704   4.4146336102e+01   2.8660029157e+01     0.654313     0.288421 -48.75  0.002767386    2.201    0.546
        39  -9.5546     20.8920     48.3642   9.6078199391e+01   6.5222467369e+01    0.1934286    0.1546804 -50.53 0.0006463712    1.267    0.211
        40 -11.7173    139.3683    240.3428   9.9028584175e+01   4.7449713166e+00    0.4499406    0.1612039 -55.11  0.001821549    3.506    0.715
        41 -12.5683     30.9844    248.2372   1.2143975646e+02   1.8304441797e+01     1.379646    0.3209407  36.83  0.005956365    3.328    0.700
        42  -9.7398     95.0542     42.4540   6.4299267385e+01   5.5086944844e+01    0.2608168    0.1876004 -46.29   0.00106554    1.626    0.385
        43  -8.5017    134.5333     41.4924   5.3791965120e+01   4.6234974707e+01    0.1410975    0.1327022  65.74  2.59313e-05    1.039    0.038
        44 -10.4692      2.5001     38.1769   1.0184133026e+02   6.8468924896e+01    0.2494719    0.1316428 -56.27  0.001439823    1.641    0.391
        45 -10.6158     60.4338    233.1921   1.1465505848e+02   1.7715491601e+01    0.2519858     0.177787  74.70 0.0007345654    1.294    0.227
        46 -11.6766     22.5094    224.3288   1.2157829554e+02   2.4014717859e+01     0.346383    0.1679172  65.33  0.001886343    1.833    0.455
        47  -9.7809    189.4724     15.0428   3.7503346261e+01   3.5967234966e+01    0.1806341     0.123615 -35.24 0.0006100241    1.552    0.355
