#   1 NUMBER                 Running object number                                     
#   2 MAG_AUTO               Kron-like elliptical aperture magnitude                    [mag]
#   3 X_IMAGE                Object position along x                                    [pixel]
#   4 Y_IMAGE                Object position along y                                    [pixel]
#   5 X_WORLD                Barycenter position along world x axis                     [deg]
#   6 Y_WORLD                Barycenter position along world y axis                     [deg]
#   7 A_WORLD                Profile RMS along major axis (world units)                 [deg]
#   8 B_WORLD                Profile RMS along minor axis (world units)                 [deg]
#   9 THETA_WORLD            Position angle (CCW/world-x)                               [deg]
#  10 FWHM_WORLD             FWHM assuming a gaussian core                              [deg]
#  11 ELONGATION             A_IMAGE/B_IMAGE                                           
#  12 ELLIPTICITY            1 - B_IMAGE/A_IMAGE                                       
         1 -15.0363      6.4046    143.8459   1.4299936847e+02   4.4551081917e+01       6.3639     1.891837 -80.12   0.02344714    3.813    0.738
         2 -13.3537    195.7637     30.1997   6.8119538007e+01   3.2925690771e+01     1.348384     1.206723  65.09  0.006943549    1.156    0.135
         3 -13.4849    211.8890     10.6204   6.1511982128e+01   3.1329150449e+01     1.235446    0.9027764  43.53  0.007189144    1.749    0.428
         4 -12.3176      2.9777      6.9053   1.1376858395e+02   7.1571259391e+01    0.7523874    0.2806823 -39.39  0.004435887    2.084    0.520
         5  -8.9124     88.6643    249.3036   1.3706326628e+02   1.1904294211e+01    0.1298191   0.07412676  67.07 0.0003787481    1.665    0.400
         6 -11.5817    138.2500    249.0883   1.2782211813e+02   3.9128761542e+00    0.4127368    0.2829519  30.99  0.002357546    1.605    0.377
         7 -11.3484    125.0888    250.0098   1.3041762009e+02   5.9638761747e+00    0.5583366    0.1422674  43.67  0.002076154    3.160    0.684
         8  -9.7225     66.7336    250.0467   1.4102578359e+02   1.4966775817e+01    0.1991393    0.1341794  56.38 0.0003777814    1.202    0.168
         9  -9.8643     46.8856    249.7928   1.4439711973e+02   1.7675806377e+01    0.1612269     0.131417  74.23 0.0006820997    1.210    0.174
        10 -11.0982     35.9910    244.0279   1.4580643928e+02   2.0124315064e+01    0.3102417    0.2330753  49.13  0.002117099    1.451    0.311
        11 -11.9431     29.3589    249.5242   1.4726014187e+02   1.9881365270e+01    0.5609504    0.4770192  74.06  0.004488504    1.364    0.267
        12 -11.2774     14.4806    249.7622   1.4962869258e+02   2.1522810791e+01    0.4402216    0.2194357  37.95  0.002751578    2.309    0.567
        13 -10.9553     12.5868    245.1794   1.4967007100e+02   2.2578921359e+01    0.2325685    0.1589406 -78.04  0.001454156    1.435    0.303
        14 -11.9918     11.4701    239.5773   1.4953091220e+02   2.3754951649e+01     0.462884    0.1703906  62.24  0.002504635    2.292    0.564
        15 -10.8341      1.9955    241.1044   1.5110367111e+02   2.4440614787e+01    0.4135479    0.1281777 -80.89  0.002128168    2.714    0.632
        16 -10.3919      2.4782    249.5200   1.5145156519e+02   2.2832502861e+01    0.2666258    0.1484676  57.68  0.001726615    1.399    0.285
        17 -10.2052      2.5195    246.4642   1.5129430070e+02   2.3389853468e+01    0.1807415    0.1425751  70.76 0.0006911737    1.303    0.232
        18  -9.7590     81.9857    248.9796   1.3823434898e+02   1.2966423763e+01    0.2041468    0.1136932  67.30 0.0008810257    1.692    0.409
        19 -10.5600     19.3744    242.6819   1.4844524887e+02   2.2309504279e+01    0.2171209    0.1163134  68.37 0.0007257691    1.443    0.307
        20 -10.6458    186.1226    239.6600   1.1729760552e+02  -2.8075937513e+00    0.2021254    0.1825449 -63.98 0.0007494398    1.396    0.284
        21 -10.7322    234.4225    238.6473   1.0811739823e+02  -1.0605038260e+01     0.355313    0.1994232 -56.13  0.001534945    4.044    0.753
        22 -10.3740    230.5464    232.0356   1.0768081588e+02  -9.0888850693e+00    0.3056026    0.2014114 -54.53   0.00162559    2.414    0.586
        23  -9.9758    228.4960    228.0033   1.0735021407e+02  -8.1847315349e+00    0.2501414     0.199604 -59.62  0.001294073    1.912    0.477
        24 -10.9365    119.9023    238.5508   1.3000383993e+02   8.8895507045e+00    0.3132712     0.174819 -81.41  0.001439902    2.680    0.627
        25 -11.3946     50.5052    235.3287   1.4264393919e+02   1.9987838109e+01    0.3548478    0.1899826 -63.09  0.001794344    1.974    0.493
        26 -11.7756    238.8381    248.7993   1.0903371052e+02  -1.2590594971e+01    0.4793401    0.2284593  40.40  0.002562579    1.935    0.483
        27  -9.6510    192.9916    194.8750   1.0810834745e+02   3.6178301868e+00    0.6839753    0.3308346 -64.91  0.001460131   10.207    0.902
        28 -12.6240     33.4249    231.5396   1.4534901057e+02   2.2862457578e+01    0.3074636    0.2300871 -72.33 0.0007735706    1.444    0.308
        29 -14.5513     38.9732    224.0442   1.4378679137e+02   2.3706599030e+01     5.061387     1.474215  38.12  0.008050547    3.405    0.706
        30 -11.7563     66.6676    189.6352   1.3477256386e+02   2.7542105119e+01    0.2870283    0.2353966 -63.97 0.0005495982    1.288    0.224
        31 -10.0363      6.9681    215.0293   1.4879740781e+02   2.9048828046e+01    0.1729664    0.1230119  82.73  0.000510127    1.015    0.015
        32 -10.8049     76.8648    176.9629   1.3076857055e+02   2.8990372486e+01    0.2496282    0.2132783 -73.88 0.0003396194    1.113    0.102
        33 -13.1433     63.6550    174.8680   1.3350839481e+02   3.1363467301e+01    0.5145077    0.2812043 -45.95  0.001618209    2.295    0.564
        34  -9.6160     96.8368    173.2863   1.2552829764e+02   2.6683920453e+01    0.2437207    0.2118192 -81.14 0.0007215141    1.062    0.058
        35 -11.6684     84.4084    167.7084   1.2756655802e+02   3.0014661716e+01    0.6465986    0.5639105 -65.03  0.003764786    1.145    0.127
        36 -11.5590    138.0299    231.1309   1.2545539227e+02   7.1387748616e+00    0.5680918    0.2004666  35.42  0.001999815    3.437    0.709
        37  -9.7437     97.3882    151.9009   1.2156564923e+02   3.1652930328e+01    0.2851115    0.2566401 -61.01 0.0008057297    1.100    0.091
        38 -11.9693     85.8972    151.0996   1.2432893787e+02   3.3737779948e+01     0.303695    0.2501715 -47.19 0.0005516079    1.289    0.224
        39 -12.2210     67.4500    143.8072   1.2776115650e+02   3.8214963744e+01    0.6997626    0.4830506  73.27  0.003134897    1.692    0.409
        40  -8.7439    100.4606    147.9481   1.2001129563e+02   3.2063972639e+01    0.2164679    0.1375155 -54.98  0.000315441    1.495    0.331
        41 -12.5692      9.5166    207.0633   1.4781951910e+02   3.0439143575e+01    0.6690341     0.542632  34.40  0.003601984    1.723    0.420
        42  -8.7189    152.5286    212.9878   1.1974072548e+02   7.9402656224e+00    0.1833181    0.1386683 -53.63 0.0003239764    1.458    0.314
        43  -9.6998    109.3946    137.0341   1.1541602993e+02   3.3039545714e+01    0.4093982    0.2689694 -24.09  0.001659504    2.398    0.583
        44 -10.3042     96.4093    134.3898   1.1826500032e+02   3.5987853135e+01    0.2628884     0.229613 -32.66 0.0004742287    1.282    0.220
        45 -10.3912     56.5445    132.2731   1.2860349595e+02   4.2380056665e+01    0.3255412    0.1724232  66.63   0.00129449    3.110    0.678
        46 -10.4274     31.5005    131.5687   1.3517718953e+02   4.5266443855e+01    0.2433718    0.1880716  80.58 0.0008055726    1.341    0.255
        47  -9.4619     79.1491    131.4540   1.2230301112e+02   3.9473010611e+01    0.2601355     0.199231  81.07 0.0009930127    1.518    0.341
        48 -11.5878     22.6148    126.7533   1.3680690774e+02   4.7167827999e+01    0.3113793    0.2392453  66.97  0.000864407    1.445    0.308
        49  -8.7837    106.4980    123.8870   1.1318926698e+02   3.6646958965e+01    0.2074012    0.1424609 -52.18 0.0002978306    1.389    0.280
        50  -9.4721     34.6925    202.5653   1.4275316077e+02   2.8732137741e+01    0.1879498    0.1566735  69.34   0.00055952    1.195    0.163
        51 -10.2865    167.8569    112.9184   9.5128770797e+01   2.5884402864e+01    0.3588228    0.2842611 -80.77 0.0008362824    1.513    0.339
        52  -9.2350    203.4000    111.7533   8.7538474544e+01   1.7727956100e+01    0.2134238    0.1449034 -29.88 0.0005472343    1.631    0.387
        53 -11.6894    242.0737     93.4162   7.6778383253e+01   1.2310946228e+01    0.5368778    0.3750553  11.02  0.002342969    2.701    0.630
        54  -8.3951     68.1787     83.3690   1.1410916501e+02   5.1846172327e+01    0.1676374     0.123918  45.80 0.0003832077    1.589    0.371
        55  -8.8732    184.6749     77.6535   8.2342652482e+01   2.8566050158e+01    0.1537142    0.1199208  19.35 0.0007050007    1.745    0.427
        56  -9.0981    158.3133     76.6924   8.7413260196e+01   3.5196414319e+01    0.1545286    0.1179136 -78.57 0.0004408709    1.624    0.384
        57  -9.1963     31.7399     62.1009   1.2063441314e+02   6.0268211140e+01    0.1771577    0.1565126  25.78 0.0005933262    1.379    0.275
        58 -11.2207     13.7653     54.7864   1.2531303712e+02   6.3073422998e+01    0.2504558    0.1988039  33.33  0.001274452    1.651    0.394
        59 -10.4551      1.9128     51.0929   1.2888093701e+02   6.4473808656e+01     0.218715    0.1125814 -49.52  0.001372264    1.412    0.292
        60 -11.3775    246.3689    245.1083   1.0709215887e+02  -1.3225545087e+01    0.3384624    0.1955755  43.94  0.001943864    1.896    0.472
        61 -11.5394     99.1647    246.9354   1.3489995507e+02   1.0717351698e+01    0.5846538    0.2743422  58.34  0.002866105    2.030    0.507
        62 -11.4726     60.3403    197.8508   1.3710199396e+02   2.6565145291e+01    0.2864642    0.2272987 -57.50   0.00054579    1.461    0.315
