#   1 NUMBER                 Running object number                                     
#   2 MAG_AUTO               Kron-like elliptical aperture magnitude                    [mag]
#   3 X_IMAGE                Object position along x                                    [pixel]
#   4 Y_IMAGE                Object position along y                                    [pixel]
#   5 X_WORLD                Barycenter position along world x axis                     [deg]
#   6 Y_WORLD                Barycenter position along world y axis                     [deg]
#   7 A_WORLD                Profile RMS along major axis (world units)                 [deg]
#   8 B_WORLD                Profile RMS along minor axis (world units)                 [deg]
#   9 THETA_WORLD            Position angle (CCW/world-x)                               [deg]
#  10 FWHM_WORLD             FWHM assuming a gaussian core                              [deg]
#  11 ELONGATION             A_IMAGE/B_IMAGE                                           
#  12 ELLIPTICITY            1 - B_IMAGE/A_IMAGE                                       
         1 -12.3040     62.5218     70.0146   6.8771679952e+01   5.6404390838e+01    0.7376575    0.1249465 -45.39  0.001855695    5.844    0.829
         2 -11.3478     91.9432     48.0311   5.0775832577e+01   5.4386372900e+01    0.5183482    0.1661109 -40.55  0.001844871    3.373    0.704
         3 -10.6413     40.7776     14.0198   5.5283186598e+01   6.9103916009e+01    0.1695972    0.1378628  19.22 0.0003247634    1.056    0.053
         4 -10.4921     66.4110    227.2175   9.7877522283e+01   1.7102414429e+01    0.1810062    0.1267562  88.68 0.0009456239    1.674    0.403
         5 -11.1978    162.3203    224.4600   7.4558559876e+01   4.6686864769e+00     0.278829    0.1776744 -18.46  0.001110295    1.704    0.413
         6 -10.2521    126.3010    220.6458   8.2211636494e+01   1.0436804778e+01    0.1367816    0.1062682  62.00 0.0007038079    1.703    0.413
         7 -10.6670     74.6596    219.3293   9.4927234641e+01   1.7845182164e+01    0.1500331   0.09505045  57.25 0.0007051608    1.740    0.425
         8 -11.2692    144.1038    216.8776   7.7429578043e+01   8.6572180484e+00    0.2082516    0.1879674  39.94  0.001238954    1.264    0.209
         9 -10.9448    177.9873    210.4929   6.8902835997e+01   5.1037649826e+00    0.1781391    0.1086374  51.09 0.0008105788    2.582    0.613
        10 -11.2318    116.8653    210.1517   8.2929289063e+01   1.4033482937e+01    0.2261982    0.1911642  52.46  0.001103993    1.318    0.241
        11 -10.7396    148.3466    209.6693   7.5270217791e+01   9.4878605715e+00    0.1363643    0.1095133  62.70 0.0007049723    1.760    0.432
        12 -10.8961    139.7787    207.5951   7.6928951498e+01   1.1179165552e+01    0.2020422    0.1223164  39.69 0.0009451937    1.676    0.403
        13 -11.2163     99.4850    205.5533   8.6677636480e+01   1.7609511801e+01    0.2502267    0.1462045 -75.08  0.001036507    2.401    0.584
        14 -12.2872    186.3605    204.3517   6.6119813971e+01   5.0744790403e+00    0.2526816    0.2048942  41.91  0.001496708    1.536    0.349
        15 -13.6580    165.2989    202.3515   7.0197657166e+01   8.4514812827e+00    0.6298019    0.4991715  81.51  0.003203886    2.216    0.549
        16 -14.4533    163.5820    194.3166   6.9139555126e+01   1.0299917036e+01    0.9466147    0.4321081  44.42  0.003805367    2.636    0.621
        17 -13.8508    178.0275    198.1381   6.6724990128e+01   7.4059127524e+00    0.4456604    0.3784481  41.89  0.002639007    1.425    0.298
        18 -12.4463    149.3453    197.8178   7.3002027324e+01   1.1765104616e+01    0.4309514    0.3158757 -81.20  0.002002731    2.313    0.568
        19 -12.4317    124.3641    197.2137   7.8958497438e+01   1.5763964300e+01    0.3449146    0.2820637 -89.01  0.001710346    1.646    0.392
        20 -11.5592    113.0483    197.4094   8.1883482225e+01   1.7463067599e+01    0.3453093    0.2482184  86.51  0.001565031    2.098    0.523
        21 -12.8971    186.6777    193.6293   6.4136948145e+01   7.0051310584e+00    0.2823703    0.2575611  64.19  0.001608962    1.557    0.358
        22 -10.7352    200.3270    191.6922   6.1124501991e+01   5.4321189989e+00    0.1163593    0.1060042 -81.75 0.0004540065    1.655    0.396
        23 -11.2027    206.2444    191.4261   5.9974693043e+01   4.6694167165e+00    0.1633423    0.1207189  40.83 0.0009493519    1.664    0.399
        24 -12.1000    172.8642    191.1229   6.6537720183e+01   9.5236675574e+00    0.1999809    0.1959205 -45.49 0.0008782418    1.264    0.209
        25 -12.4191    139.3490    188.9431   7.3791044723e+01   1.5226711127e+01    0.3925331    0.2809853 -61.99  0.001900285    1.681    0.405
        26 -11.8789    129.6275    188.1349   7.6051247164e+01   1.6967751801e+01    0.3244815    0.2589791  86.97  0.001581181    1.771    0.435
        27 -11.5489    193.0222    188.0107   6.1849962532e+01   7.1335426002e+00    0.1936416    0.1714511 -85.71  0.001139169    1.718    0.418
        28 -12.2372    149.1120    187.6437   7.1217229128e+01   1.3941831580e+01    0.2465932    0.2047581 -54.71 0.0008744991    1.337    0.252
        29 -11.6420      7.6054    187.8148   1.0973715149e+02   3.2757858654e+01    0.1948056    0.1117578  84.76  0.000927441    1.690    0.408
        30 -12.0736    165.8927    186.8522   6.7253497026e+01   1.1446547347e+01    0.3219264    0.2318681  46.25  0.001247747    1.636    0.389
        31 -12.1471    155.9568    186.1024   6.9342216106e+01   1.3171990294e+01    0.3488927    0.2081001 -58.35  0.001535013    2.081    0.520
        32 -12.3462     95.5020    184.4721   8.4467162155e+01   2.3225715939e+01    0.6400245    0.4492316 -89.98  0.002845911    1.964    0.491
        33 -12.3309    120.4793    183.8582   7.7626464489e+01   1.9423476402e+01    0.5682325    0.2831036 -62.15  0.002145529    2.531    0.605
        34 -11.4337    109.3359    185.4392   8.0853726189e+01   2.0838434057e+01    0.3309092    0.2191807  76.00   0.00132639    2.512    0.602
        35 -11.5149    183.6920    184.1490   6.2983993810e+01   9.2382692731e+00    0.2107358    0.1704505 -55.53  0.001147679    1.470    0.320
        36 -12.2176    175.1901    183.6958   6.4657174350e+01   1.0628325426e+01    0.3017085    0.2550994  45.48   0.00136309    1.412    0.292
        37 -11.2154     74.4647    183.0030   9.0192422804e+01   2.6674842621e+01     0.331723    0.1539304 -71.33  0.001203579    2.644    0.622
        38 -11.6957    197.8046    182.8028   5.9962704449e+01   7.4001483028e+00    0.1713238    0.1591461 -54.98 0.0008451657    1.355    0.262
        39 -12.7941    148.0577    179.5239   6.9937969275e+01   1.5856274430e+01    0.3781568    0.2930349 -60.04   0.00163377    1.494    0.331
        40 -12.1489    138.4635    178.9794   7.2154841327e+01   1.7570904918e+01    0.3491177    0.2683966 -87.22   0.00133812    1.952    0.488
        41 -11.0865     25.5033    180.4987   1.0412777029e+02   3.3089390865e+01    0.1381829    0.1271903  81.23 0.0008106848    1.004    0.004
        42 -11.9171    192.9070    178.1338   6.0019218975e+01   8.9894481114e+00    0.1986954    0.1875318 -54.45  0.001098608    1.302    0.232
        43 -11.8746    184.2960    175.8537   6.1279774171e+01   1.0743938197e+01    0.2278522    0.1916577  43.23   0.00101303    1.395    0.283
        44 -12.0704     77.8032    175.2194   8.8017327052e+01   2.8188373503e+01    0.4260897    0.2634047  74.46  0.001672887    2.421    0.587
        45 -11.7206    159.9735    175.0138   6.6304586626e+01   1.4840525940e+01    0.2886801    0.2404797  83.64  0.001484966    1.736    0.424
        46 -12.5490    177.8804    170.8765   6.1616769851e+01   1.2741883622e+01    0.3367724    0.2990336 -67.37  0.001500701    1.399    0.285
        47 -11.9664    135.1768    171.1812   7.1463747922e+01   1.9882505240e+01    0.3708697    0.2753687 -72.75   0.00163568    1.792    0.442
        48 -12.6911    122.1879    167.9656   7.4186892116e+01   2.2864736885e+01    0.6246035    0.4259472 -67.41  0.002755409    1.818    0.450
        49 -12.1409    168.7074    168.9134   6.3166753451e+01   1.4650345079e+01    0.3980643    0.2951574 -72.28  0.001740629    1.988    0.497
        50 -11.9153    150.1017    169.1319   6.7417177485e+01   1.7767709560e+01    0.3635584    0.2842197 -77.22  0.001418272    1.781    0.438
        51 -10.2534     88.4942    167.9937   8.3647823308e+01   2.8430163330e+01    0.2172585    0.1367028  88.28 0.0008105029    2.553    0.608
        52 -13.3386    139.7671    164.2131   6.8920991747e+01   2.0659757380e+01    0.5970226    0.4171081 -69.40   0.00265512    1.926    0.481
        53 -11.0371    192.9917    165.9994   5.7653450837e+01   1.1267706882e+01    0.2044892     0.170687 -76.34  0.001137794    1.685    0.407
        54 -11.3675     79.8536    163.3836   8.5412829281e+01   3.0938842810e+01    0.5851874    0.3194469  82.37  0.001718627    4.363    0.771
        55 -12.1457    206.2661    162.1526   5.4468538890e+01   9.9200016884e+00    0.2289529    0.1803555  79.44  0.001241377    2.091    0.522
        56 -12.8242    178.1312    160.0278   5.9388238801e+01   1.4863875898e+01    0.4227057    0.3373095 -70.85  0.001992387    1.660    0.398
        57 -11.4930     92.8632    159.3937   8.0766789385e+01   2.9921087266e+01    0.3966188    0.2953791 -80.14  0.001801144    1.645    0.392
        58 -13.1339    197.0791    157.4446   5.5191853387e+01   1.2231919722e+01    0.3647306    0.2862489 -67.21  0.002005044    1.666    0.400
        59 -11.1198    128.5054    158.5073   7.0609008404e+01   2.3973836104e+01    0.3276524    0.2566971 -80.85  0.001200029    1.690    0.408
        60 -12.1911    189.4761    157.5144   5.6631685700e+01   1.3458881031e+01    0.2797728    0.2466694 -64.49  0.001209209    1.341    0.254
        61 -12.6420    168.1301    156.5542   6.0767881248e+01   1.7295557207e+01    0.4634437    0.2967403 -52.59  0.002137037    1.627    0.385
        62 -11.2739    105.5091    157.2178   7.6645228055e+01   2.8344841731e+01    0.3692032    0.2632986 -86.39  0.001561224    2.008    0.502
        63 -11.4874    119.5997    155.2774   7.2308373326e+01   2.6335182642e+01    0.3803042    0.2485495 -81.21  0.001443599    2.589    0.614
        64 -11.1948    144.9791    154.3263   6.5581357401e+01   2.1935769191e+01    0.2751852    0.2201776 -77.00  0.001329604    1.623    0.384
        65 -10.8535     49.6485    154.8081   9.3507999594e+01   3.7334804042e+01    0.3291521    0.1773615  79.96  0.001155515    2.979    0.664
        66 -12.1836    205.0280    154.3013   5.3143186643e+01   1.1546436230e+01    0.1828563    0.1706066 -19.79  0.001045343    1.104    0.094
        67 -12.2265    133.1437    151.9784   6.8027069234e+01   2.4641105325e+01    0.4875098    0.3151055 -69.35  0.001985145    2.184    0.542
        68 -11.2134     81.3375    153.8565   8.3213193379e+01   3.3181968176e+01    0.3095011    0.2388435  76.99   0.00142779    1.599    0.375
        69 -11.5647     68.1601    152.3079   8.7093725191e+01   3.5558421514e+01    0.4017643    0.2753488  86.60  0.001722907    1.913    0.477
        70 -13.3156    189.9974    149.7040   5.4937960640e+01   1.4874682583e+01    0.4174982    0.3240889 -57.41  0.001684111    1.411    0.291
        71 -11.6469    182.4446    150.7580   5.6611167095e+01   1.5965197499e+01    0.2819789    0.1931532 -61.43  0.001236159    1.808    0.447
        72 -11.2444    162.8316    150.3219   6.0602987591e+01   1.9540118465e+01    0.2818888    0.1980177 -67.26  0.001287474    1.901    0.474
        73 -11.6024    157.9565    155.5388   6.2799564132e+01   1.9317487876e+01    0.2923009    0.2077684 -61.04  0.001378344    1.659    0.397
        74 -12.6371    200.6002    148.4834   5.2754622155e+01   1.3333179591e+01    0.3005179    0.2248049 -50.46  0.001336712    1.312    0.238
        75 -11.1924    142.5342    148.5405   6.4928082035e+01   2.3675559088e+01     0.278116    0.1441196 -58.57  0.001031376    2.400    0.583
        76 -12.9623    149.3207    143.6700   6.2226587411e+01   2.3471779939e+01     0.728865    0.4222669 -61.05  0.002917784    2.228    0.551
        77 -11.8998    107.3094    144.4258   7.3440985647e+01   3.1177207637e+01    0.6668347    0.4343252  88.26  0.002412621    2.859    0.650
        78 -11.2279     39.0083    146.7392   9.5807478879e+01   4.0722605684e+01    0.3175582    0.1730203  77.12  0.001180364    2.705    0.630
        79 -11.5429    175.8947    146.1061   5.6941418581e+01   1.8044860558e+01    0.2205485    0.1966557 -70.47   0.00123836    1.293    0.226
        80 -11.6513     55.4499    144.4175   8.9874379231e+01   3.9391691264e+01    0.5139834    0.3088249  86.74  0.001995048    2.415    0.586
        81 -12.2010    166.0354    143.2652   5.8383935412e+01   2.0421422799e+01    0.3826906    0.2298364 -58.96  0.001641706    2.022    0.505
        82 -10.7225    138.3871    144.1721   6.4990090460e+01   2.5435483006e+01    0.2208827    0.1430278 -58.07 0.0009490834    1.715    0.417
        83 -12.1315    124.8720    141.9319   6.7985322291e+01   2.8515469345e+01    0.6365009    0.3786275 -68.50  0.002381746    2.502    0.600
        84 -11.4577     87.8253    142.6589   7.8945485424e+01   3.5016938396e+01    0.4761498    0.2317151 -64.42  0.001682914    2.482    0.597
        85 -11.6913    182.5891    141.2126   5.4571784438e+01   1.7814614457e+01    0.3249584    0.2332281 -66.62  0.001599399    1.792    0.442
        86 -11.6324    172.5529    137.5202   5.5765934924e+01   2.0381418263e+01    0.3971315     0.236407 -60.61  0.001690637    2.155    0.536
        87 -11.1659    198.5072    138.4961   5.1075349011e+01   1.5539291698e+01    0.1364457    0.1195904 -38.29 0.0008106408    1.002    0.002
        88 -11.1177     68.3991    137.6155   8.4224343187e+01   3.9393062720e+01     0.306061     0.149823 -76.48 0.0009566681    3.401    0.706
        89 -11.7218     23.1148    137.3937   9.9937681628e+01   4.4782592360e+01    0.4171847     0.188061  68.44  0.001352606    3.815    0.738
        90 -11.4757    162.8577    135.5710   5.7365851075e+01   2.2610067995e+01     0.302681    0.1892748 -59.22  0.001323762    1.885    0.469
        91 -11.3196    188.3712    135.2049   5.2198587209e+01   1.7938556667e+01    0.2071644    0.1181881 -50.58 0.0009512427    1.716    0.417
        92 -11.5638    179.7600    133.0560   5.3357819332e+01   1.9926039950e+01    0.3607267    0.2109996 -55.85  0.001611422    1.901    0.474
        93 -10.9923    112.8609    132.7747   6.9206415705e+01   3.2957299801e+01    0.3025254    0.2147061 -82.99   0.00124349    2.097    0.523
        94 -11.2768    143.1156    130.8339   6.0781787964e+01   2.7470469302e+01    0.4205723    0.2434965 -54.62  0.001748185    1.856    0.461
        95 -11.7687    131.9507    130.2359   6.3422937096e+01   2.9819213361e+01    0.5610278    0.3069712 -60.30  0.002118669    2.324    0.570
        96 -11.9404     83.1003    129.6909   7.7632743960e+01   3.9102786344e+01    0.7580333    0.2881574 -60.62  0.002363112    3.141    0.682
        97 -11.7505    193.1267    129.6790   5.0162748864e+01   1.8126512877e+01    0.2572777    0.1729476 -50.34  0.001161766    1.404    0.288
        98 -11.8847    168.7594    128.9792   5.4641318252e+01   2.2817599231e+01    0.3701881     0.220394 -57.02  0.001617996    1.904    0.475
        99 -11.4911    152.9962    128.5056   5.7929772584e+01   2.6005976866e+01    0.4942271    0.2374792 -54.25  0.001855907    2.366    0.577
       100 -10.6448    186.6680    129.3157   5.1243731470e+01   1.9370316485e+01    0.1394587    0.1069569 -75.89 0.0007046512    1.685    0.406
       101 -12.3874     98.5887    125.9446   7.1824227493e+01   3.7283169887e+01    0.8479663    0.3755351 -61.33  0.002733801    3.043    0.671
       102 -10.9900     72.8247    128.1370   8.0726025633e+01   4.1174647941e+01    0.4068231    0.2198795 -69.30  0.001509273    2.359    0.576
       103 -12.1226     12.2623    127.4887   1.0249633351e+02   4.8274046344e+01    0.5091586    0.2097399 -87.60  0.001781497    3.181    0.686
       104 -11.5694    117.5543    124.3224   6.5858122954e+01   3.4019769761e+01    0.4959011    0.3387116 -75.28  0.002026797    2.133    0.531
       105 -11.4550    180.2182    124.2079   5.1318592443e+01   2.1554336737e+01    0.3326396    0.2127046 -51.45  0.001614037    1.522    0.343
       106 -11.5514     58.7449    122.7833   8.4512689276e+01   4.4654519971e+01    0.5231457    0.2967834 -84.57  0.001837054    3.006    0.667
       107 -12.2170     42.8290    120.4295   8.9916859990e+01   4.7317209169e+01     0.873876    0.3854262 -80.47  0.002566116    4.311    0.768
       108 -11.9830     27.9808    121.3871   9.5723227291e+01   4.8621649112e+01    0.7303621    0.3333248  74.75  0.001941992    5.898    0.830
       109 -10.8008    188.5094    123.0006   4.9536512790e+01   2.0219850880e+01    0.2234069    0.1242547 -44.07  0.001038268    1.615    0.381
       110 -10.9833    195.3334    121.8585   4.8106237688e+01   1.9170637932e+01    0.2877222    0.1066901 -48.09  0.001088698    2.581    0.613
       111 -10.8378    203.3223    121.6636   4.6748870464e+01   1.7765651580e+01    0.1362527    0.0978279 -69.15 0.0005192037    1.712    0.416
       112 -10.7648    172.5610    120.2940   5.1905320019e+01   2.3793041709e+01    0.2868498    0.1284926 -47.57  0.001135925    2.134    0.531
       113 -11.0296    158.7731    120.7231   5.4833025552e+01   2.6456064190e+01    0.3152901    0.1972409 -54.20  0.001416433    1.667    0.400
       114 -11.7543    141.5338    117.5615   5.7979989540e+01   3.0635649213e+01    0.6611333    0.2903984 -54.81  0.002276978    2.784    0.641
       115 -11.1733    130.4301    117.6036   6.0743637811e+01   3.2918667665e+01    0.4355507    0.2529676 -65.43  0.001619131    2.543    0.607
       116 -11.2081     70.6860    118.7204   7.9326790044e+01   4.3904734273e+01    0.3086554      0.19511 -82.40  0.001177146    2.479    0.597
       117 -11.9345      2.8041    116.1963   1.0458181616e+02   5.1832089276e+01    0.5624521    0.2264066  87.19  0.001938804    3.558    0.719
       118 -11.4428    193.4018    114.7097   4.6881523124e+01   2.0828196497e+01     0.277386    0.1158504 -45.36  0.001142141    2.144    0.534
       119 -10.9634    186.3638    115.2178   4.8198597604e+01   2.2071707628e+01    0.2100166     0.115691 -50.21 0.0009536429    1.738    0.425
       120 -11.9551    108.7250    112.1151   6.5308094531e+01   3.8564737165e+01    0.7575237    0.3197679 -55.48   0.00251482    2.857    0.650
       121 -11.8058     78.5005    110.8979   7.4676267147e+01   4.4538744705e+01    0.7263386    0.3577632 -68.70  0.002287498    3.547    0.718
       122 -12.1152     92.2066    109.5409   6.9727958897e+01   4.2379332566e+01    0.9001567     0.288336 -52.80  0.002710973    3.371    0.703
       123 -11.1780    122.0027    111.3181   6.1365505820e+01   3.6028458173e+01    0.3649558    0.2128021 -54.38  0.001498225    1.857    0.462
       124 -10.9719    174.7496    110.5570   4.9244338963e+01   2.5221276769e+01    0.3159449    0.1541391 -52.66  0.001285274    2.177    0.541
       125 -11.0619    159.4145    110.7692   5.2324235965e+01   2.8310837460e+01    0.2936683     0.132859 -47.09   0.00114302    2.142    0.533
       126 -11.9932     14.1390    109.8358   9.9228489240e+01   5.2785078490e+01    0.4276997    0.2429333 -88.49  0.001884358    2.123    0.529
       127 -11.1691    189.4923    107.4859   4.5939398115e+01   2.2873962025e+01    0.2682623    0.1098482 -50.40  0.001041646    2.480    0.597
       128 -10.9379    139.5809    103.4260   5.4885458840e+01   3.3960409341e+01    0.3906352    0.1786645 -50.73  0.001457034    2.335    0.572
       129 -12.4365     44.8628    101.0488   8.4914271010e+01   5.2021968280e+01    0.7515844    0.4370334  79.97  0.002524573    3.886    0.743
       130 -12.8135     21.8147    100.1498   9.4330656195e+01   5.4674401528e+01    0.8768224    0.4484409  87.17  0.003117303    3.533    0.717
       131 -11.2072     66.0927    109.3179   7.8713699347e+01   4.6969819600e+01    0.4589925    0.2199054 -62.75  0.001671382    2.474    0.596
       132 -11.2158    149.9424    101.0562   5.1938703925e+01   3.2203047914e+01    0.5744365    0.1699857 -48.87  0.001710024    3.777    0.735
       133 -11.5314      6.6868    102.5405   1.0112246786e+02   5.5144319635e+01    0.2412419    0.1599033  80.79  0.001197609    1.814    0.449
       134 -11.1188    128.3950    100.8264   5.6937613326e+01   3.6890986304e+01    0.3591317    0.1890838 -46.29  0.001458023    1.904    0.475
       135 -12.0197    108.4902     96.9981   6.1302829268e+01   4.1917616300e+01    0.7438022    0.4191571 -61.85  0.002814635    2.485    0.598
       136 -11.2407     81.8166     98.6708   7.0271655562e+01   4.6817690821e+01    0.4607702    0.2217723 -57.67  0.001681291    2.493    0.599
       137 -11.5578     94.8754     94.8457   6.4844378440e+01   4.5161513057e+01     0.578595    0.2145378 -44.97  0.001963149    2.745    0.636
       138 -12.1044     63.1452     94.1040   7.5841310143e+01   5.1078836031e+01    0.6873549    0.3012695 -62.01  0.002328317    3.128    0.680
       139 -10.1475     57.9893     92.0159   7.7285535926e+01   5.2367987915e+01    0.1759922    0.1618614  10.34 0.0009619818    1.060    0.057
       140 -10.7975    138.4337     90.7584   5.1822321066e+01   3.6682177777e+01    0.2920622    0.1369557 -46.79  0.001142244    2.156    0.536
       141 -11.4026    124.2781     88.6876   5.4670613029e+01   4.0201745758e+01    0.5384446    0.2140448 -41.63  0.001933751    2.575    0.612
       142 -11.7722     34.5251     87.6325   8.5994476194e+01   5.6512742341e+01    0.6473718    0.2522951 -64.63   0.00229734    3.033    0.670
       143 -12.1664      4.6490     90.2557   9.9979047425e+01   5.8350069135e+01    0.3324791    0.1634381 -86.23  0.001371394    2.657    0.624
       144 -11.6857     86.1351     85.0158   6.4828425205e+01   4.8974469959e+01    0.5659916    0.2670875 -56.38  0.002028855    2.805    0.643
       145 -11.9338     47.8988     83.0435   7.8920591249e+01   5.5900615232e+01    0.4542089    0.3020293 -84.68  0.001898685    2.648    0.622
       146 -11.9257    104.3567     81.2597   5.7948335870e+01   4.5978102941e+01    0.6469299    0.2636313 -47.06   0.00233922    2.626    0.619
       147 -12.4239     24.3707     78.3994   8.8283929904e+01   5.9740466768e+01    0.7127354    0.2436699 -60.69  0.002641266    2.850    0.649
       148 -11.0684     74.3736     79.4082   6.7247839232e+01   5.2377082937e+01    0.3596105    0.1423206 -52.11  0.001248097    2.941    0.660
       149 -10.2675    150.0000     79.0026   4.6215651821e+01   3.6229958823e+01    0.2346276   0.07917868 -39.46 0.0008055517    2.964    0.663
       150 -10.7835    119.2279     79.2282   5.3259564727e+01   4.3105211545e+01    0.2380056    0.1114879 -51.00 0.0008887894    2.469    0.595
       151 -11.0317    127.7265     73.7458   4.9576380142e+01   4.2172916528e+01    0.4400985    0.1625666 -43.50  0.001583133    2.766    0.638
       152 -10.4791    140.6207     81.8211   4.8923136900e+01   3.7838464780e+01    0.2126337    0.1293321 -50.85 0.0009562187    1.705    0.414
       153 -11.3789     94.6755     68.9015   5.7004246139e+01   5.0358600643e+01    0.5775635    0.1783504 -46.37  0.001827991    3.700    0.730
       154 -11.7845     50.9337     67.3395   7.2737695167e+01   5.8837537592e+01    0.6090706    0.2050254 -54.91  0.001955895    3.973    0.748
       155 -11.6791     16.5878     67.9653   8.9362693164e+01   6.2820123573e+01    0.4077734   0.09651825 -56.91  0.001409357    3.367    0.703
       156 -11.3788     37.0050     62.9899   7.7679229860e+01   6.1708625577e+01    0.3032206    0.1853431 -66.87  0.001363439    2.416    0.586
       157 -10.9031    109.8146     61.6256   5.0353961026e+01   4.8279006173e+01    0.2711214     0.113065 -35.36  0.001023533    2.680    0.627
       158 -10.7927     99.6837     58.1785   5.2002898663e+01   5.1105050634e+01     0.282467    0.1208622 -45.36  0.001089329    2.628    0.619
       159 -11.5585     73.1613     56.4736   5.9979496589e+01   5.6958671361e+01    0.5921305    0.2096349 -39.15  0.002157055    3.055    0.673
       160 -10.5842     72.6494    228.3195   9.6442689208e+01   1.6079637076e+01    0.1473272   0.09039655  55.42 0.0007047996    1.741    0.426
       161 -12.8356      7.5398     54.1602   9.0351154619e+01   6.6528732211e+01     0.622086    0.1179075 -55.37  0.002181602    3.627    0.724
       162 -11.5826     45.2925     49.1043   6.8747563927e+01   6.3188662727e+01    0.2516575    0.1989287  -7.11 0.0003533928    1.246    0.197
       163 -11.8285     82.0381     70.0856   6.1515736311e+01   5.2748950628e+01    0.6997259    0.2449747 -45.29  0.002433343    3.047    0.672
       164 -11.1233     30.5225     49.5717   7.6226882574e+01   6.5192315867e+01    0.3544068    0.1377927 -58.61  0.001221292    4.249    0.765
       165 -12.3492      4.7919     40.0056   8.7504285972e+01   6.9611728084e+01    0.4329969     0.172176 -65.27  0.001737296    3.608    0.723
       166 -10.9779     84.5194    227.0117   9.3342437292e+01   1.4840171491e+01    0.1880464    0.1138534  76.98 0.0008100506    2.535    0.605
       167 -11.2901     53.7229     51.7267   6.5960201928e+01   6.1349879464e+01    0.5009799    0.1576806 -49.41  0.001630794    4.243    0.764
       168 -10.9046     82.2297     43.8347   5.2238616331e+01   5.7104145770e+01     0.486885    0.1260342 -30.74  0.001306435    6.252    0.840
       169 -11.4818     27.6016     29.5928   6.9609631743e+01   6.9055671562e+01    0.2478943   0.09429874 -30.82   0.00095782    3.403    0.706
