#   1 NUMBER                 Running object number                                     
#   2 MAG_AUTO               Kron-like elliptical aperture magnitude                    [mag]
#   3 X_IMAGE                Object position along x                                    [pixel]
#   4 Y_IMAGE                Object position along y                                    [pixel]
#   5 X_WORLD                Barycenter position along world x axis                     [deg]
#   6 Y_WORLD                Barycenter position along world y axis                     [deg]
#   7 A_WORLD                Profile RMS along major axis (world units)                 [deg]
#   8 B_WORLD                Profile RMS along minor axis (world units)                 [deg]
#   9 THETA_WORLD            Position angle (CCW/world-x)                               [deg]
#  10 FWHM_WORLD             FWHM assuming a gaussian core                              [deg]
#  11 ELONGATION             A_IMAGE/B_IMAGE                                           
#  12 ELLIPTICITY            1 - B_IMAGE/A_IMAGE                                       
         1 -12.4140     96.5424     21.9093   3.2934963591e+01   5.8394258789e+01    0.3565478    0.3045377  82.48 0.0004929854    1.294    0.227
         2  -9.8214    245.9783     23.2967   1.3066365432e+01   2.1508486049e+01    0.1644809    0.1359258 -65.89 0.0003553236    1.105    0.095
         3 -11.2379     66.0049     17.4844   4.0590661269e+01   6.5833625337e+01    0.4562633    0.2620758 -28.86  0.001932767    1.759    0.432
         4 -11.3385     20.0057     17.2648   6.4368517247e+01   7.3351080486e+01    0.2902346    0.2275945 -21.30  0.001210524    1.118    0.105
         5 -10.9225     49.4073     13.7014   4.5553544982e+01   6.9568343990e+01    0.2802057    0.2245076 -25.52 0.0009488001    1.220    0.180
         6 -10.4235     45.1400     12.1155   4.6686086430e+01   7.0549021556e+01    0.2247819    0.1735277  29.63 0.0008650379    1.230    0.187
         7 -10.5961      6.3339     14.8268   7.2779427979e+01   7.5096072620e+01    0.2337656    0.1072353 -63.70  0.001092526    2.641    0.621
         8 -10.2039    204.1134     13.5532   1.3744695816e+01   3.1865751858e+01    0.2103148    0.1503264 -49.52  0.000334707    1.224    0.183
         9 -10.6575     35.1365     13.4026   5.2791160712e+01   7.1998974335e+01    0.2221161    0.1728966 -31.59 0.0006820239    1.234    0.190
        10 -10.3936     32.4559     10.4902   5.2572408134e+01   7.2847930099e+01    0.2109102    0.1467353 -40.68 0.0005656347    1.501    0.334
        11 -10.7697    119.6680     12.6990   2.3800659390e+01   5.3609682024e+01     0.280318    0.1896644  13.68  0.001342769    1.884    0.469
        12 -10.3399    120.2405      8.6443   2.2059552149e+01   5.3855809844e+01     0.244593    0.2023521 -41.61 0.0004180284    1.278    0.218
        13 -11.5634    123.3885      6.2522   2.0573753136e+01   5.3256813809e+01    0.3560943     0.255498 -87.74  0.000507932    1.449    0.310
        14 -10.4261    104.0953     10.6584   2.6058844484e+01   5.7788211913e+01    0.2880262     0.237023 -83.53  0.001599555    1.342    0.255
        15 -10.3297     69.6682      9.3613   3.4871101430e+01   6.6047942223e+01    0.2366366    0.1795548 -21.58  0.000719428    1.348    0.258
        16 -11.1446     74.5502     10.5066   3.3858128394e+01   6.4845965668e+01    0.3065564    0.1788409  66.22  0.001451694    1.941    0.485
        17 -10.8315     78.1950      8.1548   3.1483008133e+01   6.4274562490e+01    0.2579723    0.1824679  46.37 0.0006974888    1.287    0.223
        18 -12.1351     56.3610      8.7500   3.9561145273e+01   6.8888051005e+01    0.4281467    0.3313946  33.98  0.001888155    1.192    0.161
        19 -10.7339     27.1949     10.9239   5.6048036568e+01   7.3536061806e+01     0.179708    0.1637114 -32.88   0.00122283    1.277    0.217
        20 -11.5543     98.4340      7.7157   2.5983377193e+01   5.9485446591e+01    0.4118671    0.2666777 -68.89  0.001616074    2.065    0.516
        21 -10.6575      3.5016      8.4634   7.1705500535e+01   7.6511010139e+01    0.2044726    0.1671487 -27.24 0.0007274887    1.028    0.028
        22  -9.1625    213.4762      8.4898   1.1738720735e+01   3.0195718274e+01    0.1303734     0.108005 -62.83 0.0008101256    1.001    0.001
        23  -9.4875    114.9820      8.7541   2.3049004933e+01   5.5203969977e+01    0.1894047    0.1098698  66.98 0.0008810768    1.580    0.367
        24 -12.0595     86.2302      6.8514   2.8551440696e+01   6.2531090093e+01    0.4816554    0.2837909  28.83  0.001784881    1.917    0.478
        25  -9.1199     40.3040      8.3547   4.6854163255e+01   7.1899028707e+01    0.1332189   0.08851973   5.43 0.0005426309    1.712    0.416
        26 -10.3747     46.4360      6.9844   4.2914778348e+01   7.0997133179e+01    0.1854158    0.1169849 -27.13 0.0003756099    1.555    0.357
        27 -10.7997     22.8913      5.1160   5.5129346133e+01   7.5017218155e+01    0.1672294    0.1526182 -10.09 0.0002826658    1.207    0.172
        28  -9.4951    134.7289      3.9907   1.8015934856e+01   5.0489165640e+01    0.1818582    0.1724935 -69.98 0.0003735171    1.084    0.077
        29 -10.0529    131.2234      3.7968   1.8432619467e+01   5.1424965297e+01    0.1866734    0.1486069  44.30 0.0003630034    1.300    0.231
        30  -9.2176    203.4974      4.5512   1.1422307430e+01   3.2928980883e+01    0.1265768    0.1141593 -77.16 0.0001881733    1.110    0.099
        31 -10.8006     38.2447      2.3920   4.4050530832e+01   7.3022077105e+01    0.2653743     0.209603  25.37  0.001021456    1.152    0.132
        32 -11.3789    114.2443      1.8191   2.0278650573e+01   5.6004617178e+01    0.4425642    0.1765707  68.49  0.001227862    2.228    0.551
        33  -9.4671    143.7946      1.3747   1.5914058534e+01   4.8333196177e+01    0.1996275    0.1091197  62.60   0.00067163    1.647    0.393
        34 -10.6757     67.4759    102.3627   7.1393041639e+01   4.8224164930e+01    0.3041541    0.2408706  -3.82 0.0008103693    1.679    0.404
        35 -12.7212     89.5905    244.4909   8.5686247585e+01   1.3804639843e+01    0.6360362    0.5231813 -82.93  0.004675834    1.445    0.308
        36 -14.5023     92.2970    228.2149   8.3654640502e+01   1.6218427745e+01    0.9556274    0.8333986  71.60  0.006786809    1.194    0.162
        37 -14.6816      4.3237    223.6652   1.0131688568e+02   2.7326805184e+01     1.094325    0.4916997  85.06  0.006447215    2.006    0.502
        38 -10.0163    126.8321    100.5167   5.2675103325e+01   3.7166889525e+01    0.2374357    0.2080236 -81.72 0.0003424729    1.246    0.198
        39  -9.2085    159.6728     98.2992   4.4235767400e+01   3.0084583752e+01    0.1558764    0.1202192 -78.91 0.0004142028    1.636    0.389
        40  -9.7704    103.3457     96.5630   5.8198880746e+01   4.3091859099e+01    0.2909421    0.2213961 -85.27 0.0009183183    1.676    0.403
        41 -12.2759      5.4985     95.9959   9.3056252959e+01   5.6439873808e+01    0.5789931    0.2895366  18.95  0.002418096    2.342    0.573
        42  -9.5374    142.5158     96.0101   4.7480085243e+01   3.4528824374e+01    0.2401389    0.1518639 -41.69  0.001024797    1.567    0.362
        43 -10.9310     43.2162     95.1949   7.8584616052e+01   5.3339657262e+01    0.2994895    0.1760969 -11.09  0.001189216    3.037    0.671
        44 -11.3848     37.5135     92.5278   8.0215028241e+01   5.4657437781e+01    0.4031912    0.1339792 -68.71  0.001389139    3.048    0.672
        45  -9.8975     20.1685     95.1580   8.7380671160e+01   5.5631961544e+01    0.1856385    0.1423184  78.40  0.001062042    1.312    0.238
        46 -11.3879    132.2696     92.7150   4.9061011897e+01   3.7573870823e+01    0.2909654    0.2755515  66.27 0.0004132861    1.059    0.055
        47 -10.1679    107.9668     89.0339   5.4645273592e+01   4.3798033494e+01    0.2394668    0.2337742 -75.79 0.0007890774    1.004    0.004
        48 -15.3913     70.3822    238.8334   8.9033449399e+01   1.7249718849e+01     4.591818     2.044969  69.91   0.02119149    3.198    0.687
        49  -9.1588     78.4864     88.4254   6.3961811585e+01   4.9766723187e+01    0.1484173    0.1420012 -82.15 0.0002089916    1.045    0.043
        50 -11.0933     28.4668     86.9576   8.2676987342e+01   5.6972577937e+01    0.2497764     0.215564 -23.25  0.000407022    1.312    0.238
        51  -9.3484     35.2975     82.6408   7.8982580523e+01   5.7363192477e+01    0.1417282    0.1002681  74.48 0.0007034227    1.707    0.414
        52 -12.1019      3.1839     75.7897   9.1337046827e+01   6.1574936509e+01     0.429233    0.3518704 -53.46  0.002783721    1.146    0.128
        53 -11.5511     42.4075     75.2725   7.4206388617e+01   5.8354218110e+01    0.3766926    0.1829733 -61.60  0.001625764    1.923    0.480
        54  -9.8104    216.0203     78.1366   2.9203651375e+01   2.0660626471e+01    0.1935427    0.1754802  -2.18 0.0002722717    1.249    0.199
        55  -9.3303    197.3223     78.2836   3.1925391945e+01   2.4806306255e+01     0.140046    0.1118816  19.11  0.000244351    1.594    0.373
        56  -9.6546     78.1025     78.0939   6.1029815755e+01   5.2223234291e+01    0.1886287    0.1703189 -88.07  0.001002433    1.209    0.173
        57  -9.8353    152.9987     76.5010   3.9422899937e+01   3.5747058125e+01    0.2209588    0.1245328  34.26 0.0008098709    2.478    0.596
        58  -9.2908     88.3968     76.1581   5.6834523618e+01   5.0684126413e+01    0.1946679    0.1413826 -58.38 0.0001817042    1.455    0.313
        59  -9.8992    175.6910     75.6991   3.4788548848e+01   3.0336018120e+01    0.1474108    0.1177126  18.35 0.0002381566    1.601    0.375
        60  -9.4079     91.4929     74.5595   5.5278676924e+01   5.0404656475e+01    0.1492942    0.1463889 -73.04 5.104271e-05    1.026    0.025
        61 -11.2012     52.8436     77.3950   7.0469543072e+01   5.6480039009e+01    0.5828369    0.2494955  44.37  0.002124904    2.646    0.622
        62  -9.1435     76.6464     70.7543   5.9194864104e+01   5.4127641159e+01    0.1451032    0.1153047   1.68 0.0003873876    1.589    0.371
        63 -11.0682      7.6451     68.6631   8.8180018471e+01   6.3071139043e+01    0.2366954    0.1914301 -65.32 0.0005380803    1.037    0.035
        64  -9.2396    192.2537     65.6991   2.9306775405e+01   2.7955797689e+01     0.145733    0.1014216 -59.50 0.0002240374    1.502    0.334
        65  -9.3102    141.5168     65.5103   3.8488197353e+01   4.0549185233e+01    0.1522095    0.1487721 -83.23 0.0002939212    1.014    0.014
        66  -9.8874    126.2680     64.6484   4.1803821286e+01   4.4478643861e+01    0.2231852    0.1836125  76.17   0.00083188    1.321    0.243
        67 -10.9744      4.3474     64.1218   8.8898571406e+01   6.4348472568e+01    0.2594278    0.1921697 -64.55 0.0006913492    1.116    0.104
        68 -12.2055      3.7006     59.4402   8.8334577700e+01   6.5500506293e+01     0.438446    0.2724302 -59.84  0.001675868    1.305    0.234
        69  -8.9544     67.2670     64.6963   6.0703767345e+01   5.7130764104e+01    0.1380893    0.1139931 -87.95 0.0001772895    1.528    0.346
        70 -10.5462    116.4480     61.5969   4.3311092492e+01   4.7411737567e+01    0.3584974    0.1889163  57.84  0.001381493    2.002    0.500
        71 -10.6228     98.7181     60.9311   4.8229597071e+01   5.1639871952e+01    0.3630347    0.2664226 -68.60  0.001656872    1.750    0.429
        72 -10.1977     44.0270     62.1747   6.9683474143e+01   6.1226418510e+01    0.2047678     0.196235 -29.88  0.001020705    1.059    0.056
        73 -10.2780     35.2685     60.9491   7.3331527673e+01   6.2573575010e+01    0.2516747    0.1916768   2.29 0.0007793609    1.525    0.344
        74 -10.1684     13.6307     61.4888   8.3884076545e+01   6.4416907398e+01     0.253942    0.1287692  16.65  0.001245611    2.289    0.563
        75  -9.5611     57.0792     59.8528   6.3181290034e+01   5.9867819755e+01    0.1878272    0.1583849 -13.70 0.0003369036    1.284    0.221
        76  -9.6241     89.7034     58.9575   5.0427166810e+01   5.3981318600e+01    0.1997444    0.1805106 -42.50 0.0002635316    1.099    0.090
        77 -10.1955     22.7975     57.8412   7.8453891646e+01   6.4553665629e+01    0.2028684    0.1567145 -41.73 0.0007539893    1.185    0.156
        78 -10.1733    227.5151     57.4808   2.2712409244e+01   2.1140920237e+01    0.1342201    0.1157426 -47.82 0.0001054446    1.012    0.012
        79  -9.6246    169.6833     56.3149   3.0159056365e+01   3.4937636774e+01    0.1575094    0.1080279 -66.20 0.0007037029    1.648    0.393
        80 -10.4307     96.7754     55.5376   4.6845487008e+01   5.3091909646e+01    0.2526423    0.2047623 -37.75 0.0004805416    1.235    0.190
        81 -10.1094     78.0989     55.7876   5.3318005334e+01   5.6979999612e+01    0.2079553    0.1987654  87.54 0.0004022907    1.157    0.135
        82  -9.3313    133.2437     55.3630   3.6970091465e+01   4.4358272469e+01    0.1497232    0.1194284   8.49 0.0003623398    1.605    0.377
        83 -10.2014     63.5067     54.5277   5.8535845259e+01   5.9936596695e+01    0.2573002    0.1338759 -46.32  0.001108018    1.841    0.457
        84  -8.9962     75.3071     64.6636   5.7608481191e+01   5.5691999431e+01    0.1474915     0.117286 -88.50 0.0007041583    1.675    0.403
        85 -10.9555     23.3265     51.1083   7.6221514117e+01   6.6053286669e+01    0.3440921    0.2169369 -46.07  0.001532807    1.387    0.279
        86 -10.0687     58.4717     50.0896   5.8943402918e+01   6.1698361193e+01    0.2070082    0.1313221 -45.13 0.0004892333    1.501    0.334
        87 -11.0378     94.0436     48.5999   4.5028651862e+01   5.4956901923e+01    0.2580168    0.2092462 -36.51 0.0001400229    1.238    0.192
        88 -11.3549     11.9572     48.8860   8.1612309509e+01   6.7476865034e+01    0.2353245    0.1686161 -23.85  0.001396572    1.455    0.312
        89 -11.4780      6.3995     45.9272   8.3879653087e+01   6.8505353928e+01     0.373739    0.2027593 -30.79 0.0008053948    1.913    0.477
        90  -9.8621    249.7711     45.0010   1.7682688481e+01   1.8174185490e+01    0.1717286   0.08767103 -33.15 0.0004840259    1.644    0.392
        91 -10.7093     38.9998     43.2914   6.5358530983e+01   6.6000601432e+01    0.3431208     0.242147  32.70  0.001891962    1.516    0.340
        92 -10.2779    117.8717     43.0104   3.6151720030e+01   5.0200535815e+01    0.3148498    0.2070141  48.94   0.00121843    1.492    0.330
        93  -9.3895     24.2754     43.6685   7.3263976448e+01   6.7615594768e+01    0.1208347   0.09947377  82.34 0.0003183715    1.597    0.374
        94  -9.8942     20.7449     44.2731   7.5406920366e+01   6.7816279942e+01    0.1801999    0.1278689 -33.85 0.0006874843    1.327    0.247
        95  -9.4937    151.8240     40.1999   2.8100720878e+01   4.1882304651e+01    0.1919898    0.1693078  33.71  0.000349113    1.277    0.217
        96  -9.7811    134.0149     40.0264   3.1409759522e+01   4.6534270813e+01    0.1773478    0.1706508 -53.75 0.0003760858    1.058    0.055
        97  -9.6077    112.5707     38.5196   3.5739379849e+01   5.2198689175e+01    0.1446417      0.14162  58.06  0.000148175    1.009    0.009
        98 -10.3734     13.0441     35.8267   7.6950044809e+01   7.0300189712e+01    0.2703453    0.1435839 -62.78  0.001070993    1.775    0.436
        99  -9.9025     81.8973     35.8842   4.3722587893e+01   5.9773559597e+01    0.2130163    0.1822657  12.60 0.0003187925    1.226    0.184
       100 -10.6975     40.3837     36.0449   6.1604001617e+01   6.7267075353e+01    0.3470737    0.1980437  26.51  0.001702953    1.926    0.481
       101 -10.1191     58.3558     35.1738   5.2609067652e+01   6.4557815156e+01    0.2397744    0.1818709  22.74  0.001297948    1.386    0.279
       102  -9.2196    174.4497     34.5115   2.2830323557e+01   3.6787039791e+01    0.1443002    0.1304043 -69.92 0.0008083545    1.017    0.016
       103 -10.3968     49.7461     32.3591   5.5241824971e+01   6.6530577752e+01    0.3537219    0.2037567  48.33  0.001481319    2.036    0.509
       104 -10.1525    154.0684     31.9774   2.4990946163e+01   4.2390180111e+01    0.2182006    0.2045718  83.07 0.0004348971    1.035    0.034
       105 -10.5402     17.5623     31.4593   7.2552855338e+01   7.0840575370e+01    0.2113454    0.1792403 -36.25 0.0001933074    1.013    0.013
       106 -11.2500      4.1385     31.4865   8.1013659723e+01   7.1839578856e+01    0.2733284    0.2096935  14.33  0.000687154    1.465    0.317
       107  -9.8650     83.4002     31.4348   4.1214140483e+01   6.0136135525e+01    0.2934258    0.1019576  41.13   0.00077674    3.344    0.701
       108  -9.4580     64.5721     29.5513   4.7297350603e+01   6.4349275745e+01    0.1365574    0.1246732   2.55 0.0001706314    1.026    0.025
       109  -9.2508     59.3135     29.3155   4.9399119030e+01   6.5384117722e+01     0.139751    0.1012023   4.48 0.0007034668    1.642    0.391
       110  -9.8456    153.1408     27.6640   2.3693407581e+01   4.3169648729e+01    0.2024802    0.1699555  69.20 0.0004294714    1.141    0.124
       111  -9.5908    160.5400     26.9473   2.2371260296e+01   4.1320238425e+01    0.2028155    0.1388783 -31.02 0.0004779511    1.491    0.330
       112 -10.2709    131.2005     26.3673   2.6958413018e+01   4.9081552626e+01    0.1981139    0.1332528  78.29 0.0002518969    1.547    0.353
       113  -9.5796     59.8306     25.8553   4.7453032126e+01   6.5842853770e+01    0.1790969    0.1665226 -72.66  0.001078985    1.364    0.267
       114 -10.4685    110.8097     24.4311   3.0462511267e+01   5.4559944546e+01     0.312747    0.2074254  74.52  0.001475002    1.630    0.387
       115 -11.2463     87.3406     23.0618   3.6092023033e+01   6.0422534871e+01     0.471049    0.2290813 -53.58  0.001712466    3.320    0.699
       116  -9.7678    195.6430     24.3039   1.7412152871e+01   3.2720161871e+01    0.1864966    0.1282502 -18.32 0.0005009258    1.685    0.406
       117 -13.7988    115.4729    240.8512   8.0236301500e+01   1.0869377010e+01    0.5543032    0.4936539  42.15  0.004115673    1.138    0.121
       118  -9.2777     49.5145     24.4212   5.1404698296e+01   6.7928436058e+01    0.1309194    0.1185266  -1.48 8.576079e-05    1.021    0.020
       119 -10.6938      2.9646     23.6907   7.9043336864e+01   7.3555972242e+01    0.1600351    0.1348561 -27.22  0.000358432    1.102    0.093
       120 -10.9927    132.0073    246.8156   7.7655040883e+01   7.6537674647e+00    0.1530799    0.1203143  68.61 0.0009909758    1.610    0.379
       121 -11.0960     38.2812     22.6496   5.6231076963e+01   7.0021238657e+01      0.26015    0.2520674 -14.40  0.000387379    1.216    0.178
       122 -10.7001     35.3966     19.2135   5.5976761894e+01   7.1026989393e+01     0.209456    0.1650336  -9.94 0.0004591003    1.207    0.171
       123  -9.8635     72.9423     22.3434   4.0510966921e+01   6.3721014745e+01    0.1904998    0.1644318  38.43 0.0004360644    1.106    0.096
       124  -9.3742    189.4796    241.5036   6.6322207042e+01   4.2071725539e-01      0.11428   0.08781168  20.70  0.000202076    1.017    0.017
       125  -9.5506     48.9474     19.5022   4.9050167540e+01   6.8803675919e+01    0.1849218     0.123332  39.31 0.0004622269    1.490    0.329
       126 -11.7290    110.0481    227.8199   7.9941627861e+01   1.3781357288e+01    0.1914589    0.1777149 -87.73 0.0008911404    1.270    0.213
       127 -10.2608     23.6632     16.6920   6.1665631679e+01   7.3028399345e+01    0.1915513    0.1486305 -21.30 0.0006627181    1.140    0.123
       128 -10.9519     11.3937     17.9796   7.0641773364e+01   7.4074451427e+01    0.2575643    0.1727585 -16.48  0.001447834    1.491    0.329
       129 -10.4682      4.9498     19.2891   7.5850479777e+01   7.4323264527e+01    0.1680914    0.1370187 -23.72 0.0007513507    1.107    0.096
       130 -10.4927    136.0770     23.4957   2.5012290551e+01   4.8149305130e+01    0.2140467    0.1355054  67.80 0.0004067131    1.493    0.330
       131 -10.7973     85.2256     15.7259   3.3217578255e+01   6.1820843839e+01    0.3723956    0.1550096  59.73  0.001492437    2.337    0.572
       132  -9.9180    183.5164     15.0070   1.5979363807e+01   3.6760475086e+01    0.1915715    0.1289679 -31.51 0.0003326759    1.485    0.326
       133 -14.5128     51.1825    233.1547   9.2478311856e+01   2.0615980662e+01     3.454499     1.220015  88.69    0.0131336    5.052    0.802
       134 -10.7996    238.7605    221.5783   5.5030290384e+01  -3.6577544346e+00    0.1450368   0.09215838  36.87 0.0009553931    1.688    0.408
       135 -11.6361     81.9932    218.6370   8.4901589142e+01   1.9387157444e+01    0.2334067    0.2034009  59.76  0.001603922    1.095    0.087
       136 -13.0406    104.8169    247.3884   8.2968694339e+01   1.1303285990e+01    0.6346302    0.3863963  35.55  0.003991976    1.314    0.239
       137  -9.0998    132.3089     14.6746   2.2374432969e+01   5.0110897993e+01    0.1494255    0.1003282 -63.20 0.0004524549    1.654    0.395
       138 -15.4581      9.6824    177.7852   9.8237634797e+01   3.6348141296e+01     3.344962     2.548343  58.51   0.02257184    1.116    0.104
       139 -13.3553     99.1105    244.1980   8.3788826141e+01   1.2581793143e+01    0.6294818    0.4683561 -27.67  0.004063422    2.075    0.518
       140 -10.4594    116.2260     13.4083   2.4741324044e+01   5.4425964772e+01    0.3363014    0.1679926  73.17  0.001083159    2.062    0.515
       141 -14.8361      4.0058    116.6742   9.5667161735e+01   5.1367097871e+01     4.719582     1.546168  86.87   0.01187395    3.535    0.717
       142 -15.1471      5.3525    242.4030   1.0170478439e+02   2.3798313700e+01     1.053685    0.7193621  86.17  0.006736413    1.399    0.285
       143  -9.7205     73.8617    209.6395   8.5810249919e+01   2.2232621022e+01    0.1915056   0.08841477  44.81 0.0008717874    1.758    0.431
       144  -9.7660    162.4720     11.5122   1.7141633071e+01   4.2513080787e+01    0.1401745    0.1243925 -79.18 0.0008098237    1.019    0.019
       145 -11.1256    245.1925    198.2197   5.0159566650e+01  -1.7609098970e+00    0.2496883    0.0753189 -28.29  0.001025514    3.540    0.718
       146 -15.1600     33.1826    237.8581   9.6297119328e+01   2.1801590837e+01     1.890863     1.087911  89.00  0.007899087    1.740    0.425
       147 -13.7547     21.6138    248.8039   9.8954686088e+01   2.1090195206e+01    0.9811578     0.343922  36.23  0.005462962    2.144    0.534
       148 -11.5927    245.5023    181.9140   4.7224369072e+01   2.1899223761e-01    0.3962342    0.3004341 -70.64  0.002084736    3.472    0.712
       149 -14.7621     20.1312    214.8665   9.7787039120e+01   2.7521924479e+01     1.412786    0.9531704 -87.00  0.007981233    1.422    0.297
       150  -9.5829     39.6329     11.7286   4.9297529676e+01   7.1537534466e+01    0.1316174   0.08863965  10.14 0.0006999456    1.666    0.400
       151  -9.5043     57.6677    174.3315   8.6039200490e+01   3.1955489728e+01    0.1464894   0.08510874  63.54 0.0007052127    1.724    0.420
       152 -10.4663     56.0964    169.2773   8.5883227751e+01   3.3326730154e+01    0.1860903     0.152692  61.91 0.0004106479    1.068    0.063
       153 -10.4207     45.0659    166.9694   8.8519184353e+01   3.5227656245e+01    0.1998051    0.1765491  74.13 0.0006178644    1.066    0.062
       154  -9.6951     63.3270    154.9824   8.2164578253e+01   3.5756990637e+01    0.1872961    0.1652871  88.30 0.0003799836    1.059    0.056
       155 -11.3780    243.7183    148.1472   4.1015984182e+01   5.0090172482e+00    0.2004463    0.1408806 -39.83 0.0009921436    1.441    0.306
       156 -14.7969      5.3246    201.0168   1.0029350432e+02   3.1730288460e+01     2.075439     1.209472  88.71   0.01312497    1.500    0.333
       157  -9.9786     46.6781    130.9624   8.3656739218e+01   4.3853872992e+01    0.1920633    0.1601517 -86.33 0.0002524134    1.086    0.079
       158 -10.9777     25.8849    129.1147   8.9926633964e+01   4.6538832179e+01    0.2115758    0.1583831  70.91 0.0006629864    1.248    0.199
       159 -10.5846     21.1100    115.8301   8.9903210676e+01   5.0318673006e+01    0.3367842    0.1253515 -62.98  0.001417421    2.229    0.551
       160 -13.9912     17.2051    229.2379   9.9011416563e+01   2.5046844532e+01     1.086898     0.423213 -88.17  0.005797935    2.577    0.612
       161  -9.7582     91.7660    116.2269   6.6749585608e+01   4.0715384448e+01     0.199395     0.176735 -21.86 0.0005147422    1.330    0.248
       162  -9.7052    153.1082    113.8543   4.9787888553e+01   2.8517925212e+01    0.2346387    0.2046151 -83.64 0.0009530197    1.309    0.236
       163 -10.2048     17.8959    108.3241   9.0069666608e+01   5.2482397157e+01    0.1999202    0.1577951  33.15  0.000620589    1.411    0.291
       164 -11.4930     12.7080    105.6099   9.1566447781e+01   5.3557552306e+01    0.3327509      0.15828  54.00  0.001063083    2.302    0.566
