#   1 NUMBER                 Running object number                                     
#   2 MAG_AUTO               Kron-like elliptical aperture magnitude                    [mag]
#   3 X_IMAGE                Object position along x                                    [pixel]
#   4 Y_IMAGE                Object position along y                                    [pixel]
#   5 X_WORLD                Barycenter position along world x axis                     [deg]
#   6 Y_WORLD                Barycenter position along world y axis                     [deg]
#   7 A_WORLD                Profile RMS along major axis (world units)                 [deg]
#   8 B_WORLD                Profile RMS along minor axis (world units)                 [deg]
#   9 THETA_WORLD            Position angle (CCW/world-x)                               [deg]
#  10 FWHM_WORLD             FWHM assuming a gaussian core                              [deg]
#  11 ELONGATION             A_IMAGE/B_IMAGE                                           
#  12 ELLIPTICITY            1 - B_IMAGE/A_IMAGE                                       
         1  -9.5025     79.3047      4.6554   6.5917950473e+01   6.5431339775e+01    0.1410605    0.1074505 -58.27 9.071094e-05    1.689    0.408
         2  -9.9662      2.7452    201.0109   1.3128931145e+02   3.3113229102e+01    0.2443737   0.08030438  40.89 0.0009449579    2.024    0.506
         3  -9.7096    115.1283    250.4727   1.1306402538e+02   1.3007072868e+01    0.1471301   0.09018619  39.34 0.0003164725    1.136    0.120
         4 -18.0347     55.8188    238.2828   1.2278925297e+02   2.1806337970e+01     5.450681     4.333014 -48.35   0.03096207    2.011    0.503
         5 -11.7015    143.7081    194.1808   1.0171244036e+02   1.6817990949e+01    0.3336821     0.205319 -55.38   0.00192393    2.130    0.530
         6  -9.8854    206.9729    234.9384   9.5724218014e+01   2.5236383827e+00    0.1450977    0.1110329  43.00 0.0004771605    1.600    0.375
         7 -10.0277      8.2539    192.9954   1.2999564426e+02   3.4099304288e+01    0.3356814    0.1262312  30.38  0.001538925    2.404    0.584
         8 -10.9230    147.3026    223.8711   1.0471100551e+02   1.2089137993e+01    0.2841957    0.2295858  69.05  0.001090483    1.645    0.392
         9 -11.7937    169.4137    230.3857   1.0149865866e+02   8.1528335424e+00    0.3089285    0.2085391   4.55  0.002072601    1.823    0.451
        10 -10.3630     25.7727    172.2803   1.2541422547e+02   3.6512662434e+01    0.2779747    0.2071185  -7.51  0.001456829    2.266    0.559
        11  -8.8373    124.5513    246.6057   1.1109026841e+02   1.2282155196e+01    0.2172343    0.1100372  23.32  0.001205458    2.498    0.600
        12  -8.3473      2.3068    226.6840   1.3189708570e+02   2.8831703856e+01    0.1367246   0.07462801  53.81  0.001048598    1.197    0.165
        13  -9.9882    158.7167    245.6018   1.0505657607e+02   7.8802698792e+00    0.2317585    0.1458264 -43.34  0.001682571    2.225    0.551
        14 -11.3813     38.7864    142.7410   1.2017975822e+02   4.1474223512e+01    0.2930456     0.176515  49.87   0.00113792    1.450    0.311
        15 -12.1177     34.6952    140.2437   1.2105896550e+02   4.2443236419e+01    0.4451325     0.266465 -43.51  0.002356829    2.357    0.576
        16  -9.9891     29.5834    133.7677   1.2191341157e+02   4.4389980429e+01    0.1760395    0.0997429  85.26 0.0009510283    1.631    0.387
        17 -13.3900    116.9630    121.3909   9.5580754964e+01   3.4802773362e+01    0.7845793    0.7753025 -22.75  0.004147979    1.103    0.093
        18 -10.9124    178.6338    227.0536   9.9480542861e+01   7.2384692391e+00     0.204855    0.1059739 -39.86  0.001261464    2.527    0.604
        19  -9.5690    154.1580    226.1528   1.0372095503e+02   1.0820041867e+01    0.2524364   0.06312153  35.05 0.0008746995    3.514    0.715
        20 -11.9374    154.0687    198.0593   1.0019358816e+02   1.4618709171e+01    0.4144311    0.2643051 -30.61  0.002440799    2.056    0.514
        21 -13.3567    153.6091    208.2040   1.0163327822e+02   1.3262300830e+01    0.6968207    0.5542936  58.27  0.004807858    1.475    0.322
        22 -11.5730    149.8497    218.0414   1.0356053984e+02   1.2489537457e+01    0.3784796    0.2463455  21.57  0.001456992    1.583    0.368
        23  -9.6935      2.0805    109.4603   1.2823082293e+02   5.2053336837e+01    0.4190583   0.08189704 -71.62   0.00156183    3.720    0.731
        24 -11.6306    244.9747    102.3720   6.5537647253e+01   1.1618566218e+01    0.5339621    0.4112786 -29.26  0.003228927    1.227    0.185
        25 -11.7913    190.9312    216.0029   9.5887360679e+01   6.7347162660e+00    0.3748434    0.1303048  35.28  0.001820655    2.284    0.562
        26 -10.5585     37.8758     98.1777   1.1545436393e+02   5.2004487424e+01    0.2801207    0.2573116  15.38  0.001802266    1.317    0.240
        27 -10.2059     14.2427     95.1718   1.2324185432e+02   5.4688010809e+01    0.4183353    0.1942481 -55.63  0.002074615    2.107    0.525
        28 -10.6680    210.0382     85.3489   6.6511744075e+01   2.1018364243e+01    0.4020013    0.2329019 -32.62  0.001864847    1.618    0.382
        29  -9.3589      8.7630    215.1897   1.3049061263e+02   3.0162063675e+01    0.2415826   0.08381698  87.08  0.001369414    2.785    0.641
        30  -8.5241    233.3730    101.2559   6.6910546127e+01   1.3982573445e+01    0.1373986   0.09205253  20.30 0.0003953324    1.647    0.393
        31  -9.4069    126.0908    242.8751   1.1048659742e+02   1.2551324228e+01    0.2205818    0.1463289  16.96  0.001490107    1.875    0.467
        32 -10.9327      5.9094     68.6937   1.2370152276e+02   6.1578326112e+01     0.309956    0.1542346 -77.02  0.001214217    1.632    0.387
        33 -10.8500    139.4227     63.5778   7.3971913682e+01   4.1541672359e+01    0.5277222    0.4276553 -71.95  0.002516937    1.474    0.321
        34  -9.2706     20.7024     56.0087   1.1525549441e+02   6.3802545621e+01    0.1918707    0.1497172 -69.47 0.0008489658    1.086    0.079
        35 -11.5593    166.9774    212.9149   9.9749491681e+01   1.0632255717e+01    0.2516368    0.2306166 -57.54  0.001922507    1.553    0.356
        36 -10.5780    200.1412     46.0470   5.7031964007e+01   2.8740584174e+01    0.5707823    0.2976039 -19.45  0.002341173    2.049    0.512
        37 -16.8855     39.9968    220.1341   1.2482418139e+02   2.6356457218e+01     2.625575     1.843714  87.10   0.02046347    1.455    0.313
        38 -10.6715     81.9017     42.5933   8.3709933031e+01   5.8626781114e+01    0.5666602    0.3814992 -14.98  0.002474967    2.073    0.518
        39 -11.0774      4.5267    209.9297   1.3115308508e+02   3.1414483274e+01    0.1628385    0.1110422  49.88 0.0003048647    1.139    0.122
        40 -10.6259    143.4365    208.2717   1.0359085762e+02   1.4783408365e+01    0.2058021    0.1591447  34.01  0.001335458    1.055    0.052
        41  -9.4048     40.4795     33.4878   9.8770868503e+01   6.7224011584e+01    0.1338575    0.1186332 -44.79 0.0002251046    1.012    0.012
        42 -10.7318    145.3034    219.3096   1.0455765135e+02   1.2980293793e+01    0.1728514    0.1308514  30.53 0.0006780802    1.117    0.105
        43  -8.8578    137.0218    243.0025   1.0856537405e+02   1.1085743102e+01    0.1241512   0.09835272  37.95 0.0006286954    1.121    0.108
        44  -9.8614    119.3060     19.2086   6.1828144559e+01   5.3715997005e+01     0.307242    0.1439157 -16.07  0.001086228    2.680    0.627
        45  -9.8052    142.3206     18.4593   5.6720753082e+01   4.7613761372e+01    0.3686596    0.2146661  37.57   0.00151583    1.940    0.485
        46  -9.2258    144.3777    201.7236   1.0257943871e+02   1.5587664492e+01    0.1439618    0.1115073 -28.79 0.0007036266    1.651    0.394
