#   1 NUMBER                 Running object number                                     
#   2 MAG_AUTO               Kron-like elliptical aperture magnitude                    [mag]
#   3 X_IMAGE                Object position along x                                    [pixel]
#   4 Y_IMAGE                Object position along y                                    [pixel]
#   5 X_WORLD                Barycenter position along world x axis                     [deg]
#   6 Y_WORLD                Barycenter position along world y axis                     [deg]
#   7 A_WORLD                Profile RMS along major axis (world units)                 [deg]
#   8 B_WORLD                Profile RMS along minor axis (world units)                 [deg]
#   9 THETA_WORLD            Position angle (CCW/world-x)                               [deg]
#  10 FWHM_WORLD             FWHM assuming a gaussian core                              [deg]
#  11 ELONGATION             A_IMAGE/B_IMAGE                                           
#  12 ELLIPTICITY            1 - B_IMAGE/A_IMAGE                                       
         1 -13.3922    178.7389    222.8260   1.1887047737e+02   8.7120189485e+00     1.630273     1.341203 -21.13   0.01278195    1.530    0.347
         2 -15.3276     78.5109    205.5686   1.3410957531e+02   2.5309518072e+01     2.521355     1.238902  67.43   0.01469897    2.253    0.556
         3 -14.6675      6.8240     24.8857   1.2728384134e+02   6.9174541814e+01     1.597451    0.6752998 -58.52  0.007777655    1.669    0.401
         4 -12.5549     83.2549     22.4049   9.3898213242e+01   6.0416014551e+01    0.5037761    0.3891867 -32.69  0.001604344    1.204    0.169
         5 -11.5648     63.8864     17.9087   9.8838748710e+01   6.4480378508e+01    0.3356494    0.2379098  44.28   0.00087463    1.693    0.409
         6 -12.7342    123.6250     10.3561   7.7089045675e+01   5.3245043522e+01      1.06106    0.3483172  54.35 0.0005990751    2.728    0.633
         7 -12.3175    111.8986      4.7439   7.7259541728e+01   5.6659088663e+01    0.7009529    0.5461804 -23.82  0.003142614    1.264    0.209
         8 -12.4540     73.5467      2.1629   8.7113767461e+01   6.5112198045e+01    0.6087669    0.3324135 -34.94  0.002994847    1.779    0.438
         9 -12.5467    104.2578      4.9314   7.9257711067e+01   5.8404072713e+01    0.7461383     0.513217 -32.48  0.003330896    1.482    0.325
        10 -12.0945     75.6511     13.3866   9.2231815761e+01   6.3190593814e+01    0.4137279    0.3730026  18.03  0.001260857    1.178    0.151
        11 -12.9376     96.3554      3.7030   8.0779933686e+01   6.0297085581e+01    0.6875007    0.5846633  35.63  0.002626969    1.170    0.145
        12 -13.7160     85.7459     11.8072   8.8026267727e+01   6.1500460627e+01     1.107201    0.5978838  42.10  0.004350968    1.892    0.471
        13 -13.3552     86.9382      3.7133   8.3544446835e+01   6.2290718082e+01     1.366496     0.434575  39.96  0.004739501    3.465    0.711
        14 -11.2385    137.6366      5.4176   7.2082370611e+01   5.0239502281e+01    0.3954202    0.2615288  65.66  0.001486399    1.573    0.364
        15 -11.2999     33.2439      4.0948   1.0544626141e+02   7.0984575772e+01     0.305941    0.2108485 -17.02   0.00100253    1.364    0.267
        16 -11.2971    145.6499    197.7184   1.2129235886e+02   1.7033971746e+01    0.9918472    0.3914247  57.30  0.003705751    4.425    0.774
        17 -12.1913    145.5237    217.8324   1.2378296569e+02   1.4307583039e+01    0.6262462    0.3788079 -69.53  0.003795573    2.706    0.630
        18 -12.1719    160.9573    188.7933   1.1728112063e+02   1.5840405202e+01    0.2738693    0.1973945  67.68   0.00165033    1.801    0.445
        19 -11.1322    151.5892    206.8864   1.2142298567e+02   1.4839273995e+01    0.3495212     0.307056  71.08  0.002657967    1.310    0.237
        20 -11.6165    143.4921    229.1002   1.2536320746e+02   1.3171936056e+01    0.3321173    0.1496652  50.80  0.001934688    1.923    0.480
        21 -10.5770     42.2959    175.9518   1.3835160546e+02   3.4492434469e+01    0.1853651    0.1139755  58.19  0.001197021    1.346    0.257
        22 -11.2777    143.2908    208.2161   1.2303192817e+02   1.5926849016e+01    0.3776602    0.2881135  71.37  0.002646429    1.542    0.352
        23 -11.2991     83.3848    172.1982   1.2998666715e+02   3.0350185750e+01     0.387285    0.1983826 -76.04  0.002091421    2.265    0.558
        24 -12.4102     71.7979    171.2948   1.3219848924e+02   3.1998875040e+01    0.5465448    0.3146633  68.81  0.003247473    1.785    0.440
        25 -13.0695     76.3964    161.1351   1.3015533370e+02   3.3312066679e+01    0.8554756    0.5316159 -78.72  0.005190752    1.642    0.391
        26 -11.5039     53.9587    170.4548   1.3565214467e+02   3.4251584256e+01    0.3520256    0.1395456  65.50  0.001605362    3.254    0.693
        27 -12.2097     46.7267    167.9129   1.3686113805e+02   3.5509475293e+01    0.4491615    0.1949175  44.69  0.002611672    2.002    0.500
        28 -10.4796     89.5592    166.7374   1.2810548904e+02   3.0512633023e+01     0.276083      0.11216 -65.22  0.001314074    2.700    0.630
        29  -9.5270    132.3123    215.3177   1.2574387813e+02   1.6580549259e+01     0.101402   0.07841489  19.41  0.000703553    1.644    0.392
        30  -9.7949     48.3127    161.3286   1.3597356332e+02   3.6584647370e+01   0.09958977   0.08120126 -47.54 0.0007043011    1.670    0.401
        31 -11.1019    117.1364    157.8524   1.2117136327e+02   2.8037065250e+01    0.1947793     0.158714  69.32 0.0008423122    1.226    0.185
        32 -13.3031      9.8894    209.7962   1.4577186309e+02   3.1792357405e+01    0.5030639    0.1446477  39.92  0.003111162    2.617    0.618
        33 -12.4288     77.5328    142.7992   1.2760230349e+02   3.6744963561e+01    0.8764098    0.4565781  89.56  0.003905126    2.952    0.661
        34 -11.7725     59.6064    146.2141   1.3203906308e+02   3.8286136479e+01     0.501672    0.3036611  62.61  0.002620294    1.612    0.380
        35 -11.3520     51.6443    144.0925   1.3356577388e+02   3.9611616640e+01    0.2820366    0.1403581  47.74  0.001010466    1.888    0.470
        36 -11.5652     89.8686    144.8741   1.2512416668e+02   3.4634816322e+01    0.2484591    0.1949306 -35.17  0.001248778    1.695    0.410
        37 -13.4240    102.1655    142.4985   1.2200637854e+02   3.3278413357e+01    0.5994695    0.3837603 -68.22  0.003279096    1.684    0.406
        38 -13.8756     98.5408    134.3326   1.2149071104e+02   3.5451805952e+01    0.6239793    0.3413543  39.05  0.003148371    1.855    0.461
        39 -10.5002      5.8217    143.1197   1.4338103585e+02   4.3958252306e+01    0.1620296    0.1061519  74.10 0.0004454979    1.206    0.171
        40 -12.9813    108.8289    140.0554   1.2010644156e+02   3.2708823575e+01    0.3342008    0.3041355  61.88  0.002170272    1.034    0.033
        41 -10.7680     40.8283    144.0051   1.3594458547e+02   4.0763076916e+01    0.1714204     0.142638  64.48 0.0003381066    1.154    0.133
        42 -11.3365    145.3655    204.1026   1.2216169415e+02   1.6178282001e+01    0.4341503    0.2860351  80.01  0.002478765    2.516    0.602
        43 -12.1705     82.2631    130.0044   1.2461751990e+02   3.8713427904e+01    0.2353256    0.1642574 -52.91 0.0009760582    1.468    0.319
        44 -11.7479     46.3944    125.2002   1.3260448611e+02   4.4082603638e+01     0.478625    0.2004425 -65.48  5.34184e-05    2.044    0.511
        45 -11.5878     67.4827    128.4838   1.2793597378e+02   4.0978370178e+01    0.2198586    0.1943235  83.18 0.0008654734    1.038    0.037
        46 -12.6680     10.2412    130.1833   1.4156940632e+02   4.6225098271e+01    0.3330682    0.2440203  45.18  0.001310938    1.470    0.320
        47 -11.9591     96.1547    125.4269   1.2050511650e+02   3.7626750161e+01    0.2735137    0.1588603 -42.53  0.001340503    2.006    0.502
        48 -13.1266     55.0445    124.9191   1.3045992809e+02   4.3205548388e+01     0.879298    0.5260615 -17.08  0.003424906    4.834    0.793
        49 -10.4776    138.3274    125.3350   1.1062143399e+02   3.0369896605e+01    0.1400755    0.1086273   2.23 4.041641e-05    1.721    0.419
        50 -10.6385    244.6677    123.6792   8.9910147620e+01   9.0646402472e+00    0.1449187   0.08939157  15.78 0.0007049332    1.698    0.411
        51 -11.3957     57.0183    119.9770   1.2928450089e+02   4.4034690161e+01    0.1766854     0.150643 -84.84  0.001195581    1.005    0.005
        52  -9.7133    154.9983    118.0439   1.0530009895e+02   2.8426856163e+01    0.1675856    0.1590554  27.62 0.0003526523    1.009    0.009
        53 -10.7136    218.3266    116.3413   9.2505488036e+01   1.5328137160e+01    0.1526174   0.09871077  15.10 0.0007051292    1.735    0.424
        54 -10.9056    203.3896    120.7721   9.6223589667e+01   1.7841536384e+01     0.204007    0.1288768 -16.25 0.0009550169    1.726    0.421
        55 -11.3667     79.9269    109.6868   1.2168098027e+02   4.3332598144e+01    0.2437694    0.1790343 -52.31 0.0006894577    1.320    0.243
        56 -10.5380     79.4041    105.2579   1.2096416940e+02   4.4361018657e+01    0.2414764    0.1245284 -63.05 0.0008011504    1.896    0.473
        57 -11.8273     49.6891    125.3248   1.3181924634e+02   4.3708053131e+01    0.3509229    0.2053799 -75.08  0.001123589    1.527    0.345
        58 -11.3543    121.5924    104.2156   1.0980113320e+02   3.7627261599e+01     0.206585     0.129589 -36.84 0.0009594809    1.718    0.418
        59 -13.5189     17.3648    101.0064   1.3716884507e+02   5.1867507915e+01    0.4215225    0.3632663  75.35  0.002070839    1.188    0.158
        60 -12.1691     58.6605     98.6812   1.2540317977e+02   4.8484019576e+01    0.3751364    0.3154674 -71.45  0.001416468    1.028    0.028
        61 -10.7276     42.2026    101.1194   1.3039679245e+02   4.9722508945e+01    0.1882383    0.1454284 -56.07  0.001226467    1.265    0.209
        62 -12.9508     55.2824     94.7439   1.2563954753e+02   4.9745816022e+01     0.486473    0.3444093 -36.62  0.002814636    1.697    0.411
        63 -10.4487     82.1055     95.8481   1.1826751892e+02   4.6010004954e+01    0.2045554    0.1738038  86.91 0.0005729613    1.250    0.200
        64 -11.0245    188.3815     94.4831   9.2406880148e+01   2.5138358390e+01    0.3127527    0.2739975  82.59  0.001053539    1.457    0.314
        65 -10.6602    152.2929     88.5239   9.8343991550e+01   3.4329750257e+01    0.2352008    0.2217034 -47.18 0.0004374832    1.125    0.111
        66 -10.3645     77.6137     88.8003   1.1795580980e+02   4.8191962924e+01    0.1922617    0.1177887 -65.92 0.0005285793    1.676    0.403
        67  -9.7920    249.4984     86.4373   8.0162050314e+01   1.2575149596e+01    0.1402581    0.1208252  -2.18 2.455973e-05    1.009    0.008
        68 -10.8454     89.5050     86.2510   1.1392448568e+02   4.6946355628e+01    0.3257156    0.1782275  46.93  0.001216003    2.015    0.504
        69 -10.6202    128.9699     83.0605   1.0238951917e+02   4.0350222085e+01    0.2172161    0.2100511 -25.10 0.0003621241    1.010    0.010
        70 -10.5321     67.6470     81.3070   1.1916859608e+02   5.1202088611e+01     0.226006    0.1490154  49.77  0.001207438    1.741    0.426
        71 -10.2778     42.1970     77.9924   1.2636760881e+02   5.4868113898e+01    0.2165083    0.1099769 -43.97  0.001074067    2.053    0.513
        72 -10.5347    144.9307     73.9194   9.5758881054e+01   3.8595631580e+01    0.2223877    0.2122307  -0.23 0.0003846172    1.013    0.012
        73 -12.7158     96.7327     72.0261   1.0795340300e+02   4.8729123884e+01    0.4998821    0.3516012  31.11 0.0007555411    1.627    0.385
        74 -10.4991    135.3235     70.3322   9.6967238979e+01   4.1385273409e+01    0.1571025    0.1163385   7.12 0.0004015577    1.704    0.413
        75 -11.5630     83.2790     68.4424   1.1095852362e+02   5.1714636661e+01    0.2448146    0.2136128 -48.62  0.000343299    1.039    0.038
        76 -10.0187     19.9360     66.2124   1.3143656280e+02   5.9376642214e+01    0.1340369   0.09742633  25.35 0.0008780039    1.745    0.427
        77 -10.8185    214.3488     62.2281   7.8737452898e+01   2.3620984314e+01    0.3816528    0.2314747 -17.84  0.001689349    1.628    0.386
        78  -9.7307     51.0162     63.2037   1.2007811476e+02   5.7216270123e+01    0.1470397    0.1046955  29.78 0.0003677772    1.677    0.404
        79 -12.8996    125.5754     57.5286   9.5238064988e+01   4.5833051864e+01     0.338434    0.3072656  15.51  0.000538031    1.111    0.100
        80 -10.2860    174.5183     56.9152   8.3978978749e+01   3.4272976514e+01    0.2222676    0.2015893  37.95 0.0003910389    1.100    0.091
        81 -11.7910     68.5521     55.3661   1.1178340445e+02   5.6664991970e+01      0.34679      0.33134  69.92  0.001703276    1.236    0.191
        82 -11.2335    210.6147     54.5356   7.7045706081e+01   2.5531293307e+01     0.275225    0.2256203  21.39 0.0004901882    1.234    0.190
        83 -10.7685    133.0654     53.7567   9.2021153843e+01   4.4812988827e+01    0.2866427    0.2346155  40.93 0.0008307594    1.245    0.197
        84 -11.3848    145.6465     50.9843   8.8049108190e+01   4.2312890193e+01    0.3100407    0.3054254  33.81 0.0007505413    1.101    0.092
        85 -13.0635      3.3595     47.1035   1.3394438623e+02   6.4578220076e+01    0.5729601     0.388497  85.19   0.00101891    1.572    0.364
        86  -9.8886    140.0079    239.0000   1.2693151321e+02   1.2458541205e+01    0.1748935   0.04393294  42.11 0.0007988565    2.918    0.657
        87 -12.8386     42.6039     47.5467   1.1877703850e+02   6.1519201055e+01    0.3796741     0.325179  31.85 0.0006249156    1.414    0.293
        88 -12.5470     42.1347     42.6054   1.1743668029e+02   6.2615078852e+01    0.5957395    0.3786481  -8.10  0.002764079    2.282    0.562
        89 -10.6265    176.5774     45.5226   7.9850574045e+01   3.5368593250e+01    0.2592271    0.2461437  11.70 0.0005959339    1.019    0.019
        90 -11.3552    156.9210     43.9845   8.3133654827e+01   4.0595421734e+01    0.2949526    0.2484612  13.11  0.000587935    1.202    0.168
        91  -9.5283    102.0000     42.9938   9.6549685812e+01   5.3348367888e+01    0.2401116   0.07703002 -37.41 0.0007935993    2.882    0.653
        92 -10.5737     95.3402     42.9301   9.8559219656e+01   5.4654140711e+01    0.2037264    0.1699447 -29.30 0.0004759833    1.084    0.077
        93 -10.3323    197.4100     41.0993   7.4927274910e+01   3.0565454189e+01    0.2471068    0.1946118  43.51 0.0004033996    1.268    0.212
        94 -11.7577     42.2234     33.0524   1.1414384426e+02   6.4574729734e+01    0.4256738    0.2245363  33.58  0.001451531    2.264    0.558
        95 -10.9768     82.1959     34.4037   9.9459436514e+01   5.8586224246e+01    0.2823844    0.2491595  -9.17  0.001633623    1.081    0.075
        96 -12.2374     78.9051     30.4483   9.8941859372e+01   5.9857600934e+01    0.4462396    0.3984871  75.44  0.001757078    1.549    0.355
        97 -10.3756    176.1705     33.6087   7.5881504431e+01   3.7025367613e+01    0.2130903     0.178881  38.25 0.0005176683    1.172    0.147
        98  -9.4769    141.6174     33.7185   8.2644110410e+01   4.5879619931e+01    0.1650697    0.1078915  26.49 0.0002305298    1.726    0.421
        99 -10.2446     37.7715     27.5553   1.1398875817e+02   6.6155094908e+01    0.1529405     0.118252  43.25 0.0009519844    1.696    0.410
       100 -13.4526     30.0356    204.0171   1.4226967004e+02   3.0885939329e+01    0.3999904     0.227736  72.33  0.003030013    1.403    0.287
       101 -10.4829    242.7200     23.7571   6.4151283992e+01   2.1156080257e+01    0.2271715     0.208656  86.50  0.001356239    1.199    0.166
       102  -9.9656    139.7723     20.7517   7.7962262736e+01   4.8031362455e+01    0.1963234    0.1734261 -53.46 0.0004839191    1.303    0.233
       103 -11.3165     44.2607    208.3906   1.4014903873e+02   2.8754391811e+01    0.1846932   0.09188346  50.51  0.001288672    1.532    0.347
       104 -12.6216    162.7032    223.7633   1.2161341552e+02   1.1013148456e+01    0.9108375    0.5926914  64.01  0.005861121    2.026    0.506
       105 -10.1844    130.9607    235.4466   1.2802772032e+02   1.4140642431e+01    0.1478327   0.06403705  55.63 0.0004415838    2.407    0.585
       106 -11.8450     53.1591    200.7777   1.3815368035e+02   2.9038829328e+01    0.2852008    0.1725262  78.75  0.001320675    1.497    0.332
       107 -13.1830     79.3940    220.1980   1.3511747974e+02   2.2958346194e+01    0.7637368    0.3155474  64.81   0.00402071    2.996    0.666
       108 -11.8452    192.4296    217.3013   1.1590830902e+02   7.2334020321e+00    0.6063862    0.3823099  66.58  0.003221643    3.189    0.686
       109 -12.3949    139.5965    222.0622   1.2525063949e+02   1.4625397949e+01    0.4484536    0.3535981  15.54   0.00259499    1.635    0.389
       110 -12.7672     30.8925    194.4770   1.4161295676e+02   3.2384585106e+01      0.38355    0.1184242 -78.44  0.002035817    3.137    0.681
       111 -11.1489    134.8213    187.5613   1.2192975498e+02   2.0243158890e+01    0.5151959    0.2771141 -70.85  0.002460249    3.297    0.697
       112 -10.0156     53.5252     10.4969   9.9394444136e+01   6.7269672044e+01    0.1308982    0.1063928 -21.50 7.728144e-05    1.020    0.020
       113 -10.9920    140.5503    192.4138   1.2151736325e+02   1.8607673566e+01    0.3729326    0.1573041  53.11  0.001742815    2.513    0.602
