#   1 NUMBER                 Running object number                                     
#   2 MAG_AUTO               Kron-like elliptical aperture magnitude                    [mag]
#   3 X_IMAGE                Object position along x                                    [pixel]
#   4 Y_IMAGE                Object position along y                                    [pixel]
#   5 X_WORLD                Barycenter position along world x axis                     [deg]
#   6 Y_WORLD                Barycenter position along world y axis                     [deg]
#   7 A_WORLD                Profile RMS along major axis (world units)                 [deg]
#   8 B_WORLD                Profile RMS along minor axis (world units)                 [deg]
#   9 THETA_WORLD            Position angle (CCW/world-x)                               [deg]
#  10 FWHM_WORLD             FWHM assuming a gaussian core                              [deg]
#  11 ELONGATION             A_IMAGE/B_IMAGE                                           
#  12 ELLIPTICITY            1 - B_IMAGE/A_IMAGE                                       
         1 -13.8993    165.3744     38.8340   7.8623972486e+01   3.8950291323e+01     1.381045     1.075281   0.43  0.004048569    1.491    0.329
         2 -13.1660    180.3017      8.7762   6.6492592047e+01   3.8282026629e+01     1.009615    0.4974194  65.15  0.003529087    1.871    0.466
         3 -12.6795    179.0151      3.2403   6.4836844200e+01   3.9128875198e+01     1.185881    0.3649955  67.88  0.004188376    2.788    0.641
         4 -10.6549    196.8924    244.1976   1.1803701654e+02   2.1381076163e+00    0.2020553    0.1521283 -57.80  0.001340516    2.968    0.663
         5  -9.8428    150.9064    250.4013   1.2709191927e+02   7.5368648909e+00    0.1630891   0.09672645  31.89 0.0005076011    1.175    0.149
         6 -19.9334     67.3700    170.1717   1.3681855755e+02   3.2267360556e+01     17.11269     4.578422 -70.07   0.06048125    4.328    0.769
         7 -11.9307    138.4575    198.5545   1.2339787906e+02   1.6581372383e+01    0.6069825    0.2735429  50.48  0.002647008    2.594    0.615
         8 -11.0407    174.9834    193.8694   1.1500473277e+02   1.1484217044e+01    0.2446186    0.2138486 -64.53 0.0008178689    1.784    0.440
         9 -11.0890    180.1120    192.3600   1.1372749996e+02   1.0874600495e+01    0.2826165    0.2339045  57.50 0.0004187499    1.714    0.417
        10 -10.8666    176.5134    188.4354   1.1381332004e+02   1.2019993507e+01    0.2226325    0.1970133  -3.21  0.001036139    1.212    0.175
        11 -10.1543    153.4845    194.4754   1.1957639521e+02   1.4850439290e+01    0.2228845   0.09889917  44.21 0.0006307309    2.059    0.514
        12 -11.6387    167.4274    191.6505   1.1620400520e+02   1.3028574876e+01     0.377034    0.1977695  27.62  0.001866664    1.748    0.428
        13 -11.1926    157.1177    191.8275   1.1840129466e+02   1.4675813523e+01     0.195087    0.1572638  45.53 0.0006012263    1.300    0.231
        14 -11.4247    147.2901    189.3628   1.2014976100e+02   1.6664244945e+01    0.3877096     0.191525  18.85  0.001504759    3.196    0.687
        15 -12.1806    167.8889    232.7771   1.2188994190e+02   7.3655859142e+00    0.3888981    0.2172675  39.01  0.001283891    1.442    0.306
        16 -11.0391    183.9594    186.8066   1.1203733066e+02   1.1035345280e+01    0.3249442    0.1804575  32.79  0.001185067    1.490    0.329
        17 -10.5987     15.7522    237.9604   1.5188644182e+02   2.5100826554e+01    0.1330292   0.06471672  50.31 0.0003484208    1.366    0.268
        18 -11.6873     28.5564    183.9005   1.4733834081e+02   3.3641697308e+01    0.2705978    0.1736361  37.00 0.0007059449    1.364    0.267
        19 -12.5570    206.4467    179.9662   1.0648837911e+02   8.3073508783e+00    0.7905741    0.3513136  30.46  0.003197653    2.060    0.514
        20 -12.1252    197.0053    173.0543   1.0702913284e+02   1.0806098745e+01    0.6443267    0.3722784 -43.69  0.002592418    2.232    0.552
        21  -8.9895     22.9250    182.7488   1.4858462631e+02   3.4380662977e+01    0.1188174   0.08539309  36.00 0.0002878864    1.307    0.235
        22 -11.4686     23.5670    230.9076   1.5023981716e+02   2.5537307777e+01    0.2378953     0.120304  41.75  0.001128583    1.381    0.276
        23  -9.2123      7.8804    175.8147   1.5178999750e+02   3.7005365028e+01    0.1464011   0.08796246  49.39 0.0009506643    1.307    0.235
        24 -10.6020    178.4143    173.2209   1.1079719051e+02   1.3967879931e+01    0.2352079    0.1730034 -64.15  0.001205711    2.398    0.583
        25 -11.7299    145.5107    169.4830   1.1735988181e+02   2.0340141374e+01    0.3322698    0.2935853  73.65  0.001466108    1.442    0.306
        26 -13.4492    138.3938    171.4576   1.1934679452e+02   2.1219027813e+01     1.127069    0.4137531  44.97  0.004324193    2.566    0.610
        27 -12.1731    141.7517    167.3073   1.1786292658e+02   2.1386093437e+01    0.6205798    0.2206417  38.78  0.002376282    2.405    0.584
        28 -10.3123     16.8859    217.0784   1.5111573919e+02   2.8482651347e+01    0.1446886     0.121335 -68.19 0.0006756347    1.601    0.375
        29 -10.0133     35.3279    168.4203   1.4481841618e+02   3.6200063981e+01    0.2367175    0.1451253  54.50 0.0008109466    1.366    0.268
        30 -10.3644    202.5243    166.5239   1.0473760225e+02   1.0781874646e+01     0.252523    0.2101413  86.39  0.001371699    2.400    0.583
        31 -10.7336    122.7232    165.8960   1.2220805323e+02   2.4922990670e+01    0.4075241    0.1775352  47.61 0.0009659681    2.280    0.561
        32 -10.1559    223.9818    164.4412   1.0041218558e+02   7.4668543379e+00    0.2097601    0.1650119 -32.63 0.0005811559    1.523    0.344
        33 -10.0965    237.5110    159.5015   9.7158759375e+01   5.9044780711e+00    0.1259808    0.1000251   4.68 7.832804e-06    1.029    0.028
        34 -10.8709    164.6037    157.8768   1.1090347691e+02   1.8918885819e+01    0.2666755     0.196785  14.34 0.0004982958    1.404    0.288
        35 -10.5133     23.1157    155.9010   1.4718251256e+02   4.0012010546e+01    0.2057449    0.1880326  51.62 0.0005241865    1.181    0.153
        36 -10.0887    153.9964    212.8383   1.2205541543e+02   1.2031018844e+01    0.2302464    0.1654564  81.07  0.001227209    2.908    0.656
        37 -12.8271    134.1400    146.3204   1.1589251117e+02   2.6733918170e+01     1.224784    0.3793058 -56.16  0.003316897    5.791    0.827
        38 -10.6234    174.5650    149.4069   1.0702669889e+02   1.8473903102e+01    0.2645918    0.2247145  23.91 0.0007572588    1.028    0.027
        39 -12.2219    144.4694    146.0577   1.1327513643e+02   2.4838450114e+01    0.5437636    0.3847403  87.76  0.002331745    2.651    0.623
        40 -12.1628     29.5830    139.7076   1.4432413852e+02   4.3122005248e+01    0.4298649    0.2531298  44.12  0.002017586    1.525    0.344
        41 -10.7697    163.3048    210.3680   1.1983290338e+02   1.0974188540e+01    0.2118933    0.1836576  19.82  0.000847525    1.163    0.140
        42 -11.1312    125.8596    209.6398   1.2753197335e+02   1.6711022193e+01    0.2892492    0.1605987  46.06  0.001493914    1.576    0.366
        43 -12.7913    120.5575    129.2922   1.1603412043e+02   3.2796777790e+01    0.6309637    0.4963475 -21.56  0.003147453    1.545    0.353
        44 -12.1764    125.9602    127.7459   1.1422419256e+02   3.2087254377e+01    0.6317107    0.4231118 -87.74  0.002490305    2.761    0.638
        45 -12.2195    135.4748    122.7228   1.1054862376e+02   3.1233555255e+01    0.8992814    0.2311045 -49.12  0.002467539    4.620    0.784
        46 -10.9827    160.5530    127.9012   1.0550412425e+02   2.5041359257e+01    0.3657479    0.2581823 -51.83  0.001737185    1.707    0.414
        47 -10.9082     18.1011    129.0345   1.4692756857e+02   4.6524569651e+01    0.2824421    0.1687134 -65.78 0.0009225144    1.618    0.382
        48 -10.1533    175.9483    235.5438   1.2072360016e+02   5.9114449003e+00    0.1609062    0.1302193  12.86 0.0005117858    1.202    0.168
        49 -13.2880     30.7553    118.8594   1.4213376728e+02   4.7978529880e+01    0.6544864    0.4877366   0.03    0.0030373    1.716    0.417
        50 -11.1262    114.1480    118.4752   1.1549103945e+02   3.6369466181e+01    0.2677179    0.2561012 -80.56  0.000408685    1.119    0.106
        51 -11.3681    170.6372    116.3745   1.0044979063e+02   2.4982856221e+01    0.4440724    0.3402456 -84.29 0.0008042076    2.152    0.535
        52 -11.9301    163.6561    204.1637   1.1887834732e+02   1.1797686974e+01    0.4186688    0.2845829 -53.69  0.002409233    2.145    0.534
        53 -12.3287      3.0225    119.6574   1.5095944040e+02   4.9654864307e+01    0.5471494    0.1923003  87.22  0.002397477    2.587    0.613
        54 -10.0421    205.3534    110.2526   9.1954570571e+01   1.8542042645e+01    0.2983885    0.1899099  41.04  0.001005405    1.546    0.353
        55 -10.5124     19.0274    108.6470   1.4507882604e+02   5.1355338883e+01    0.2166516    0.1526115 -53.82 0.0006638285    1.467    0.318
        56 -10.4610    159.0037    205.5269   1.2002669331e+02   1.2321204666e+01    0.2443786    0.1790854  30.26  0.001542704    1.058    0.055
        57  -9.7345     13.6597     59.9568   1.4167041157e+02   6.3737234711e+01    0.1829924    0.1427332 -74.11 0.0004220004    1.116    0.104
        58 -13.3889    153.9812     53.8511   8.5964214217e+01   3.9826751792e+01     1.283434    0.8896793  56.28  0.001085782    1.402    0.287
        59  -9.1729    168.7899    202.5902   1.1760333381e+02   1.1223220271e+01    0.1698914   0.09725429  41.33 0.0001668381    1.537    0.350
        60 -11.9543    169.3943     30.8061   7.5237295483e+01   3.8882244349e+01    0.4186055    0.3469042  35.93 0.0009151938    1.279    0.218
        61  -9.5024    141.7041     32.9341   8.1087606796e+01   4.6188669342e+01    0.2083835     0.203863 -73.56 0.0003984222    1.068    0.064
        62  -8.1129     13.5751    244.6994   1.5243278437e+02   2.4234284025e+01    0.2219189   0.08607855 -70.43  0.001374207    3.174    0.685
