#   1 NUMBER                 Running object number                                     
#   2 MAG_AUTO               Kron-like elliptical aperture magnitude                    [mag]
#   3 X_IMAGE                Object position along x                                    [pixel]
#   4 Y_IMAGE                Object position along y                                    [pixel]
#   5 X_WORLD                Barycenter position along world x axis                     [deg]
#   6 Y_WORLD                Barycenter position along world y axis                     [deg]
#   7 A_WORLD                Profile RMS along major axis (world units)                 [deg]
#   8 B_WORLD                Profile RMS along minor axis (world units)                 [deg]
#   9 THETA_WORLD            Position angle (CCW/world-x)                               [deg]
#  10 FWHM_WORLD             FWHM assuming a gaussian core                              [deg]
#  11 ELONGATION             A_IMAGE/B_IMAGE                                           
#  12 ELLIPTICITY            1 - B_IMAGE/A_IMAGE                                       
         1 -11.2956    176.0945     21.5822   6.0625442944e+01   3.8341231446e+01    0.9698079    0.7302604  56.56  0.005017041    1.265    0.209
         2  -9.6700    171.6422     16.5758   5.9678026243e+01   4.0052218865e+01    0.4825186     0.280174  55.46  0.001328246    1.598    0.374
         3  -8.9976    120.3850      8.9387   6.6082437647e+01   5.3765100934e+01    0.2993068    0.2358778  81.41  0.001544907    1.522    0.343
         4  -9.3313    163.2561    245.6755   1.1428081201e+02   4.4520594708e+00    0.1817921    0.1726303 -69.16 0.0004115604    1.387    0.279
         5 -18.1135     68.9169    226.1846   1.2866208692e+02   2.1194224531e+01     3.976337     2.985554  79.38   0.01276924    1.166    0.142
         6 -10.2726    194.8330    198.6899   1.0187815097e+02   5.6067134027e+00     0.347844    0.2523579 -61.90  0.001852587    2.146    0.534
         7 -10.8756    192.0583    192.6581   1.0135455489e+02   6.9817357814e+00    0.7688506    0.3247052 -52.13  0.002914957    4.077    0.755
         8 -11.9697    240.4066    243.0520   1.0115189087e+02  -6.9522368505e+00     0.215712    0.1670499  26.64 0.0003019518    1.170    0.145
         9  -8.7141    129.0238    244.3512   1.1996674573e+02   9.8653925398e+00    0.1513491    0.1370948  47.00 0.0004926021    1.230    0.187
        10  -8.3191    128.5597    196.4067   1.1426180030e+02   1.7603674768e+01    0.2623452     0.196343 -87.25  0.001214149    1.599    0.375
        11  -7.8736    169.5132    239.4552   1.1244243400e+02   4.2744310640e+00     0.116622   0.08984385  41.13 1.002055e-05    1.022    0.022
        12  -9.1496    156.6328    190.7518   1.0784347893e+02   1.3699929446e+01    0.2354186    0.1776015 -69.28 0.0005608767    1.711    0.415
        13  -9.1992    153.4173    185.9289   1.0769752238e+02   1.5105397594e+01    0.2992521    0.2448584 -69.87  0.001241516    1.465    0.318
        14  -8.6281    132.5356    190.8288   1.1266474717e+02   1.7926482579e+01    0.2030735    0.1593089  49.78 0.0005505944    1.114    0.102
        15  -8.7126    168.8964    189.2282   1.0518538067e+02   1.1730770506e+01    0.2320129    0.1939001 -54.13 0.0003596379    1.413    0.292
        16  -8.3096    186.1816    185.5581   1.0121033601e+02   9.1363503460e+00    0.1984444    0.1590246 -25.48 0.0005508209    1.380    0.276
        17  -7.6738    154.4339    239.2556   1.1502345795e+02   6.6748659113e+00    0.1320946    0.1092191 -81.63 0.0009386112    1.603    0.376
        18  -8.0368    180.9917    184.2945   1.0198117203e+02   1.0298398547e+01    0.2128176     0.138181 -40.15 0.0006513335    1.723    0.420
        19  -8.8374    143.3424    183.9097   1.0940589688e+02   1.7277361569e+01    0.2386021    0.1899328  66.11  0.001390384    1.313    0.238
        20  -7.8639     13.4580    180.1457   1.3540752698e+02   3.5909178027e+01     0.150389    0.1161254  70.08 0.0006760447    1.128    0.114
        21  -9.3506    135.5926    237.8118   1.1813071133e+02   9.8072463758e+00    0.3033724    0.2325636  73.21   0.00185764    1.441    0.306
        22  -9.9864    188.8013    176.5255   9.9050703384e+01   1.0071195445e+01    0.3691109     0.294228 -28.16  0.001209746    1.357    0.263
        23  -9.3892    186.6734    172.6657   9.8730196284e+01   1.1101069744e+01    0.2673603    0.1772756  -8.55  0.001259468    2.152    0.535
        24  -9.6111    161.2638    176.0266   1.0441477679e+02   1.5384493856e+01     0.320407    0.2600289 -74.85 0.0009807878    1.560    0.359
        25  -8.8823    132.6474    230.9780   1.1787632210e+02   1.1271950653e+01    0.2899703     0.236199 -54.07  0.001519218    1.540    0.351
        26  -9.4003    135.7980    175.4178   1.0958115381e+02   2.0194203123e+01    0.2615572    0.2115463  76.22  0.000493249    1.353    0.261
        27  -9.2354    138.3802    172.1850   1.0849286523e+02   2.0338252073e+01    0.3117366    0.2042863 -67.06  0.001385843    1.897    0.473
        28  -9.0133    142.0656    171.1956   1.0754290033e+02   1.9849541665e+01    0.3313752    0.1712887  54.81  0.001446611    2.086    0.521
        29  -7.1929    221.2602    175.3483   9.2805947974e+01   4.1697927287e+00    0.1335963   0.09228649   5.81 0.0003078339    1.603    0.376
        30  -7.7840      5.0311    235.9496   1.3957229581e+02   2.6607168514e+01    0.1164677   0.09286129 -86.25   0.00104687    1.465    0.317
        31  -7.7078    171.4946    171.4367   1.0150379406e+02   1.4233658783e+01    0.1376713    0.1234675  34.02 9.184205e-05    1.024    0.024
        32  -8.4667    188.0326    167.0307   9.7369764968e+01   1.1762306843e+01    0.3464232    0.1868546 -52.66  0.001194692    2.513    0.602
        33  -9.2110    245.7597    165.3826   8.6609042781e+01   1.1248683056e+00    0.2507186    0.2109269  32.36 0.0005275271    1.222    0.182
        34 -11.0701    188.7981    213.2199   1.0533685325e+02   4.6148514345e+00    0.4576181    0.3505286  23.35  0.002544643    1.226    0.184
        35 -11.8166    186.7862    200.3941   1.0364870643e+02   6.7827938292e+00    0.9399263     0.684545  71.41  0.005110259    2.104    0.525
        36 -11.5509    184.0000    213.5906   1.0626075220e+02   5.3789777590e+00     1.621742    0.2653158 -45.90  0.004300856    9.428    0.894
        37  -9.4037    246.4957    160.5118   8.5488356714e+01   1.6448993967e+00     0.281642    0.2174644   8.45 0.0005234033    1.188    0.159
        38  -9.0161    246.5610    155.7884   8.4493035931e+01   2.2722849023e+00    0.2161117    0.1993563  25.97 0.0003987703    1.226    0.185
        39  -7.9691    137.7607    161.2515   1.0669424984e+02   2.2559487880e+01    0.2133595    0.1695818 -89.03 0.0009379402    1.501    0.334
        40  -8.5117    167.9998    158.1012   9.9630565738e+01   1.7281132154e+01    0.2044969    0.1907952  36.07 0.0003388139    1.002    0.002
        41  -7.2048    178.2641    156.6589   9.7227694043e+01   1.5475563998e+01    0.1346994    0.1124863 -83.38 0.0003206799    1.596    0.373
        42 -11.6302    182.8480    208.1350   1.0562424133e+02   6.3485198385e+00     1.148843    0.4194527 -51.47  0.004333611    4.603    0.783
        43 -10.1784    214.6426    153.8370   8.9603599642e+01   8.6222640418e+00    0.2564914     0.237828  32.14 0.0004095498    1.135    0.119
        44  -9.1457    189.3678    154.8817   9.4633235498e+01   1.3533386819e+01    0.3477995    0.2563256  45.46  0.001497612    1.303    0.232
        45 -11.1643    135.2140    149.7300   1.0507978891e+02   2.5335666722e+01     1.104325    0.5504503 -65.47   0.00400346    3.247    0.692
        46  -9.6784    157.2176    227.9907   1.1312732102e+02   7.8008940556e+00    0.3490549    0.2703325  55.71   0.00236427    1.241    0.194
        47 -10.2089    146.5589    224.1728   1.1455489477e+02   1.0086375421e+01     0.362106     0.299916  70.19  0.002506017    1.309    0.236
        48  -8.1978     18.1111    148.3171   1.3207536393e+02   4.2056900088e+01    0.1551906    0.1249364  73.50  0.000524589    1.140    0.123
        49  -9.1692    128.0339    146.2966   1.0604646286e+02   2.7396800394e+01    0.3100187     0.194203 -60.97  0.001364036    1.768    0.435
        50  -9.4143     26.9195    146.4052   1.2991744680e+02   4.1680107607e+01    0.3536011    0.1915238 -72.82  0.002073653    1.523    0.343
        51  -9.5939     29.3720    141.2800   1.2882397454e+02   4.2567154223e+01    0.2226218    0.1839718 -13.32   0.00127215    1.848    0.459
        52  -9.1977    122.5033    143.0561   1.0669742126e+02   2.9101970284e+01    0.2748082    0.1865728  62.29  0.001292987    1.646    0.393
        53  -8.2851    144.4793    140.1573   1.0102280639e+02   2.5453103376e+01    0.2130881    0.1432845 -46.01  0.001013242    1.536    0.349
        54 -11.4010    153.6307    219.8374   1.1270033527e+02   9.5802336282e+00    0.8479952    0.3908128  46.29 0.0005718638    1.798    0.444
        55  -9.4517    160.7287    141.9723   9.7806117259e+01   2.1774506790e+01    0.4606713    0.4243281 -73.20  0.002581764    1.197    0.164
        56  -8.9873    233.6684    136.0140   8.2329567834e+01   7.5523932394e+00    0.2339463    0.1919895  38.08  0.000428542    1.232    0.188
        57  -8.5107    162.1153    135.8118   9.6140663883e+01   2.2668054634e+01    0.2149944    0.1988168  85.07 0.0004758094    1.194    0.163
        58  -8.7155    130.6971    135.6260   1.0324765316e+02   2.9108338792e+01    0.3072126      0.20207  66.21  0.001374746    1.917    0.478
        59 -13.4274     43.5157    248.1415   1.3428066201e+02   2.0664089606e+01    0.3651134    0.2470907  50.55  0.001362354    1.286    0.222
        60  -7.3627    219.3073    134.7115   8.4525141889e+01   1.0675513919e+01    0.1324104    0.1141309 -73.24 0.0003118497    1.573    0.364
        61  -9.7126    165.4196    227.6220   1.1161596919e+02   6.5195406609e+00    0.3458089    0.2702932  89.88  0.002226938    1.874    0.466
        62  -7.8722    152.6759    129.9408   9.6899495415e+01   2.5810007035e+01    0.2547933    0.1594145  80.52 0.0008877512    3.307    0.698
        63  -8.0974    138.3086    149.7034   1.0437730739e+02   2.4747676975e+01    0.2256524    0.1614695  78.08 0.0007006924    1.867    0.464
        64  -7.6949      5.4245    227.8583   1.3919707560e+02   2.7913032083e+01    0.1473059    0.1162425  31.12  0.001141374    1.907    0.476
        65  -7.7007    119.6561    123.2731   1.0323026440e+02   3.3853776127e+01    0.1470047    0.1117796  78.25 0.0006997173    1.619    0.382
        66  -8.5714    110.1701    122.6562   1.0548240003e+02   3.5747730777e+01    0.2294878    0.2006584 -50.47 0.0005431148    1.138    0.121
        67  -8.3170    153.0857    246.1856   1.1606873503e+02   5.9554450690e+00    0.1620037    0.1472006  45.40 0.0004890055    1.194    0.163
        68  -8.2550     12.5429    219.6177   1.3771647213e+02   2.8653932229e+01    0.1704141    0.1251979  61.41 0.0007553006    1.194    0.163
        69  -9.8948    166.8943    218.1197   1.1003979802e+02   7.6254635953e+00    0.4296052    0.2273491  32.50  0.001979735    1.879    0.468
        70  -9.8278     73.5602    118.0001   1.1415519743e+02   4.2692105175e+01    0.2727962    0.2027467  63.60 0.0006840179    1.470    0.320
        71  -8.8260     70.0325    115.0000   1.1453957103e+02   4.3862397858e+01    0.2519118    0.1358953  43.26  0.001209373    1.976    0.494
        72  -8.8418    176.2034    209.7016   1.0708984977e+02   7.2683287201e+00    0.2113591    0.1881578  56.45 0.0006048298    1.231    0.188
        73  -7.4342      5.5614    116.4879   1.3206115772e+02   4.9933854150e+01     0.115276   0.08680203 -83.29 9.692951e-05    1.025    0.024
        74  -7.5845    189.0963    112.1178   8.4764198008e+01   2.1103285589e+01    0.1930312    0.1763138 -74.70  0.001014241    1.263    0.208
        75  -8.2459    120.0037    111.6625   1.0042816137e+02   3.6282791256e+01     0.210295    0.1875179  52.33 0.0007193382    1.142    0.125
        76  -9.7508    165.9145    204.7209   1.0824658112e+02   9.7992932598e+00    0.4781186     0.228425  33.75  0.002214501    2.155    0.536
        77 -11.1035     61.2930    108.7699   1.1577394224e+02   4.6428590315e+01    0.7075334    0.5395485  16.41  0.003293165    1.719    0.418
        78  -9.8643     67.5209    109.4659   1.1415359396e+02   4.5461508074e+01    0.3215281    0.2529457 -68.24  0.001538843    1.153    0.132
        79  -7.1328    250.3237    110.2767   7.3731879132e+01   7.9918828770e+00     0.138037   0.09979912  13.50 0.0002865828    1.583    0.368
        80  -7.9068     23.5257    107.3465   1.2618221616e+02   5.0648329992e+01     0.170042    0.1292756 -33.29 0.0007376734    1.641    0.391
        81  -8.2955     29.1233     98.0960   1.2318174677e+02   5.2266151571e+01    0.1944307    0.1546972 -74.40  0.001283829    1.060    0.057
        82  -9.3657    175.1995    202.0635   1.0608310231e+02   8.5795254043e+00    0.2583954    0.1675816  32.02  0.001432876    1.453    0.312
        83  -8.6083    174.5677     89.2025   8.1591834818e+01   2.8623238624e+01    0.2506864    0.2107532  49.72 0.0003094226    1.196    0.164
        84  -7.7726    137.2440     89.5049   9.0164991942e+01   3.7273913861e+01    0.1944778    0.1455155  33.92 0.0009071331    1.446    0.308
        85  -7.8944     22.8635     87.1498   1.2324417609e+02   5.5238650919e+01    0.1783246    0.1127204 -52.18 0.0008387655    1.373    0.271
        86  -7.3294     41.6795     83.2827   1.1650518320e+02   5.4427077621e+01     0.121109   0.09208785  78.94 0.0002601151    1.588    0.370
        87  -9.8008    230.4699     80.6384   6.9393516504e+01   1.6652575525e+01    0.2597246    0.2411591   5.63 0.0002004605    1.111    0.100
        88  -9.2079    235.3230     77.0264   6.7764768747e+01   1.6075810919e+01    0.2630623    0.2329127  17.83 0.0008786925    1.222    0.182
        89  -8.5458    117.0050     72.0148   9.0172490336e+01   4.5066945989e+01    0.2152083      0.20424 -23.66  0.001191035    1.010    0.010
        90  -7.8705    239.6440     70.7137   6.5563089793e+01   1.6001418193e+01    0.1432468    0.1055754  22.90  0.000702243    1.673    0.402
        91  -8.0718    232.2335     69.7579   6.6331125641e+01   1.7837300235e+01    0.1985008    0.1655753  21.54  0.001062538    1.360    0.265
        92 -10.5975    150.8445     64.3030   7.9260783279e+01   3.8756560465e+01     0.498888    0.4398365  88.43  0.001394469    1.306    0.234
        93  -7.8480    173.7495     62.9484   7.4048533066e+01   3.3282969571e+01    0.2080345    0.1914228 -23.47 0.0003188791    1.090    0.083
        94  -9.3970    144.3843     60.2563   7.9426775989e+01   4.1002920205e+01    0.2868995    0.2857969 -34.32  0.001006859    1.049    0.047
        95 -11.4215    161.4387     50.0540   7.2412558018e+01   3.8399355245e+01     1.069308     0.896822  22.77  0.005039383    1.285    0.222
        96 -10.0654    166.3153     41.3188   6.8633830000e+01   3.8410778221e+01    0.4980334    0.3671362 -22.27 0.0008908264    1.416    0.294
        97  -9.2482    148.3741     51.7579   7.5712310953e+01   4.1409023960e+01    0.4071239    0.2435575  12.77  0.001471466    2.861    0.650
        98 -10.2716    129.6967     49.7626   7.9388763983e+01   4.6208703597e+01    0.2635599    0.2472471   2.77 0.0002472034    1.035    0.034
        99  -7.9218    140.8498     46.1823   7.5494545848e+01   4.4111497895e+01    0.2096157    0.1717082  12.98 0.0005552977    1.331    0.249
       100  -9.3224    225.1699     32.1907   5.7327757800e+01   2.4551932634e+01    0.3539294    0.2386553 -27.08 0.0009955585    1.477    0.323
       101  -9.0662    116.1081    247.9531   1.2250844121e+02   1.1251325351e+01    0.1769555    0.1510354 -54.89 0.0005195105    1.583    0.368
       102  -9.4887    166.4352    246.5461   1.1384661768e+02   3.8494788223e+00    0.2297475    0.1940201 -14.98 0.0005393851    1.544    0.352
       103  -7.6973    198.0284     25.4805   5.8758705061e+01   3.2189675530e+01    0.2009774    0.1364456  67.80 0.0004145693    1.434    0.303
       104  -8.2814    199.5001     18.4865   5.6534318959e+01   3.2600944071e+01     0.139202    0.1328863  85.14 -0.000112954    1.026    0.025
