#   1 NUMBER                 Running object number                                     
#   2 MAG_AUTO               Kron-like elliptical aperture magnitude                    [mag]
#   3 X_IMAGE                Object position along x                                    [pixel]
#   4 Y_IMAGE                Object position along y                                    [pixel]
#   5 X_WORLD                Barycenter position along world x axis                     [deg]
#   6 Y_WORLD                Barycenter position along world y axis                     [deg]
#   7 A_WORLD                Profile RMS along major axis (world units)                 [deg]
#   8 B_WORLD                Profile RMS along minor axis (world units)                 [deg]
#   9 THETA_WORLD            Position angle (CCW/world-x)                               [deg]
#  10 FWHM_WORLD             FWHM assuming a gaussian core                              [deg]
#  11 ELONGATION             A_IMAGE/B_IMAGE                                           
#  12 ELLIPTICITY            1 - B_IMAGE/A_IMAGE                                       
         1 -10.6960     92.0622     47.7299   5.0665456311e+01   5.2526060637e+01    0.6081253    0.1482539 -35.81  0.002191339    3.927    0.745
         2 -10.4945     69.0595     39.0173   5.3847663012e+01   5.7449194884e+01    0.3866767    0.1584892 -31.88  0.001897271    2.355    0.575
         3 -10.9455     12.5243     28.5664   6.8370234657e+01   6.5905370068e+01    0.3388626   0.08522966 -39.51  0.001528577    3.424    0.708
         4 -10.4934     49.3318     18.1565   5.2113353759e+01   6.2672330109e+01    0.4020172    0.1682275 -10.62  0.001708567    4.033    0.752
         5 -10.5108     40.7849     14.1161   5.3185391968e+01   6.4242387263e+01     0.200024     0.127509  14.04 0.0003429775    1.400    0.285
         6 -10.5100     60.2552    222.9764   9.7674310136e+01   1.9434003324e+01    0.2791115    0.1298966  62.07  0.001177141    2.706    0.630
         7  -9.3285     13.6922    250.6701   1.0871710448e+02   1.9022700284e+01    0.1044522   0.07741893 -59.61 0.0002683248    1.661    0.398
         8 -10.8188    126.2330    220.4792   8.3966789811e+01   9.9490764305e+00    0.2612712    0.2101983 -80.00 0.0007615854    1.300    0.231
         9  -9.9439     74.9960    219.5027   9.4301015407e+01   1.8186010538e+01    0.1920691    0.1280585  45.35 0.0009979028    1.583    0.368
        10  -9.8218    144.3309    217.6572   7.9768053635e+01   7.5094870107e+00    0.1457738    0.1087261  84.54 0.0006622965    1.750    0.429
        11 -10.8514     76.8132    212.8818   9.3013611892e+01   1.9465920425e+01     0.352928    0.1741115 -73.74  0.001495322    2.211    0.548
        12 -10.3176    124.1022    205.9194   8.1935594067e+01   1.3595425273e+01    0.2093633    0.1781585 -86.79            0    1.208    0.172
        13 -10.6337     99.3402    205.6653   8.7179198262e+01   1.7742316644e+01    0.3292007    0.2024415 -86.32  0.001424729    2.164    0.538
        14  -9.8437     56.8335    205.2452   9.6086996040e+01   2.4039998846e+01    0.2360281    0.1227733  75.05  0.000953485    2.814    0.645
        15 -10.1489     80.2149    200.8272   9.0511666857e+01   2.1837502715e+01    0.2422677    0.1355655  78.34  0.000943095    2.812    0.644
        16 -12.6103    177.0244    198.2153   6.9437015480e+01   5.9828570714e+00    0.4565197    0.3983715   0.59  0.002513425    1.299    0.230
        17 -11.7769    125.2472    197.5449   8.0184774578e+01   1.5347299120e+01    0.3190767    0.2543468  34.71  0.001663097    1.423    0.297
        18 -11.1761    113.2260    197.8867   8.2858594647e+01   1.7316687281e+01    0.3268842     0.212513  71.73    0.0012112    2.064    0.516
        19 -11.1804    149.5044    198.3623   7.5146935185e+01   1.0878773461e+01    0.3891492     0.235613 -80.35  0.001418731    3.080    0.675
        20 -10.3207     66.5968    194.2852   9.2454920527e+01   2.5372091276e+01    0.3616956    0.1939757 -86.58  0.001456496    2.575    0.612
        21 -11.0622     88.8774    198.5804   8.8282695561e+01   2.1073210804e+01    0.3026203    0.1779242 -77.86  0.001324626    1.969    0.492
        22 -11.0016    163.2635    194.5542   7.1521766135e+01   9.2547647652e+00    0.2765509     0.143028  47.11  0.001140622    2.142    0.533
        23 -11.2252     78.3123    192.8550   8.9669060035e+01   2.4052397677e+01    0.2880191    0.1986715 -89.72  0.001254584    1.596    0.373
        24 -10.2261     43.7101    192.7670   9.7158886973e+01   2.8696044439e+01    0.2834975    0.1420619 -86.62  0.001178951    2.509    0.602
        25 -11.6008    139.3117    189.8942   7.5681574759e+01   1.4653644429e+01    0.2942875    0.2562872  85.46  0.001228294    1.252    0.201
        26 -12.0728     87.6017    188.8976   8.6951405037e+01   2.3624433297e+01     0.409612    0.2604545 -86.92  0.001620006    1.974    0.493
        27 -10.2486      8.1860    188.8664   1.0404291366e+02   3.3387886932e+01     0.288449    0.1365718 -81.42  0.001421533    1.872    0.466
        28 -11.4268    129.8463    188.6059   7.7495109068e+01   1.6648589904e+01     0.358008    0.2179361  71.32  0.001380298    2.670    0.626
        29 -13.4172     95.5922    184.8134   8.4437638403e+01   2.3372777733e+01    0.8311093    0.5339573  86.89  0.003583379    2.165    0.538
        30 -10.8713    156.9270    186.9857   7.1326985089e+01   1.2113856323e+01    0.2425504    0.1842149 -87.17  0.001137132    1.727    0.421
        31 -10.4052    149.3380    187.6778   7.3081690174e+01   1.3347726691e+01    0.1537585    0.1165428  89.75 0.0007050609    1.715    0.417
        32 -11.9986    120.7409    185.2939   7.8870076704e+01   1.9041496969e+01    0.5129419    0.2302608 -61.51  0.001854161    2.457    0.593
        33 -12.1302    110.3679    185.5525   8.1241198755e+01   2.0761346073e+01    0.4327234    0.3631656 -81.92  0.001908511    1.198    0.166
        34 -10.1624     34.7202    186.7729   9.8273610649e+01   3.1192093242e+01    0.2793333    0.1379849 -86.95  0.001176485    2.498    0.600
        35 -10.2108     66.4756    184.9599   9.1033420247e+01   2.7675731932e+01    0.2058785    0.1113864 -84.62 0.0008096932    2.534    0.605
        36 -11.7480     74.7409    183.1167   8.8868466330e+01   2.6965320756e+01    0.4199574    0.2467041 -71.92  0.001928278    1.681    0.405
        37 -10.0454    198.0241    182.7587   6.2139807837e+01   5.5090763671e+00    0.1781219    0.1264746  42.77 0.0006365604    1.590    0.371
        38 -12.7915     78.6208    175.8542   8.6724036733e+01   2.8196751337e+01    0.6061202     0.368178  79.26  0.002511089    2.489    0.598
        39 -10.3521     44.4163    181.7396   9.5461284267e+01   3.1300791070e+01     0.274586    0.1143771 -69.13   0.00113316    2.154    0.536
        40 -11.4041    148.6062    180.1935   7.1713520384e+01   1.5215677332e+01     0.349969    0.2008536  58.21  0.001403457    2.295    0.564
        41 -10.8917     55.1908    186.5677   9.3791967870e+01   2.8782197226e+01    0.3962529    0.2127276 -88.66  0.001632772    2.538    0.606
        42 -11.1642     60.1547    176.3082   9.1068880233e+01   3.0665944519e+01    0.3770555    0.2242324 -82.45  0.001718123    1.924    0.480
        43 -11.8034    106.1479    175.0832   8.0197196742e+01   2.4028132083e+01    0.4276955    0.2630247 -80.77  0.001716504    2.307    0.567
        44  -9.5239     12.5062    175.9947   1.0165160996e+02   3.6049383166e+01    0.1868929    0.0900548  89.30 0.0008102753    2.536    0.606
        45 -10.8902    160.0894    175.2162   6.8208717068e+01   1.4214145964e+01    0.2827585    0.2167891  70.67  0.001347671    1.638    0.389
        46  -9.7914     34.6659    173.3216   9.6416380595e+01   3.4475515237e+01    0.1372973   0.09034359  81.00 0.0007050039    1.704    0.413
        47 -11.4443    135.3064    171.6649   7.2858877987e+01   1.9689961638e+01    0.3370593    0.2488889 -88.48  0.001531514    1.767    0.434
        48 -12.7800    122.1660    168.5212   7.5177232209e+01   2.2839405038e+01    0.6986099    0.4146546 -71.67  0.002750416    2.234    0.552
        49 -10.2678     44.4325    171.2215   9.3873469731e+01   3.3883636461e+01    0.2052849    0.1127763 -74.64 0.0009534417    1.738    0.425
        50 -10.8539     55.2463    168.9046   9.0983149585e+01   3.3133917517e+01     0.336597    0.1990148 -82.74  0.001367079    1.980    0.495
        51 -10.4395    168.2053    169.1966   6.5207493060e+01   1.4041511694e+01    0.2145154    0.1775509 -76.56 0.0008279255    1.368    0.269
        52 -11.1859     88.7669    167.9231   8.2871143383e+01   2.8620475309e+01    0.2921439    0.1946462 -74.91  0.001350798    1.630    0.387
        53 -10.5760    111.8881    166.8092   7.7200463539e+01   2.5071327085e+01    0.3032798    0.1935376 -78.28  0.001243601    2.119    0.528
        54 -12.2128     99.8527    165.9182   7.9848039389e+01   2.7331415648e+01    0.5620786    0.3558759  77.40  0.002259837    2.514    0.602
        55 -12.0886     93.3963    159.8708   8.0162296469e+01   2.9873407496e+01    0.4999732    0.3708084  89.27  0.002163792    1.653    0.395
        56 -12.5167    139.8978    164.8520   7.0373197475e+01   2.0451753218e+01    0.4915182     0.340967 -83.39  0.001896254    2.043    0.510
        57 -12.2276     80.4279    163.9275   8.4092130841e+01   3.0885760572e+01    0.5939489    0.3347515 -86.44  0.002125425    3.208    0.688
        58  -9.9126     47.3827    163.6098   9.1955956925e+01   3.5408894850e+01    0.2747659    0.1153312 -74.56 0.0009545659    3.178    0.685
        59  -9.9370     37.9893    163.7617   9.4201228642e+01   3.6450318409e+01    0.2627279    0.1502617 -75.77  0.001277509    1.670    0.401
        60 -10.6382     69.8713    162.5817   8.6380462534e+01   3.2748021356e+01    0.3049113     0.177184 -74.86  0.001325421    1.949    0.487
        61 -12.1308    153.7475    160.9544   6.6464619752e+01   1.8717904093e+01    0.3734945    0.2965413  72.22  0.001196247    1.529    0.346
        62 -10.7764    178.4710    160.9831   6.1294566197e+01   1.3904254731e+01    0.2875516    0.2210373  71.10  0.001136745    1.648    0.393
        63 -10.6553     61.9253    159.5746   8.7750370395e+01   3.4574694886e+01    0.3522663    0.1797816 -69.66  0.001479764    2.031    0.508
        64 -11.5378    143.4998    158.7881   6.8232788726e+01   2.1197119515e+01    0.3658302    0.2298343  81.46  0.001293949    3.106    0.678
        65 -11.0562    128.8721    158.6058   7.1503869885e+01   2.4001217295e+01    0.3238058    0.1980292 -66.03  0.001328498    1.898    0.473
        66 -12.2559    106.5108    157.8481   7.6588208817e+01   2.8186798473e+01    0.5483536    0.3808751  79.85   0.00215392    2.048    0.512
        67 -10.6704    198.0319    158.5056   5.6928399228e+01   1.0674344884e+01    0.2113891    0.1520804  46.50 0.0006983873    1.593    0.372
        68 -12.2070    120.0007    155.1734   7.2807664650e+01   2.6451939807e+01    0.5644946    0.3130642 -67.71  0.002115301    2.389    0.581
        69 -11.0318     49.5922    154.2815   8.9808970820e+01   3.7435750956e+01    0.4332209    0.2646056 -84.23   0.00198127    2.025    0.506
        70 -11.4312    168.1235    157.4849   6.2632126848e+01   1.6708701627e+01    0.3090639    0.2370015 -72.96  0.001299659    1.518    0.341
        71 -11.3332    145.2726    154.8654   6.6956164418e+01   2.1774105497e+01    0.3447729    0.2418067  81.32  0.001455596    2.113    0.527
        72 -11.5908     81.9354    153.8999   8.1737483659e+01   3.3132062384e+01    0.4867494    0.3290752 -72.54   0.00201208    1.578    0.366
        73 -12.4835    133.7430    152.4753   6.9013488954e+01   2.4544152255e+01    0.5489171    0.3348396 -69.72  0.002109887    2.193    0.544
        74 -11.8817     68.6940    152.8719   8.4812511428e+01   3.5306786157e+01    0.4693721    0.3562989  74.91  0.002278829    1.607    0.378
        75 -11.2216     91.3788    150.8830   7.8775523048e+01   3.2398362390e+01    0.3541715    0.2370508 -76.97  0.001331709    1.835    0.455
        76 -11.5305    190.3494    150.3872   5.6579835293e+01   1.3907024146e+01    0.2976493    0.2557333 -66.47  0.001072622    1.192    0.161
        77 -10.2424    182.6698    151.3189   5.8285844439e+01   1.5216118103e+01    0.1552892    0.1161772 -77.45 0.0003904282    1.688    0.408
        78 -10.9094     98.7511    150.2421   7.6824511631e+01   3.1349197570e+01    0.4323525    0.2110161 -60.76  0.001663129    2.118    0.528
        79 -10.7334     28.4658    148.7204   9.4054461312e+01   4.1102422570e+01    0.4448251    0.1792182 -77.62  0.001451995    4.134    0.758
        80 -13.2227    108.4637    145.1918   7.3326011155e+01   3.0903828222e+01    0.9062108    0.5780441 -80.94  0.003578132    2.483    0.597
        81 -11.2081     39.1892    145.5498   9.0830875588e+01   4.0750598092e+01     0.669418    0.2634781 -67.48  0.002595405    2.561    0.610
        82 -13.5521    149.7023    144.3203   6.3543875375e+01   2.3342919042e+01    0.8517652    0.5519296 -71.68  0.003479565    2.109    0.526
        83 -10.6370     78.4434    146.3291   8.1035577896e+01   3.5503738732e+01    0.3639292    0.2252183 -71.32  0.001621261    1.838    0.456
        84 -12.0933     55.9250    144.0831   8.6300819704e+01   3.9139845113e+01    0.7741972    0.3400761 -65.97  0.003037799    2.384    0.581
        85 -12.6766    125.8339    142.9611   6.8652934337e+01   2.8274547923e+01    0.6668407     0.441138 -79.48  0.002701325    2.278    0.561
        86 -11.7245     88.2306    142.8171   7.7807397757e+01   3.4851402883e+01    0.6159963    0.2936938 -57.65  0.002467568    1.959    0.490
        87 -10.0847     12.8873    144.5042   9.7203534053e+01   4.3530565443e+01    0.3034934    0.1302202 -78.06  0.001231636    2.798    0.643
        88 -11.1584    165.9910    143.9807   5.9979569501e+01   2.0166807806e+01    0.2527642    0.1869418 -78.67  0.001142921    1.729    0.422
        89 -11.2055    138.0425    144.2862   6.6141816038e+01   2.5635740583e+01    0.2179494    0.2036719 -65.31 0.0008335355    1.066    0.062
        90 -11.1422    182.5601    141.8787   5.6146513684e+01   1.7295377183e+01    0.2928413    0.2062969  73.42  0.001275654    1.922    0.480
        91 -11.0116     68.7728    138.4091   8.1822617080e+01   3.8803141512e+01    0.5318072    0.2584988 -71.43  0.001858013    3.226    0.690
        92 -11.4629    172.6234    137.8345   5.7177825929e+01   2.0182558975e+01    0.3847027    0.2185888 -67.49   0.00139032    2.702    0.630
        93 -10.1028     81.2033    139.1932   7.8790066070e+01   3.6808236792e+01    0.2056677    0.1646761 -76.43 0.0008902688    1.355    0.262
        94 -10.9500     22.7912    135.2648   9.3177405404e+01   4.4840297040e+01    0.7682995    0.2472412 -65.88  0.002887051    2.878    0.653
        95 -10.9048    197.8393    137.8476   5.2332272733e+01   1.5096768772e+01    0.2156323    0.1687056 -66.67   0.00108633    1.344    0.256
        96 -11.4942    162.8848    135.7959   5.8695950449e+01   2.2608448798e+01    0.3086581    0.1928905 -67.13  0.001246219    2.086    0.521
        97 -11.1270     38.9478    134.0563   8.8736300880e+01   4.3518431203e+01    0.4932912    0.1446356 -56.71  0.001851493    2.559    0.609
        98 -11.5411    180.2036    133.8105   5.4726371026e+01   1.9508392360e+01     0.378453    0.2272047 -62.83  0.001554991    2.003    0.501
        99  -9.8978     96.4979    135.5100   7.4058658405e+01   3.5245872316e+01    0.1511553    0.1327169 -54.26 1.647929e-05    1.026    0.025
       100 -12.8618    132.5393    130.8291   6.4176705728e+01   2.9779739308e+01    0.7695324    0.3969721 -60.67  0.002823641    2.442    0.590
       101 -11.7421    113.4311    133.3916   6.9348357431e+01   3.2790656402e+01    0.4182214    0.3019198  72.88  0.001499518    1.924    0.480
       102 -12.5806    143.7944    131.7532   6.1844502774e+01   2.7355412112e+01    0.4581743    0.3471558 -78.97  0.002138406    1.653    0.395
       103 -12.2218     83.5877    129.7613   7.6022971756e+01   3.8666386069e+01    0.9111918    0.3346035 -55.60  0.003209292    2.627    0.619
       104 -12.8313    153.2756    128.4017   5.8947156108e+01   2.6184101035e+01    0.6929524    0.3415619 -58.20  0.002501273    2.469    0.595
       105 -10.7617    193.1523    130.1524   5.1422680107e+01   1.7644269238e+01    0.2160538    0.1698801 -69.09  0.001087738    1.353    0.261
       106 -12.5428    169.5858    129.4371   5.5795267791e+01   2.2620114361e+01    0.5383243    0.3644822  80.24  0.002275215    2.217    0.549
       107 -12.6066     99.3870    126.9359   7.1277845752e+01   3.6745103608e+01    0.8303092     0.435137 -63.11  0.003174409    2.439    0.590
       108 -10.8698     73.0798    128.2481   7.8432416968e+01   4.0588979326e+01    0.4520098    0.2181292 -62.62  0.001782945    2.330    0.571
       109 -10.8183     12.0106    127.7728   9.4665717032e+01   4.7499734817e+01     0.417233    0.2137585 -79.71  0.001923461    2.436    0.589
       110 -11.1267     12.5037    122.4901   9.3588547568e+01   4.8664092483e+01    0.5146981    0.1410065 -48.86  0.002074289    2.725    0.633
       111 -12.2740    118.8410    125.4446   6.6084222525e+01   3.3600968527e+01    0.5954087      0.40299  81.05  0.002438127    2.499    0.600
       112 -11.5325     58.8458    122.0730   8.0841476536e+01   4.3954443442e+01    0.8295227    0.3434437 -64.18  0.002908406    3.236    0.691
       113 -11.9901    180.4364    124.2605   5.2420442160e+01   2.1475364235e+01    0.4194942    0.2721028 -58.41  0.001899263    1.582    0.368
       114 -11.9427     42.9229    119.8353   8.4719603267e+01   4.6376089309e+01    0.9625123    0.4073112 -69.15  0.003252557    3.918    0.745
       115 -11.5540     27.9523    121.0571   8.9109178637e+01   4.7642685173e+01    0.7234663    0.3862957 -87.31  0.002583392    4.470    0.776
       116 -13.4027    159.9571    121.3621   5.5803071007e+01   2.6325365178e+01    0.7498579    0.4955714 -80.59  0.003039749    2.392    0.582
       117 -11.8936    173.2217    121.3190   5.3112411914e+01   2.3583055442e+01    0.3860807    0.2486169 -71.81  0.001602824    2.159    0.537
       118 -13.3923    142.6351    118.3061   5.8759982739e+01   3.0518457953e+01    0.8465058    0.4812898 -58.07  0.003444737    1.986    0.496
       119 -12.4938    131.7053    118.9607   6.1403655548e+01   3.2557361739e+01    0.5544921     0.389741 -85.78  0.002186167    2.194    0.544
       120 -10.9786     70.8619    118.7309   7.6779748304e+01   4.3080451738e+01    0.4406903    0.1857569 -58.08  0.001677125    2.487    0.598
       121 -11.5748      2.6870    114.1398   9.4729586532e+01   5.1256257212e+01    0.8014389    0.2381108 -67.02   0.00300195    3.386    0.705
       122 -11.3666    186.2533    116.1099   4.9388841319e+01   2.1935710568e+01     0.285672    0.1948603 -88.61  0.001250937    2.109    0.526
       123 -11.6845    109.1743    113.0628   6.5301970268e+01   3.8091114454e+01    0.7333871    0.3408161 -54.39  0.002795614    2.328    0.570
       124 -11.5916    192.9953    114.4841   4.7792616043e+01   2.0860322420e+01    0.3446151    0.1575112 -55.37   0.00127285    2.455    0.593
       125 -11.4057     78.7240    110.9071   7.2693195706e+01   4.3647472037e+01    0.7436814     0.343593 -61.53  0.002669821    3.109    0.678
       126 -11.9290    175.1949    111.4967   5.0340487453e+01   2.5173572853e+01    0.4601405    0.2397864 -57.66  0.001800813    2.230    0.552
       127 -12.8890    160.3223    111.8186   5.3353270040e+01   2.8226897998e+01     0.508544    0.3337836 -63.25  0.002026279    1.769    0.435
       128 -11.5287    122.4469    112.3441   6.1874172926e+01   3.5764990191e+01    0.3407494    0.2606499 -63.22  0.001151672    1.429    0.300
       129 -11.6494     14.3719    108.4918   9.0347723416e+01   5.1623712688e+01    0.6065624    0.2421362 -55.20  0.002934888    1.821    0.451
       130 -10.8649     66.3467    108.7626   7.5556508830e+01   4.5907474231e+01    0.5659975    0.2146837 -54.01  0.002167295    2.513    0.602
       131 -11.6915    133.5525    109.1163   5.8440801659e+01   3.4263119875e+01    0.3975738    0.2528335 -57.82  0.001618394    1.721    0.419
       132 -13.5549    151.0807    103.1899   5.3067294036e+01   3.1876836348e+01    0.7180125    0.4099547 -48.80   0.00316349    1.671    0.401
       133  -9.4400     59.3021    108.6580   7.7508680172e+01   4.6876996515e+01     0.131251    0.1039439 -81.66 0.0004773717    1.677    0.404
       134 -11.6318     92.5581    110.3502   6.8851259492e+01   4.1563760792e+01    0.8764741    0.2859167 -50.32  0.002969248    2.930    0.659
       135 -12.9813    140.8387    104.4091   5.5579598549e+01   3.3745775497e+01    0.5558286    0.4143104 -75.26  0.002246179    1.718    0.418
       136 -12.8450     22.1305     98.9398   8.5989159898e+01   5.3009847813e+01     1.078704    0.4598449 -65.16  0.004528493    2.881    0.653
       137 -11.8490     44.7933    101.1206   7.9802232991e+01   5.0257205921e+01    0.7192829    0.4548452 -84.26   0.00301996    3.464    0.711
       138 -10.5728     43.4021     93.3858   7.8237503833e+01   5.2007371798e+01    0.3543603    0.1651004 -39.92  0.001679228    1.871    0.465
       139 -12.2094    167.5774    103.9069   4.9927583128e+01   2.8274636098e+01     0.371492     0.274766  78.53  0.001810579    1.667    0.400
       140 -12.5252    128.9548    101.4783   5.7476930962e+01   3.6715776241e+01    0.4918961    0.3736784 -55.48  0.001856757    1.339    0.253
       141 -12.0763      7.0157     99.9892   9.0708344836e+01   5.4001462334e+01    0.6836744    0.1370351 -53.58  0.002663585    2.967    0.663
       142 -11.7843    176.1254    101.7448   4.7774353096e+01   2.6882602255e+01    0.3440588    0.2094198 -65.12  0.001466885    2.072    0.517
       143 -12.3026    160.8562    101.4055   5.0616149890e+01   3.0176727895e+01    0.3480414    0.2585999  70.75  0.001343192    1.580    0.367
       144 -12.1923    108.8794     97.2023   6.1126919380e+01   4.1395192951e+01    0.7356151    0.4504041 -60.34  0.003244961    2.096    0.523
       145 -10.8742     81.8983     98.2341   6.8470491327e+01   4.5804007131e+01     0.538478    0.1823882 -47.38  0.001976331    2.672    0.626
       146 -10.8329     95.0409     95.5363   6.4204221167e+01   4.4179789432e+01    0.4653855    0.1918976 -43.11  0.001761118    2.202    0.546
       147 -11.5641     63.3493     93.0357   7.2262860825e+01   4.9575525151e+01    0.8833068      0.30703 -50.82    0.0033714    2.763    0.638
       148 -12.7146    165.4243     93.9312   4.7829622863e+01   3.0620456847e+01    0.3825127      0.28664 -72.83  0.001922504    1.550    0.355
       149 -11.6421    178.0924     93.8802   4.5483013921e+01   2.7935385669e+01    0.2338073    0.1892892 -72.22  0.001252927    1.285    0.222
       150 -12.5865    139.3996     91.8061   5.2553950634e+01   3.6461034805e+01    0.5160846    0.3430891 -60.50  0.001855441    1.773    0.436
       151 -12.0090    158.3217     91.6619   4.8621560852e+01   3.2541982314e+01    0.3133919    0.2277874 -73.74  0.001164692    1.702    0.413
       152 -12.6257    125.2436     89.1349   5.4978572583e+01   3.9801811638e+01    0.6862717    0.3516452 -40.93  0.003001847    1.840    0.456
       153  -9.9900     58.0024     91.9976   7.3534551347e+01   5.0498412793e+01    0.1913337    0.1675707 -38.49            0    1.088    0.081
       154 -11.6174      9.8879     74.8475   8.3878847467e+01   5.8793119780e+01    0.3552384    0.2191468   9.09  0.002228995    1.920    0.479
       155 -12.4821      5.4005     88.4107   8.8644370147e+01   5.6496206508e+01    0.7758044    0.2576798 -45.67  0.003692537    2.171    0.539
       156 -11.8828      8.6225     79.9321   8.5592900577e+01   5.7926700707e+01    0.3631508    0.2618275 -71.93  0.002292408    1.816    0.449
       157 -11.4279     34.9081     86.4045   7.8978568368e+01   5.4318844891e+01    0.8127131    0.2242387 -47.14  0.003221013    2.769    0.639
       158 -12.5829    151.4137     88.7541   4.9237567841e+01   3.4524629676e+01    0.4175178    0.2802841 -50.09  0.001700421    1.458    0.314
       159 -12.8229    158.9606     82.8770   4.6226307100e+01   3.3967843713e+01    0.4535185    0.2795887 -57.86  0.001875392    1.829    0.453
       160 -12.3843    157.9009     76.2045   4.4692302356e+01   3.5318817150e+01    0.3547488    0.2209723 -40.51  0.001414456    1.544    0.352
       161 -11.1262     86.2697     84.3208   6.3358590943e+01   4.7776535092e+01    0.6339165    0.2309902 -43.98  0.002481607    2.535    0.605
       162 -11.5772    180.2404     86.1357   4.3207370255e+01   2.8863928307e+01    0.2738746    0.1806505 -85.46  0.001246382    2.096    0.523
       163 -11.5452     48.3073     81.9811   7.3642599418e+01   5.3652021949e+01    0.7179462    0.3060798 -52.72  0.003157022    2.436    0.589
       164 -12.6233    171.1421     83.8046   4.4219908723e+01   3.1212417200e+01    0.3666072    0.2567671  78.16  0.001821802    1.718    0.418
       165 -12.1304    141.2508     82.6228   4.9687594574e+01   3.7725977012e+01    0.3847773    0.2688469 -44.10  0.001460922    1.373    0.272
       166 -11.4514    104.4747     81.1561   5.7700267931e+01   4.5183173902e+01    0.6226205    0.2386613 -42.84  0.002449888    2.478    0.597
       167 -12.7215     25.7514     75.8511   7.8994192731e+01   5.7238563066e+01     1.062353    0.3142488 -40.84  0.004402693    2.826    0.646
       168 -12.0432    150.6897     80.0519   4.7085484448e+01   3.6198961288e+01    0.3430278    0.2398308 -48.73  0.001276927    1.401    0.286
       169 -10.7618    119.3714     79.2625   5.3570377121e+01   4.2701948946e+01    0.3602427    0.2033487 -41.32  0.001698447    1.696    0.410
       170 -10.2732     74.2291     78.7353   6.5053470272e+01   5.0690830836e+01    0.3758315    0.1396001 -49.76  0.001413609    3.108    0.678
       171 -12.3350    174.8623     77.9060   4.2097876342e+01   3.1418305517e+01     0.411923    0.1689593 -48.20  0.001622427    2.434    0.589
       172 -11.3894    140.4752     74.5159   4.7645681017e+01   3.9251704735e+01    0.3559784    0.2477388 -44.29  0.001340672    1.404    0.288
       173 -11.8890    128.2197     73.9170   5.0068614257e+01   4.1847164356e+01    0.5171255     0.278215 -42.22  0.002331891    1.812    0.448
       174 -11.2754     62.5168     69.5554   6.5673181284e+01   5.3995046847e+01    0.8229978    0.1260088 -40.03  0.002190173    6.349    0.842
       175 -11.7227    151.5385     72.8502   4.5011242256e+01   3.7210919219e+01    0.2611009    0.2185783  19.49  0.001396955    1.450    0.310
       176 -12.0979    167.8090     77.4163   4.3201875148e+01   3.3007702578e+01    0.2623616    0.2216023 -83.82  0.001494826    1.245    0.197
       177 -12.1381    170.5861     71.2733   4.1170077162e+01   3.3412477648e+01    0.3261991    0.1551322 -43.59  0.001437835    1.993    0.498
       178 -12.4441    163.3465     71.2485   4.2420461928e+01   3.4962466246e+01    0.2666513    0.2506401 -43.42  0.001640495    1.083    0.077
       179 -10.2684    115.7117     71.2283   5.2113849347e+01   4.4743007017e+01    0.3114983    0.1163352 -35.80  0.001202794    2.674    0.626
       180 -10.4146     42.6136     70.8074   7.2148905058e+01   5.6352752410e+01    0.3780181    0.1177281 -41.90  0.001567912    2.687    0.628
       181 -11.7174      5.8736     70.0665   8.3939174980e+01   5.9976396323e+01    0.3689801    0.1686732 -51.41   0.00205204    1.739    0.425
       182 -10.4513    105.7038     69.8039   5.4073543922e+01   4.6861293128e+01    0.4034821    0.1445085 -41.25  0.001577502    2.707    0.631
       183 -10.6318     94.7341     68.6158   5.6461307518e+01   4.9028879925e+01    0.5626502    0.1451298 -42.93  0.001863265    3.942    0.746
       184 -11.3163     51.0928     66.9943   6.8339287005e+01   5.5963292854e+01    0.7186003    0.1928667 -47.32  0.002534224    4.002    0.750
       185 -10.9102     81.9039     71.5811   6.0766099575e+01   5.0713523660e+01     0.424355    0.1749494 -48.15  0.001722327    2.789    0.641
       186 -11.1639     16.3927     69.5921   8.0305128735e+01   5.9225724983e+01    0.2866746    0.1842062 -51.59  0.001799607    1.457    0.313
       187 -11.5388     17.5208     63.4687   7.8163812867e+01   6.0202895716e+01    0.4501458    0.1707369 -40.64  0.002106743    2.057    0.514
       188 -11.8863    147.3291     67.4046   4.4362142068e+01   3.8953306526e+01    0.3680201    0.2457744 -34.80  0.001521058    1.505    0.336
       189 -10.5169    121.5825     64.5163   4.8845966167e+01   4.4644351643e+01    0.3680795    0.1244265 -36.03  0.001393023    2.927    0.658
       190 -11.0362     37.4216     61.8371   7.1062104521e+01   5.8468520901e+01    0.5186582    0.1728678 -40.86  0.002317867    2.515    0.602
       191 -10.6115    110.3880     61.0303   5.0353332111e+01   4.7329261991e+01    0.4449286    0.2204236 -22.68  0.001884101    2.662    0.624
       192 -11.2807    164.3698     60.1728   3.9411578639e+01   3.6432550770e+01    0.1942534    0.1112385 -47.16 0.0009502809    1.738    0.425
       193 -10.0383    100.0937     56.8617   5.1538547953e+01   4.9844613084e+01    0.4946356    0.1536114 -33.25   0.00184593    3.336    0.700
       194 -10.8252     25.1725     57.4047   7.3727456052e+01   6.0494953540e+01    0.3658284    0.1540425 -39.73  0.001919285    1.920    0.479
       195 -11.2028    138.6254     65.3449   4.5504341661e+01   4.1077642007e+01    0.3571507    0.2092233 -44.99  0.001383499    1.728    0.421
       196 -12.2962      7.9933     53.5791   7.8478184958e+01   6.2659353379e+01    0.7213919    0.1675559 -43.10  0.003114757    3.065    0.674
       197 -10.2565    130.5858     56.7152   4.4712951975e+01   4.3979950419e+01    0.2513715    0.1257242 -29.85  0.001151748    2.151    0.535
       198 -10.8387     73.2208     57.6518   5.8830395764e+01   5.4283775049e+01    0.5307915    0.1659796 -39.52  0.002128616    3.030    0.670
       199 -10.2370    139.5301     55.0126   4.2480753182e+01   4.2387725406e+01    0.1962442    0.1248493 -33.93  0.001033907    1.599    0.375
       200 -10.8418     10.1176     64.2716   8.0907146969e+01   6.0686253117e+01    0.3079695    0.1192326 -44.43  0.001608525    1.919    0.479
       201 -10.4037     62.9911     49.0126   5.8943869448e+01   5.7070098136e+01    0.2996615    0.1567173 -26.65  0.001585195    1.872    0.466
       202 -10.4122     44.0000     54.0515   6.6442664004e+01   5.8916253762e+01    0.2745348    0.1486378 -41.81  0.001540562    1.747    0.427
       203 -11.1226     45.1842     49.2115   6.4456279048e+01   5.9482056255e+01    0.2648774    0.1812991 -16.59   0.00046026    1.312    0.238
       204 -10.7809     53.8053     51.1879   6.2422682963e+01   5.8064651436e+01    0.5695453     0.139802 -42.82  0.002030802    4.351    0.770
       205  -9.8420    153.3235     52.3405   3.9261581455e+01   3.9875582536e+01    0.1302498   0.09815417  22.59 0.0007050897    1.725    0.420
       206 -11.1418     30.9451     48.6368   6.8931216396e+01   6.1249992992e+01    0.5650491    0.1508745 -42.70   0.00235315    3.345    0.701
       207 -10.5622     20.6345     49.8289   7.2853999431e+01   6.2134952484e+01    0.4513991    0.1991299 -29.76  0.002380926    2.115    0.527
       208  -9.9205    237.3521    229.2957   6.4092047979e+01  -9.6493278135e+00    0.1305433   0.08758158  -7.58 0.0007033425    1.686    0.407
       209 -10.3413    113.5293     42.4657   4.4106088070e+01   4.9216245894e+01    0.3675089    0.2033223  -7.46  0.001647285    2.897    0.655
       210 -10.7891     16.9403     42.1485   7.1588803941e+01   6.3633697095e+01    0.4794157    0.1137244 -39.44   0.00202618    3.399    0.706
       211  -9.8832    122.4383     42.8299   4.2375551573e+01   4.7430864666e+01    0.2850082    0.1238404 -20.63  0.001148224    3.323    0.699
       212 -10.3605     45.1789     42.2635   6.2086134658e+01   6.0447747621e+01    0.3898793    0.1254005 -29.12  0.001551614    3.657    0.727
       213 -11.8204      5.1610     38.6474   7.4675467662e+01   6.5184491289e+01    0.5813275    0.1415278 -43.70  0.002608238    3.264    0.694
       214 -10.4981     57.8438     40.6872   5.7643769183e+01   5.8924265684e+01    0.3444928    0.1418903 -40.04  0.001681007    2.543    0.607
       215 -10.2296    192.3160    225.9252   7.1718230606e+01  -2.2304908057e+00    0.1923156    0.1616214 -33.06 0.0006471645    1.112    0.101
       216  -9.8501    105.7952     38.5605   4.4591939558e+01   5.1151329894e+01    0.2286591    0.0963318 -26.57   0.00103667    2.604    0.616
       217 -10.2174     82.0000     45.0564   5.2368169462e+01   5.4600579188e+01    0.3841645   0.07360445 -35.46   0.00125331    4.909    0.796
       218 -11.0567     27.8762     29.0637   6.3081717669e+01   6.4233402948e+01    0.5513952    0.1767093 -25.36  0.002143532    4.476    0.777
       219 -10.6640     60.8691     30.3063   5.3145631287e+01   5.9719403201e+01    0.3390284    0.1342283 -22.93  0.001580575    2.866    0.651
       220 -10.3064     50.3583     29.5054   5.5956884099e+01   6.1330691217e+01    0.4600152     0.167447 -20.41  0.001800642    4.270    0.766
       221 -10.8807    161.9189    224.8905   7.7479634222e+01   3.0018352315e+00     0.383336      0.27683   7.42  0.001897297    1.931    0.482
       222 -10.7133      3.8024     24.9803   7.0315216267e+01   6.7158516434e+01    0.3475838   0.09520633 -35.19  0.001679278    3.011    0.668
       223  -9.4732     40.8320     21.2067   5.5859168219e+01   6.3528341034e+01    0.1500919    0.1003412   4.81 0.0003444259    1.339    0.253
       224 -10.5094     36.8978     38.7349   6.3535243538e+01   6.1950427569e+01    0.3735803    0.1302308 -32.78   0.00177623    2.637    0.621
       225 -10.0579     99.1987    225.0674   9.0199167217e+01   1.3291256596e+01    0.1979647    0.1779153 -56.60 0.0005608131    1.198    0.165
