#   1 NUMBER                 Running object number                                     
#   2 MAG_AUTO               Kron-like elliptical aperture magnitude                    [mag]
#   3 X_IMAGE                Object position along x                                    [pixel]
#   4 Y_IMAGE                Object position along y                                    [pixel]
#   5 X_WORLD                Barycenter position along world x axis                     [deg]
#   6 Y_WORLD                Barycenter position along world y axis                     [deg]
#   7 A_WORLD                Profile RMS along major axis (world units)                 [deg]
#   8 B_WORLD                Profile RMS along minor axis (world units)                 [deg]
#   9 THETA_WORLD            Position angle (CCW/world-x)                               [deg]
#  10 FWHM_WORLD             FWHM assuming a gaussian core                              [deg]
#  11 ELONGATION             A_IMAGE/B_IMAGE                                           
#  12 ELLIPTICITY            1 - B_IMAGE/A_IMAGE                                       
         1 -10.6584      4.4688     27.9769   1.0129183027e+02   6.9700835624e+01    0.2404576    0.1963869 -86.86  0.001629972    1.973    0.493
         2 -10.2225     40.8945     12.4408   7.5959305478e+01   6.8647396963e+01    0.2462487    0.1524808 -21.67   0.00146786    1.442    0.307
         3 -10.3533     57.2976      9.8872   6.7649928812e+01   6.6449756954e+01    0.2100632    0.1589604  40.81  0.001322275    1.401    0.286
         4  -9.2941    103.6599      9.3312   5.2908489806e+01   5.7321484772e+01      0.12725    0.1010289 -69.32 0.0006932719    1.744    0.427
         5  -9.3181     91.6699      9.3504   5.6006480580e+01   5.9932463724e+01     0.123544    0.1009924 -65.66 0.0007048089    1.769    0.435
         6  -9.7778     29.3372      9.6949   8.0210029006e+01   7.0501030024e+01   0.09742715   0.09447671  -2.28 0.0006694511    1.672    0.402
         7  -9.5935     13.3458      8.6811   8.8357761567e+01   7.2309967349e+01   0.09320825   0.09076411  10.61  0.000470953    1.727    0.421
         8  -9.9289     71.5005      6.5256   6.0858927691e+01   6.4262863666e+01    0.2088309    0.1195116  61.06  0.001033161    2.281    0.562
         9 -10.0257     35.0261      5.9846   7.5458036345e+01   7.0266800382e+01    0.1545858    0.1494279 -26.25  0.001127283    1.711    0.415
        10  -9.6403     24.4681      4.9551   8.0300416478e+01   7.1706297828e+01    0.1388189   0.09674595 -50.94 0.0008091139    2.499    0.600
        11 -10.5649    169.5012      2.4931   3.9264722540e+01   4.2119752342e+01    0.1306295    0.1135836  79.81 1.806781e-05    1.004    0.004
        12 -10.8702    161.1865      2.6092   4.0327595313e+01   4.4150110515e+01    0.1981297   0.09974581  59.52 0.0009102702    1.698    0.411
        13  -9.5208    139.6545      2.6875   4.3416109208e+01   4.9418509742e+01    0.1424986   0.08369991  40.78 0.0007046533    1.710    0.415
        14  -9.6357     79.9506      2.0000   5.6107972726e+01   6.3019539848e+01    0.2055197    0.0633219  55.60 0.0006637725    2.932    0.659
        15 -11.6649     97.1462    187.8417   1.0448398434e+02   2.2881932566e+01     0.544244    0.1914893  45.72  0.002018404    2.748    0.636
        16 -10.4408    110.2570    186.7033   1.0120774544e+02   2.1026075382e+01    0.3443528    0.1824522  70.50  0.001145052    3.929    0.745
        17 -10.5318     13.3410    184.9475   1.2329183846e+02   3.3761656803e+01     0.194811    0.1758937  42.37  0.001135523    1.369    0.270
        18 -10.8585     78.3819    176.6414   1.0739148602e+02   2.8250818936e+01    0.4663115    0.1407011  47.04    0.0015739    3.487    0.713
        19 -10.0914    148.4676    181.5099   9.1343070632e+01   1.5407847417e+01    0.1441785    0.1365967  40.05 0.0001120448    1.041    0.039
        20  -9.8083    135.4960    172.5096   9.2696695712e+01   1.9721330458e+01     0.146689    0.1400303  54.37 0.0002004783    1.044    0.042
        21 -10.2143    122.7325    170.5689   9.5435098855e+01   2.2475198643e+01    0.3304564    0.1899496  66.83  0.001211044    2.912    0.657
        22 -10.2170     55.9752    170.4857   1.1208168101e+02   3.2668352475e+01    0.1997234   0.08632853  53.86 0.0008104249    2.606    0.616
        23 -10.2547    101.3558    167.2335   1.0017939644e+02   2.6922039025e+01    0.4392963    0.1539608  50.56   0.00136395    3.727    0.732
        24 -10.2997    139.9661    165.8402   9.0319815856e+01   2.0342776310e+01    0.3694721    0.1849191  58.40  0.001247154    3.156    0.683
        25 -10.3908     80.7487    165.0931   1.0508443193e+02   3.0634952284e+01    0.4231094     0.206688  66.50  0.001425649    3.720    0.731
        26 -10.4978     93.9674    161.1293   1.0101842725e+02   2.9560462359e+01    0.3587264    0.1580127  54.69  0.001245124    3.090    0.676
        27  -9.9535      9.6758    161.3642   1.2231480282e+02   3.9404779560e+01    0.1316756   0.07204942  68.94 0.0007039635    1.791    0.442
        28 -10.4944    107.0410    158.9187   9.7227640723e+01   2.7917964250e+01    0.4719641    0.2046619  52.08  0.001644722    2.888    0.654
        29  -9.6697    219.1737    156.1918   7.1075571448e+01   6.8348731404e+00    0.1760231    0.1678626 -59.16 0.0003776985    1.297    0.229
        30 -10.6773     83.1002    155.7718   1.0295181427e+02   3.2528401513e+01    0.3822106    0.1937886  54.24   0.00154236    2.356    0.575
        31 -10.8524     50.5859    155.8162   1.1154923145e+02   3.6825538559e+01    0.3539701    0.1628143  54.13  0.001495224    2.533    0.605
        32 -10.3119    120.2617    156.1641   9.3285389622e+01   2.6213551529e+01    0.3041508     0.189713  62.62  0.001243947    2.137    0.532
        33 -10.5198     68.8978    154.6673   1.0655006942e+02   3.4817564499e+01    0.3764546    0.1934464  58.70  0.001542592    2.481    0.597
        34 -10.4695    134.6886    154.1758   8.9220722639e+01   2.3949828903e+01     0.387229    0.1972664  54.30  0.001419219    2.469    0.595
        35 -10.0670     99.3406    151.5834   9.7865481292e+01   3.0966311066e+01    0.2926072    0.1108798  49.10 0.0009566389    3.172    0.685
        36 -10.0809     29.5116    150.8546   1.1640792268e+02   4.0210984087e+01    0.3173672    0.1303885  69.19  0.001095942    4.191    0.761
        37 -10.7797     40.4376    148.4567   1.1325012700e+02   3.9722526911e+01    0.4711602    0.1841651  51.10  0.001874588    3.045    0.672
        38 -11.3663    108.8766    146.6399   9.4335249534e+01   3.0505217328e+01    0.6951389    0.3417959  59.26  0.002286751    3.375    0.704
        39 -11.3476     57.2316    146.6069   1.0845029671e+02   3.8286876543e+01    0.6055174    0.2920893  59.98  0.002371989    2.911    0.656
        40 -11.4494    150.7260    146.2502   8.3527949946e+01   2.2518254897e+01    0.6285492    0.3286644  59.77  0.002134257    3.015    0.668
        41 -10.0570     78.9981    147.5197   1.0262812973e+02   3.5143895253e+01    0.2113324    0.1064834  55.91 0.0008098497    2.564    0.610
        42 -10.2447     13.7825    146.5978   1.1998808738e+02   4.2549799010e+01    0.1638562     0.101932  45.57 0.0008128122    1.709    0.415
        43 -10.9462    126.0383    144.0488   8.9246605029e+01   2.7934134151e+01    0.4473436    0.2847475  80.43  0.001580985    3.081    0.675
        44 -10.8886     89.7480    144.8665   9.9183265279e+01   3.4151749599e+01     0.476612    0.2116074  46.46  0.001821106    2.431    0.589
        45 -10.9266    197.2393    143.2915   7.2461519835e+01   1.3493451624e+01    0.2789494    0.2532077 -30.00 0.0006316123    1.067    0.063
        46  -9.6658      3.3400    142.6672   1.2226583696e+02   4.4211126088e+01    0.1278265   0.07397868  68.47 0.0007051533    1.748    0.428
        47 -10.8842     24.3570    138.9992   1.1638569767e+02   4.3525145204e+01    0.5191073    0.2084838  58.81  0.002008833    3.560    0.719
        48  -9.7126    173.6686    139.3500   7.6568991718e+01   1.9193366013e+01    0.1571263    0.1248846 -83.84 0.0007047993    1.772    0.436
        49  -9.9796    181.0054    135.2248   7.3970958927e+01   1.8471996524e+01    0.2099313    0.1263346  44.72 0.0008860562    1.699    0.411
        50 -11.0741    114.6457    134.5098   9.0155390695e+01   3.2328931333e+01    0.4961084    0.2299529  57.93  0.001492487    3.843    0.740
        51 -11.2938     85.1717    132.7778   9.8077686758e+01   3.7821625412e+01    0.6479574    0.3035701  51.76   0.00239761    2.736    0.634
        52 -10.6856    144.9256    132.8481   8.1822736830e+01   2.6670113506e+01    0.3548616    0.2064931  57.36  0.001365545    2.164    0.538
        53 -11.2604    134.4259    132.7304   8.4469553835e+01   2.8866484777e+01    0.5304293    0.2721907  46.90  0.002042294    2.024    0.506
        54 -10.7156    154.2759    130.8525   7.9036374901e+01   2.5125513891e+01    0.3540434    0.2532074  76.89  0.001458381    2.122    0.529
        55 -11.3886    101.1468    129.5456   9.2798255414e+01   3.5959257719e+01    0.6829679    0.3749787  57.09  0.002597351    2.489    0.598
        56 -10.9561     74.5651    130.2694   1.0066029551e+02   4.0023041897e+01    0.4072523    0.1953954  52.11  0.001557445    2.693    0.629
        57 -10.7431     13.6654    130.0080   1.1826018348e+02   4.6516884995e+01    0.3847623    0.1884907  64.32   0.00180109    2.550    0.608
        58 -10.4145    170.1262    130.6636   7.5276750448e+01   2.1744819292e+01    0.3161582    0.1431299  52.96  0.001091766    2.601    0.616
        59  -9.6294      2.3245    130.6391   1.2141508090e+02   4.7103514618e+01    0.1283454   0.07541484  70.53 0.0007042295    1.783    0.439
        60 -11.1414    120.6905    127.1120   8.6775743948e+01   3.2902352074e+01    0.6982068    0.2990445  54.55  0.002130824    3.554    0.719
        61 -11.3194     60.6617    125.3125   1.0383711029e+02   4.3113772073e+01    0.6482247    0.3581892  66.06  0.002548483    2.918    0.657
        62 -11.5542     45.1297    124.1251   1.0830286869e+02   4.5201929374e+01    0.7450206    0.3945185  69.41  0.002956013    3.090    0.676
        63 -10.9468    180.9876    125.7339   7.1663883886e+01   2.0379348910e+01    0.3557014    0.1917757  61.23  0.001283758    2.657    0.624
        64 -11.0525    160.2086    122.6213   7.5565470053e+01   2.5593421256e+01    0.4789499    0.2662492  63.87   0.00165618    2.853    0.649
        65 -11.7470     29.4081    123.0428   1.1283355297e+02   4.6972977907e+01    0.8511209     0.383731  68.28  0.002982215    4.293    0.767
        66 -11.6526    143.8826    120.3251   7.8970313895e+01   2.9648918289e+01    0.6059985    0.3486016  49.38  0.001965696    1.827    0.453
        67 -10.3626     72.4631    121.0076   9.9397529181e+01   4.2594302103e+01    0.3736365    0.1890115  48.55  0.001525259    2.358    0.576
        68 -10.7527    132.5935    119.8942   8.1781839840e+01   3.2140219864e+01    0.5523136    0.2759234  58.42  0.001822462    3.026    0.670
        69 -10.8415      3.8855    118.1765   1.1967702992e+02   4.9959393822e+01    0.3991205     0.197972  65.72  0.001941427    2.529    0.605
        70 -11.2330    110.5709    115.5835   8.6759253767e+01   3.7534244128e+01    0.5428342    0.3741576  85.96  0.002143883    2.470    0.595
        71 -11.1889     80.5848    114.0854   9.5365129202e+01   4.3074402143e+01    0.6067472      0.36804  65.77    0.0023915    2.691    0.628
        72 -11.5179     95.5879    113.8982   9.0740293961e+01   4.0660530969e+01    0.7801337    0.3022403  44.58  0.002702384    2.833    0.647
        73 -10.7479    123.6486    113.6521   8.2582041407e+01   3.5390690116e+01    0.3908838    0.2380776  55.64  0.001578578    1.969    0.492
        74 -10.3719    176.2746    113.0034   6.9457454308e+01   2.3966261404e+01    0.2897299    0.2070148  64.10  0.001286715    1.678    0.404
        75 -10.3828    160.7708    113.0076   7.2948049781e+01   2.7473827584e+01    0.2322386    0.1823283  74.20  0.001052834    1.611    0.379
        76 -10.8982     67.9751    111.8881   9.8819123935e+01   4.5438200078e+01    0.4695609    0.2580068  51.86  0.001983346    2.346    0.574
        77 -10.9487     14.7861    111.3701   1.1557566503e+02   5.0909745524e+01    0.4134674    0.2245768  77.36  0.001981158    2.383    0.580
        78 -10.2262    134.3410    110.3361   7.8817039842e+01   3.3884882974e+01    0.3159008    0.1900696  64.19  0.001163153    2.471    0.595
        79 -11.8258     47.1670    103.7793   1.0383311843e+02   4.9943426682e+01    0.8661042    0.4391852  62.46  0.003077698    4.043    0.753
        80 -11.7960     24.0422    103.4359   1.1141542082e+02   5.2149092010e+01    0.7486008    0.3747221  64.89  0.003062092    3.417    0.707
        81 -11.3856    141.8605    105.8871   7.5656295141e+01   3.3200988075e+01    0.5681077    0.2794513  58.72  0.001904522    2.861    0.651
        82 -11.1189    151.2930    104.2963   7.2868432335e+01   3.1416599775e+01    0.3809504    0.2334484  61.21  0.001508893    2.035    0.509
        83 -11.1565    130.8452    103.3869   7.7851690491e+01   3.6141927815e+01    0.5420665    0.2574989  51.68  0.001945423    2.379    0.580
        84 -10.5512      7.3459    103.7226   1.1683396015e+02   5.3183966676e+01    0.2551878    0.1739627  69.80  0.001484785    1.700    0.412
        85 -11.8205    112.1961    100.9133   8.2388194530e+01   4.0547505859e+01     0.977792    0.4593554  57.23  0.003084323    3.543    0.718
        86 -10.3914    161.2157    102.3812   6.9993580710e+01   2.9532240111e+01    0.2258665    0.1501931  59.99 0.0009528553    1.717    0.418
        87 -10.5002     83.2610    100.9714   9.1289185762e+01   4.5756876765e+01    0.4374892    0.2598691  62.13  0.001683709    2.815    0.645
        88 -11.4135     65.5370     97.3699   9.6202049849e+01   4.9231709167e+01    0.6749141    0.3567333  55.95  0.002581195    3.116    0.679
        89 -10.8444     97.3412     98.0837   8.6068288899e+01   4.4004397893e+01    0.5546294     0.220414  39.58  0.001978698    2.618    0.618
        90  -9.9325    179.3245     94.3326   6.3865747607e+01   2.6855328655e+01    0.1586807    0.1214063  10.38 0.0007050799    1.708    0.414
        91 -10.3090    166.0007     95.0000   6.6880146301e+01   2.9864410075e+01    0.2595857   0.08885629  50.82 0.0008060679    2.968    0.663
        92 -11.0696    141.3036     93.5939   7.2339525339e+01   3.5871283641e+01    0.4870577    0.2692446  55.32  0.001897778    2.029    0.507
        93 -11.2910    127.4213     92.3649   7.5635466829e+01   3.9210811784e+01    0.7138033     0.329723  53.03  0.002524909    2.522    0.603
        94 -10.9349      7.3800     92.8739   1.1523959063e+02   5.5726711843e+01    0.4877058     0.176705  30.92  0.002263013    3.161    0.684
        95 -11.5466     35.3535     90.5228   1.0507469877e+02   5.4265258584e+01    0.4531445    0.2784855  84.13    0.0019146    2.623    0.619
        96 -10.0126    152.7826     90.3751   6.8597209622e+01   3.3860601717e+01    0.2253216    0.1435557  40.89  0.000951241    1.632    0.387
        97 -11.3227     89.0292     88.4818   8.5979655276e+01   4.7615482423e+01    0.7142525     0.352324  53.88  0.002553695    3.088    0.676
        98 -11.3146     50.2930     86.0392   9.8667487915e+01   5.3768127283e+01    0.6085274    0.3518913  59.30  0.002540089    3.034    0.670
        99  -9.5127     20.6186     88.2960   1.0985810214e+02   5.5974107920e+01    0.1241195    0.0908869  67.44 0.0007020476    1.760    0.432
       100 -11.2738    107.9329     85.2219   7.9085204691e+01   4.4772487476e+01    0.7530937    0.3576044  53.16  0.002704372    2.703    0.630
       101 -10.5572    160.2547     84.1601   6.5088341646e+01   3.3271907015e+01    0.2985703    0.1883107  63.52  0.001243746    1.842    0.457
       102 -10.7790    143.1201     84.1896   6.9124150404e+01   3.7307215887e+01    0.4599663    0.2087663  55.86   0.00161195    2.517    0.603
       103 -11.3088     25.7834     81.4703   1.0658293202e+02   5.7167574191e+01    0.4827833    0.3091207  59.86  0.002495676    2.304    0.566
       104 -10.1004    120.7478     81.8550   7.4322645326e+01   4.2789694456e+01    0.2850139    0.2065236  75.19  0.001146785    2.046    0.511
       105 -10.5963     75.7131     81.5802   8.8415284150e+01   5.1321195869e+01    0.3324476    0.2326653  64.36   0.00151451    2.220    0.550
       106 -10.8542     11.1107     81.7206   1.1204134535e+02   5.8096117858e+01    0.4294541    0.1622317  36.42  0.001938167    3.273    0.694
       107 -10.3384    151.7473     81.4465   6.6234569111e+01   3.5799402293e+01     0.295961    0.1533792  56.14  0.001132349    2.063    0.515
       108  -9.8456    158.9865     77.4772   6.3421100893e+01   3.4791056614e+01    0.2433473     0.149871  52.61  0.001041404    1.619    0.382
       109 -10.8404    130.3867     76.9781   7.0179480451e+01   4.1602181504e+01    0.5192845    0.2576229  56.65  0.001921949    2.371    0.578
       110 -10.1608    142.7039     76.4471   6.6887607946e+01   3.8857200578e+01    0.3817143    0.1459326  49.08  0.001298588    2.565    0.610
       111 -11.0148     84.2324     74.3320   8.3263118888e+01   5.1452667083e+01    0.5613587    0.3370098  60.22  0.002228915    2.840    0.648
       112 -10.1081    117.2986     73.6002   7.2696557838e+01   4.5137575012e+01    0.2977231    0.1459502  51.82  0.001133794    2.222    0.550
       113 -10.2322    107.6976     72.9649   7.5300802308e+01   4.7280715919e+01    0.3760231    0.1827531  53.72  0.001396775    2.544    0.607
       114 -10.5972     96.6076     72.6298   7.8633358422e+01   4.9544781506e+01    0.3895638    0.2971767  76.05  0.001809512    2.039    0.510
       115 -10.1013     43.6861     73.4027   9.7791914721e+01   5.7333431749e+01     0.279368    0.1504664  41.27  0.001324519    2.308    0.567
       116 -10.1557      7.5876     73.2464   1.1174487521e+02   6.0204777235e+01    0.2713215     0.136957  41.01  0.001396234    2.650    0.623
       117 -10.1340    164.7212     72.4360   6.0712582909e+01   3.4284096027e+01    0.2962793    0.1507921  60.18  0.001140869    2.120    0.528
       118 -10.9148     52.8478     70.9720   9.3578229676e+01   5.6806943330e+01    0.5199378    0.3798927  69.79  0.002584809    2.306    0.566
       119 -11.0538     17.6210     70.8250   1.0733557519e+02   6.0153071103e+01    0.2897275    0.1993694  46.23  0.001664647    1.934    0.483
       120 -10.3699    140.4539     67.4976   6.4652895950e+01   4.0982948456e+01    0.2826632    0.1493992  64.32  0.001040312    2.471    0.595
       121 -10.1654    123.5794     67.2830   6.8901484591e+01   4.4919263926e+01    0.3768035    0.1944463  56.84  0.001456711    2.241    0.554
       122 -10.7978     38.8593     65.4965   9.7457916295e+01   5.9544078793e+01    0.4077029    0.2316761  47.14  0.001946535    2.567    0.610
       123 -10.5981    148.7044     69.1138   6.3214539504e+01   3.8734861030e+01    0.3719479    0.2039345  61.79  0.001468915    2.080    0.519
       124 -10.4135    112.4263     65.0921   7.1299404155e+01   4.7758737898e+01    0.4562306    0.2090037  56.58  0.001612385    2.862    0.651
       125 -10.2816    101.7776     61.7007   7.3331646765e+01   5.0589305359e+01    0.3525286    0.2519338  86.04   0.00146248    2.719    0.632
       126 -11.0250     75.7015     60.8007   8.1742092788e+01   5.5574785508e+01    0.5705516    0.2688549  47.39  0.002306279    2.647    0.622
       127 -10.5125     26.8708     60.3862   1.0092520556e+02   6.1730532943e+01    0.3689512    0.1710006  41.56  0.001677221    3.059    0.673
       128 -10.2011    132.3424     58.8829   6.3862692050e+01   4.4346182693e+01    0.2755848    0.2034136  61.81  0.001325616    1.460    0.315
       129 -11.1807      9.0678     58.2693   1.0789386378e+02   6.3401499361e+01    0.3851956    0.2614146  42.11  0.002355528    2.002    0.500
       130 -10.4718    121.4365     57.2980   6.6145897027e+01   4.7119643625e+01    0.4362999    0.2353364  59.80  0.001751004    2.206    0.547
       131  -9.9837    141.1543     57.3752   6.1255737049e+01   4.2497378381e+01    0.2159681    0.1410198  65.50  0.000952268    1.721    0.419
       132 -10.6987     55.1427     55.1128   8.7567907232e+01   5.9746377519e+01    0.4340095    0.3034798 -75.12  0.002012642    2.756    0.637
       133 -10.6801     45.5298     56.5933   9.1976242129e+01   6.0657587195e+01    0.3221784    0.2526533  62.40  0.001794177    2.026    0.506
       134 -10.6644     64.0742     55.7288   8.4283177029e+01   5.8366163202e+01    0.3363803    0.2428949  43.15   0.00181531    1.635    0.388
       135 -10.2285    107.7218     54.6745   6.9080689591e+01   5.0568832591e+01    0.3449291    0.2290029  71.35  0.001461917    2.407    0.585
       136 -10.9820     33.0172     52.7355   9.6004054882e+01   6.2758129201e+01    0.4606534     0.271293  46.56  0.002310021    2.589    0.614
       137 -10.4767     21.7769     53.4082   1.0110981713e+02   6.3589932057e+01    0.3187198    0.1669477  34.12   0.00167924    2.348    0.574
       138 -10.9123     94.5763     51.8765   7.2104786859e+01   5.3738815421e+01    0.5225239    0.2562279  52.59  0.002116817    2.408    0.585
       139  -9.8512    114.0271     48.1702   6.4975144191e+01   5.0236330285e+01    0.2307634    0.1739886  83.84  0.001086255    1.973    0.493
       140 -10.3642     83.5077     47.7620   7.4247129859e+01   5.6541226245e+01    0.3841109    0.2174291  57.25  0.001611717    2.649    0.623
       141  -9.9797    124.3699     46.7553   6.1753378533e+01   4.8098771285e+01    0.2781612    0.1801052  64.49  0.001266831    1.770    0.435
       142 -10.5012     45.9745     45.5092   8.7913740592e+01   6.2734267571e+01    0.2414105     0.217846  51.24  0.001402331    1.570    0.363
       143 -10.8407     18.3353     45.6974   1.0032697194e+02   6.5405650057e+01    0.3486888    0.2040661  30.28  0.002009371    2.051    0.512
       144 -10.4981     59.3387     43.6376   8.1660016287e+01   6.1261039043e+01    0.3168267     0.248129  67.61  0.001674297    2.287    0.563
       145 -11.1063      6.0928     42.5505   1.0509019352e+02   6.6809322190e+01    0.3859318      0.26992  89.52  0.002262173    2.312    0.568
       146  -9.7241    134.4802     44.0000   5.8377479837e+01   4.6111095891e+01    0.3157155   0.07897589  56.46 0.0009185034    3.805    0.737
       147 -10.2139    107.8586     42.7939   6.4744241918e+01   5.2401883972e+01    0.3257889    0.1918688  57.70  0.001467039    1.883    0.469
       148 -10.6138     71.1339     42.8290   7.6776983301e+01   5.9536850466e+01    0.3880782    0.2407861  52.69  0.001859956    2.202    0.546
       149 -10.5526     38.0714     41.4659   8.9867016338e+01   6.4400310667e+01    0.2836708    0.2128872  44.35  0.001507112    1.858    0.462
       150 -10.1527     97.2834     39.3166   6.6539779358e+01   5.5157487677e+01     0.298702    0.1801762  56.85  0.001384906    1.914    0.477
       151  -9.8806     81.7835     37.6025   7.0882646353e+01   5.8468311225e+01    0.1881289    0.1271168  52.13 0.0009539948    1.727    0.421
       152 -10.7575     27.5566     36.6360   9.2904436352e+01   6.6362824333e+01     0.254639    0.2076398  33.11  0.001683533    1.582    0.368
       153 -10.2322    113.4153     36.0790   6.0745704546e+01   5.2112774351e+01    0.2879292    0.1960035  75.75  0.001330513    2.078    0.519
       154 -10.6719     62.4067     33.5888   7.6380415112e+01   6.2437871856e+01    0.3603984    0.2358104  54.01  0.001818496    2.279    0.561
       155 -10.5170     51.2100     33.6952   8.1025216036e+01   6.4095635645e+01    0.3165451     0.213426  49.98  0.001686663    2.202    0.546
       156  -9.7358    120.9897     34.0000   5.8071683261e+01   5.0649814605e+01    0.2398809   0.07562556  56.19 0.0008075215    2.978    0.664
       157 -10.6053     74.2651     32.3198   7.1367413608e+01   6.0621616639e+01    0.3654832    0.2079181  55.29  0.001673067    2.439    0.590
       158 -10.7270     13.7645     31.0726   9.7609150787e+01   6.8530381267e+01    0.2902417    0.2361966 -86.04  0.001798864    2.102    0.524
       159  -9.9421    103.1285     30.2631   6.1327977303e+01   5.5151296718e+01    0.2659868    0.1639953  55.25  0.001298542    1.633    0.388
       160 -10.4854     83.1111     28.7784   6.6828653947e+01   5.9465308182e+01    0.3613537    0.2466218  74.71  0.001632649    2.854    0.650
       161 -10.1316    166.3276    249.0038   9.8368590340e+01   3.6096824367e-01    0.1825992   0.08920451 -23.84 0.0007051421    4.339    0.770
       162  -9.8303     40.1778     25.3974   8.2363373017e+01   6.6879231111e+01    0.1596624     0.109527  36.56 0.0009452216    1.710    0.415
       163 -10.9030     50.6502     22.2060   7.6247294367e+01   6.5923406903e+01    0.4016767    0.1866936  43.37  0.001918288    2.457    0.593
       164 -10.4762     64.8367     21.6261   7.0228953212e+01   6.3742726765e+01    0.3083469    0.2252936  61.35  0.001677701    2.147    0.534
       165  -9.4293     34.3528     22.6894   8.3909400906e+01   6.8009040776e+01    0.1026473   0.09996513  68.06 0.0004578705    1.724    0.420
       166 -10.0692     20.7454     22.1632   9.0498604596e+01   6.9515530144e+01    0.1631869    0.1327076  74.12 0.0009531667    2.799    0.643
       167 -10.5295     75.6915     20.4128   6.5753910091e+01   6.1947001134e+01    0.3991798    0.2158254  56.61  0.001864625    2.352    0.575
       168 -10.1106     40.2925     18.9094   7.9357361229e+01   6.7837382680e+01    0.2004751    0.1622274  28.01  0.001332444    1.404    0.288
       169  -9.9914     89.7506     18.4121   6.0390300545e+01   5.9402681615e+01    0.2498356    0.1229864  55.84  0.001134555    2.084    0.520
       170 -10.2499     31.4783     16.9711   8.2687624813e+01   6.9213277849e+01    0.2072472    0.1615182  35.62  0.001366794    1.678    0.404
       171  -9.9116     98.4509     16.1157   5.6978962055e+01   5.7806020499e+01    0.2584748    0.1760811  73.18  0.001314241    1.944    0.486
       172  -9.7093      8.5141     15.9939   9.4454318734e+01   7.1542943975e+01    0.1335545   0.09900069 -70.27 0.0008088002    2.439    0.590
       173 -10.3713     93.3797     27.7447   6.3156926208e+01   5.7540645010e+01    0.3776367    0.2415982  70.98  0.001712709    2.497    0.600
       174  -9.8863     18.1884     14.7775   8.8567241429e+01   7.0938571203e+01    0.1562185    0.1302867  70.72 0.0009491853    2.794    0.642
       175  -9.6896    237.6807    239.6880   8.3606967896e+01  -8.7579449072e+00    0.1231533    0.0736809   4.74 0.0004079773    1.647    0.393
       176  -9.7792     73.6467    229.3124   1.1452534557e+02   1.7582626307e+01    0.1326876    0.0749875  62.71  0.000704505    1.730    0.422
       177 -11.3522    162.9553    225.7720   9.5678815636e+01   4.5630706292e+00    0.4234199    0.2451595  30.95   0.00217165    1.578    0.366
       178 -10.0578     99.8168    226.1517   1.0885851595e+02   1.4499757696e+01    0.1579037    0.1497022  12.24 0.0004385878    1.302    0.232
       179 -10.8342    126.0725    220.9260   1.0268302612e+02   1.1435971002e+01    0.2019358    0.1742768  52.95 0.0005884049    1.080    0.074
       180  -9.6517    131.4814    214.4842   1.0061657571e+02   1.1779677943e+01    0.1334014    0.1193219  35.53 0.0008095313    1.057    0.054
       181  -9.9851     89.0438    199.2470   1.0792352506e+02   2.1606165160e+01    0.2328968    0.1300401  60.59  0.001077864    1.997    0.499
       182  -9.8918    126.6342    197.1844   9.9063846500e+01   1.6035512058e+01    0.1905649    0.1268211 -42.96 0.0009429289    1.698    0.411
       183 -11.5375    173.0036    195.9467   8.8567405700e+01   8.1121595253e+00    0.2492473     0.193553  36.05  0.000876742    1.198    0.165
       184  -9.9632     67.3458    195.6793   1.1239592272e+02   2.5433388807e+01    0.1412807     0.085142  66.16 0.0007049551    1.732    0.423
       185 -10.5040    139.7767    190.5844   9.4970921726e+01   1.5110434570e+01      0.21386    0.1229428  48.50 0.0009533527    1.748    0.428
       186 -10.3198    156.6438    188.1697   9.0721451132e+01   1.2556457950e+01    0.2056755    0.1779934  45.20  0.001139135    1.147    0.128
