#   1 NUMBER                 Running object number                                     
#   2 MAG_AUTO               Kron-like elliptical aperture magnitude                    [mag]
#   3 X_IMAGE                Object position along x                                    [pixel]
#   4 Y_IMAGE                Object position along y                                    [pixel]
#   5 X_WORLD                Barycenter position along world x axis                     [deg]
#   6 Y_WORLD                Barycenter position along world y axis                     [deg]
#   7 A_WORLD                Profile RMS along major axis (world units)                 [deg]
#   8 B_WORLD                Profile RMS along minor axis (world units)                 [deg]
#   9 THETA_WORLD            Position angle (CCW/world-x)                               [deg]
#  10 FWHM_WORLD             FWHM assuming a gaussian core                              [deg]
#  11 ELONGATION             A_IMAGE/B_IMAGE                                           
#  12 ELLIPTICITY            1 - B_IMAGE/A_IMAGE                                       
         1 -12.3214    126.2967     28.7242   3.1733236112e+01   4.8935491562e+01    0.6097623    0.4397714  60.39   0.00343386    1.230    0.187
         2 -12.5862    119.8688     37.6726   3.5992035330e+01   4.9365386223e+01    0.8454267    0.5157334 -55.45  0.003153492    2.343    0.573
         3 -11.0556      5.0113     36.6266   7.7469600957e+01   6.7423120700e+01    0.5214135     0.261458 -44.29  0.002745653    1.599    0.374
         4 -12.5195    160.0531     29.8035   2.5810131796e+01   4.0799765154e+01    0.4356927    0.4061765 -11.85 0.0005684622    1.319    0.242
         5 -11.3998    113.9982      2.4829   2.5935391940e+01   5.4148191090e+01    0.5018485    0.2390374  71.75  0.002377862    2.205    0.546
         6 -12.3612    104.9466     12.5543   3.1176131272e+01   5.5323321082e+01    0.5572053    0.3796847 -22.23  0.002109752    1.713    0.416
         7 -12.2586    105.9082     20.9386   3.3801664988e+01   5.4330835195e+01     0.343701    0.3117326  81.10 0.0008717309    1.314    0.239
         8 -11.7662     26.6385     28.0761   6.4180706168e+01   6.6904307996e+01    0.4998921    0.2733166 -35.08  0.002268546    1.657    0.396
         9 -12.1423     20.2314     22.0410   6.4727533865e+01   6.8421210040e+01    0.4824413    0.2550423 -28.79  0.001830142    1.623    0.384
        10 -11.7404     36.2267     18.9647   5.6122079746e+01   6.6980740205e+01    0.6717973    0.3467011 -30.04  0.003891737    1.859    0.462
        11 -11.9686     48.3160     12.9718   4.8544547174e+01   6.5951474603e+01     0.594217    0.2604789  41.42  0.003120497    2.056    0.514
        12 -10.2137     87.2593      7.3240   3.3649317813e+01   5.9476815067e+01    0.5396164    0.2561671  54.17  0.002106776    1.752    0.429
        13 -10.9152     90.6883     22.4796   3.8288418109e+01   5.7378883906e+01    0.4143915     0.276546 -16.91  0.002117566    1.665    0.400
        14 -11.3035     85.9047     14.0659   3.6522285640e+01   5.9165190853e+01     0.416746    0.2987721 -15.52  0.001485031    1.542    0.351
        15 -10.9599    121.3066     11.7777   2.7459501959e+01   5.1752827627e+01    0.4268713    0.3561861  23.06  0.002365899    1.307    0.235
        16 -11.5688    135.5480     22.4937   2.8001128116e+01   4.7442100769e+01    0.8954766    0.3317483  52.05  0.003784392    2.211    0.548
        17 -10.1732    127.1556     11.7153   2.6328169770e+01   5.0421166112e+01    0.2940599    0.1866149  78.58  0.001300049    1.689    0.408
        18 -11.0315    127.6299     16.2541   2.7621651883e+01   4.9899312589e+01    0.5496318    0.2180475  52.73  0.002468063    2.003    0.501
        19 -10.6748    134.6139     14.7891   2.5896190603e+01   4.8415095844e+01    0.9821963     0.210594  58.55   0.00346511    3.214    0.689
        20 -10.9134    179.1404     20.6327   2.0730008212e+01   3.7265291091e+01    0.5111839     0.227083  44.04  0.002117646    3.067    0.674
        21 -11.7568     68.1661     18.4781   4.3647461042e+01   6.2092473815e+01     0.432451    0.3427088  20.56  0.001545274    1.025    0.024
        22 -12.5949    164.2325     18.5298   2.2220084953e+01   4.1034407288e+01    0.4718863    0.2568001  44.48  0.001523197    2.057    0.514
        23 -10.8919      6.0134     10.7082   6.7026587296e+01   7.1258442378e+01    0.4531188    0.3276706  19.63  0.003092914    1.526    0.345
        24 -10.2983     12.2813      8.3024   6.2703803670e+01   7.1000877142e+01    0.3309135    0.2481271 -55.24  0.001953436    3.054    0.673
        25 -11.9853     16.1913     14.1660   6.3351059120e+01   6.9878664356e+01    0.6110417    0.2949801 -14.16  0.003317532    2.247    0.555
        26 -11.6938     22.5771     11.3010   5.8976425030e+01   6.9561114015e+01    0.3966904    0.2287156   5.00  0.001856461    1.594    0.373
        27 -12.4630    227.6886     15.1906   1.4446665202e+01   2.6873058371e+01    0.7384261    0.3051265  85.14  0.001520273    2.540    0.606
        28 -12.2634    238.1760     15.9744   1.3726390055e+01   2.4574926430e+01    0.4385465    0.1857418  72.61  0.002279254    2.104    0.525
        29 -11.0783    105.7609      2.8353   2.7712906459e+01   5.5933144348e+01    0.3573973    0.2794164 -73.85  0.001453498    1.727    0.421
        30 -11.4186    192.6159      8.5628   1.6380379344e+01   3.5393825426e+01    0.5669736    0.3826161  13.63    0.0025017    2.889    0.654
        31 -11.2304    211.9893      8.7802   1.4551987430e+01   3.1002451099e+01    0.5299508     0.344884 -13.12  0.002906392    2.747    0.636
        32 -12.0322    247.3766      5.9670   1.1230999498e+01   2.3857166248e+01    0.3908698    0.3368922  15.03  0.002735679    2.245    0.555
        33 -11.1921    243.3386      2.8186   1.0953931969e+01   2.5015896296e+01    0.4072849      0.19289  56.18  0.002193415    2.692    0.629
        34 -11.4478    232.5597      7.1990   1.2531531976e+01   2.6747051839e+01    0.2905983     0.183099 -81.64  0.001308017    1.293    0.227
        35 -11.9880    233.9857      3.2024   1.1685584062e+01   2.6886412907e+01    0.4799431    0.2220972 -76.19  0.001006659    2.112    0.526
        36 -10.6761    169.5888      9.3373   1.9191028293e+01   4.0680050160e+01    0.4128373    0.1463156  56.54  0.001806084    2.371    0.578
        37 -10.1834    145.1624      9.8221   2.2726591341e+01   4.6395458281e+01    0.2022165    0.1617181  43.20 0.0005007306    1.298    0.230
        38  -9.9330     66.2457     10.4289   4.1036284643e+01   6.3223924764e+01    0.2790445    0.1075729  43.75  0.001287045    2.078    0.519
        39 -10.0103     62.3400      7.4451   4.1101140954e+01   6.4183583331e+01    0.2469432    0.1576642  16.16 0.0009492395    1.466    0.318
        40  -9.7771      1.2897      8.2661   6.8469129764e+01   7.1959428279e+01    0.1963334   0.07173933 -37.84  0.001090718    2.261    0.558
        41  -9.5599     78.0446      7.5387   3.6258500361e+01   6.1282104018e+01    0.1745521    0.1594349  52.08 0.0006122011    1.315    0.240
        42 -11.0482     74.6011      3.5279   3.5681253392e+01   6.2267612782e+01     0.542487    0.2027182  47.35  0.002649248    2.027    0.507
        43  -9.6489    185.1813      7.3023   1.6887474941e+01   3.7233577975e+01    0.1899468    0.1486627  63.05 0.0009032385    1.262    0.208
        44 -10.2477    183.5068      4.4974   1.6429325932e+01   3.7891795742e+01    0.2104226    0.1753013  26.45 0.0009976953    1.702    0.413
        45  -9.9043    157.5918      4.7951   1.9597342704e+01   4.3916662870e+01    0.3467152    0.1215947 -26.65  0.001502159    3.427    0.708
        46  -9.3768    153.0333      7.4633   2.0920542576e+01   4.4753647895e+01      0.19871   0.06795105  50.22 0.0008092427    2.703    0.630
        47 -11.0798    122.2233      5.1778   2.5234449549e+01   5.2093838415e+01    0.2101794    0.1847065  40.55 0.0004161959    1.159    0.137
        48 -10.7516    218.6648      4.0251   1.3029255000e+01   3.0046080128e+01    0.2725116    0.1947296 -48.17  0.001307884    1.442    0.307
        49 -11.4319    223.9482      2.6000   1.2331486922e+01   2.9061159766e+01    0.2900031     0.172469  74.41 0.0003161979    1.439    0.305
        50 -10.6714    176.7701      5.8788   1.7496473324e+01   3.9325144667e+01    0.3485695    0.1652169  76.90 0.0008589505    1.847    0.459
        51  -9.5048    163.1201      6.1128   1.9210318942e+01   4.2501108416e+01    0.1856656    0.1413881  58.01 0.0003639085    1.232    0.188
        52  -9.1228    147.6294      5.3268   2.1124328074e+01   4.6208035071e+01    0.1319242   0.08515422 -76.31 0.0007032223    1.818    0.450
        53 -10.1790     41.6627      3.9937   4.7212522029e+01   6.7844752349e+01    0.2825737    0.1505676  15.01  0.001071538    1.885    0.469
        54 -10.3334    206.8540      3.1640   1.3864261537e+01   3.2724332250e+01    0.3315164    0.1706908  57.13  0.001805095    2.010    0.503
        55 -10.0568    204.6739      1.6775   1.3752272124e+01   3.3357626492e+01    0.2070471    0.1124913  60.96 0.0007350792    1.755    0.430
        56 -11.5235    133.4253      2.6408   2.2549215716e+01   4.9730357725e+01    0.5135753    0.2482782  71.37  0.002537295    1.857    0.462
        57 -10.0742    141.4544      3.1606   2.1444560279e+01   4.7829194274e+01    0.2470522    0.1505499  66.46  0.001401185    1.318    0.241
        58 -10.9294      2.6814      1.8748   6.4797646655e+01   7.2655846674e+01    0.2774513    0.1390174   7.56  0.001597596    1.831    0.454
        59 -10.0259     13.2286      1.7491   5.9154016102e+01   7.1675280134e+01    0.2149381    0.1153878  22.73  0.001032741    1.597    0.374
        60  -9.8783    152.2750      1.3695   1.9418410305e+01   4.5451496428e+01    0.2192486   0.09416541  66.02 0.0003895501    1.815    0.449
        61 -10.2711     22.0603      3.2096   5.5483415071e+01   7.0537159003e+01    0.1817226    0.1312936 -12.83 0.0006786047    1.243    0.195
        62 -10.3946    215.7982    150.5637   4.5465032612e+01   6.9951796432e+00    0.3804643    0.1602374 -35.24   0.00137106    2.519    0.603
        63  -9.3955    188.4839    250.0254   7.0499491151e+01  -6.7115363738e+00    0.1830501    0.1269319 -38.80 0.0001601364    1.610    0.379
        64 -11.2298     50.1604    249.1553   9.9094781684e+01   1.5192844203e+01    0.5450937    0.2621891  70.45   0.00264204    2.267    0.559
        65  -9.1118    227.3189    150.6908   4.3367574875e+01   4.7597323927e+00     0.140429    0.1107934 -72.78 0.0003798431    1.640    0.390
        66 -10.8371     47.2770    146.5434   8.7619849968e+01   3.9794890353e+01    0.5551538    0.3559113 -32.74  0.002646733    1.928    0.481
        67 -10.7205     16.3822    147.9980   9.6432774679e+01   4.2484708450e+01    0.2469474     0.221228  72.83 0.0004201046    1.197    0.165
        68 -10.0432    239.6921    146.9435   4.0426450708e+01   3.1950311581e+00    0.2033611    0.1659458 -39.71 0.0008445592    1.069    0.065
        69 -11.2599    249.3441    144.1812   3.8282236008e+01   1.9986209571e+00    0.5075913    0.1849038 -45.22  0.001988517    2.421    0.587
        70 -11.1055      5.9226    142.0332   9.8511975977e+01   4.4721522349e+01    0.2869625    0.1941514 -84.66  0.001692911    1.325    0.245
        71 -11.0903      2.0238    140.1219   9.9333757035e+01   4.5440351301e+01    0.3747904    0.1784672 -72.26  0.001006847    1.667    0.400
        72  -9.4550      3.5658    147.3051   9.9736530841e+01   4.3614209986e+01     0.170829   0.09243696 -63.60 0.0005116269    1.457    0.314
        73  -9.9463     15.9100    141.1230   9.5673899335e+01   4.4204878403e+01    0.1924044    0.1551154  88.54 0.0004483334    1.210    0.173
        74 -10.2220    217.4944    138.8000   4.2550615769e+01   8.9862329528e+00    0.2661535     0.237927  88.89 0.0006048413    1.286    0.222
        75 -10.2983     79.3932    137.8852   7.6537073607e+01   3.7574047078e+01    0.2959296    0.2692145 -83.76  0.001588468    1.144    0.126
        76 -10.3278     40.0281    137.6744   8.8241636278e+01   4.2830738761e+01    0.2998039    0.2089553  83.34 0.0007378045    1.702    0.413
        77  -9.7628     39.3886    133.4505   8.7708494945e+01   4.3949166573e+01    0.2277226    0.1402269  24.05 0.0006275628    1.895    0.472
        78 -10.9990     22.8838    135.8206   9.2956859185e+01   4.4931294179e+01    0.5881462    0.3379566  39.97  0.003052317    1.985    0.496
        79  -9.9436     32.0580    137.7053   9.0583782878e+01   4.3632326227e+01    0.2691826    0.2361874  42.16 0.0009838046    1.303    0.232
        80 -10.7914     29.9544    133.1093   9.0467284788e+01   4.4967743735e+01    0.3740871    0.2253976 -46.70 0.0008019791    1.550    0.355
        81 -10.6646     12.1297    136.2455   9.6080970043e+01   4.5679645950e+01    0.4578196    0.2144955 -49.38  0.002236589    1.923    0.480
        82  -9.3861     47.4494    134.9969   8.5560980722e+01   4.2674610204e+01    0.2200556    0.1246358 -62.13 0.0009284033    1.564    0.361
        83  -9.6622     74.1268    146.1560   7.9778520040e+01   3.6300166950e+01    0.2263235    0.1917696 -34.18 0.0005149308    1.268    0.211
        84 -10.1983     73.4359    133.2426   7.7336442070e+01   3.9654517238e+01    0.3613102    0.2308148 -40.46  0.001632733    1.612    0.380
        85  -9.5961     62.6476    131.1661   8.0193577678e+01   4.1718414988e+01    0.2243263    0.1160187 -49.42  0.000945902    1.761    0.432
        86  -9.7466     93.1270    129.8376   7.0630790832e+01   3.7270137833e+01    0.2453926     0.216839  82.11  0.001243696    1.285    0.222
        87 -10.7990     10.3643    127.2661   9.5357296959e+01   4.7970216431e+01    0.4335538    0.2118245 -49.08  0.001891044    1.785    0.440
        88 -10.1410    103.9593    131.2698   6.7778434920e+01   3.4937103960e+01    0.2575457    0.2174962 -50.62   0.00114612    1.155    0.134
        89  -9.2379     26.6128    127.2791   9.0517603027e+01   4.6698711268e+01    0.1897807    0.1009451 -56.25 0.0003174293    1.535    0.349
        90  -9.4207     22.7656    127.0068   9.1635713481e+01   4.7093479393e+01    0.1788524    0.1418677 -65.01 0.0003031584    1.061    0.058
        91  -9.7590      2.0675    125.8721   9.7574810798e+01   4.8833476020e+01    0.1928126    0.1466653  85.12   0.00121497    1.360    0.265
        92 -10.8739     33.1759    144.2888   9.1281800862e+01   4.1885424457e+01    0.2746868    0.2449029 -76.35 0.0007941031    1.056    0.053
        93  -9.4707     78.2266    123.2262   7.3622349903e+01   4.1382329642e+01    0.2987746    0.1998137  64.59 0.0004833004    2.135    0.532
        94 -12.1536    103.8056    122.5543   6.5684648005e+01   3.7059919298e+01    0.3964747    0.3621846  28.82 0.0009344093    1.123    0.109
        95 -10.3022     49.6162    123.0984   8.2605323316e+01   4.5364323010e+01    0.2596074    0.2087717   1.21  0.001199379    1.451    0.311
        96  -8.9472     56.6476    122.3031   8.0211723522e+01   4.4695242074e+01    0.1436834    0.1090006  71.32 0.0007039956    1.704    0.413
        97  -9.2399    221.3226    120.6573   3.7830183271e+01   1.1728678418e+01    0.1516288    0.1078455 -71.61 0.0007050486    1.728    0.421
        98 -10.1015     48.7216    112.4426   8.0646110393e+01   4.8040735697e+01    0.5100243    0.2147055 -44.30  0.002059076    2.219    0.549
        99 -10.2531     44.6935    119.7097   8.3485991240e+01   4.6752409686e+01    0.2440517    0.2264436 -73.13 0.0007092117    1.127    0.112
       100 -10.3684     43.7014    116.3466   8.3119942060e+01   4.7673620567e+01    0.2758077    0.2170038 -60.16 0.0007347267    1.156    0.135
       101 -12.4743      2.6059    111.7367   9.5439362198e+01   5.2119438393e+01    0.5102037    0.3299229  77.72 0.0006037673    1.944    0.486
       102 -11.3749      4.2273    105.2678   9.3920108312e+01   5.3521651503e+01    0.4152245    0.3214962 -11.73  0.002724007    1.493    0.330
       103  -9.4982     58.2534    115.2113   7.8138428036e+01   4.6203224687e+01     0.294947    0.1788023 -81.27  0.001185726    2.624    0.619
       104  -9.9764     79.3932    114.6954   7.1201539052e+01   4.3241554300e+01    0.2898552    0.2695423 -35.59  0.001526757    1.009    0.009
       105  -9.5896     67.3266    114.6479   7.5061221060e+01   4.5093947987e+01    0.2269799    0.1737031  77.82  0.001093336    1.809    0.447
       106 -10.1153     66.8591    110.8648   7.4304665079e+01   4.6056228370e+01    0.2899774    0.2562224 -31.02 0.0009648928    1.074    0.069
       107  -8.9927     14.5771    119.2653   9.2897891188e+01   4.9587757183e+01    0.1262073   0.08833207  63.06 0.0003495042    1.787    0.441
       108 -11.1970     29.9736     97.1170   8.3652650584e+01   5.3530034546e+01    0.8470621    0.3509197 -43.28  0.003735434    2.115    0.527
       109 -11.7697      6.9003     88.7886   9.0081689658e+01   5.7075600233e+01    0.7775807    0.3731772  10.13  0.004022371    2.519    0.603
       110 -11.5791     25.3685    107.2348   8.7324193311e+01   5.1597910898e+01     1.444339    0.7344714  -3.00  0.006324298    2.975    0.664
       111 -10.8568     35.3790     92.8010   8.0746550842e+01   5.3993455571e+01    0.3811781     0.239089 -64.23  0.001282943    1.664    0.399
       112 -11.8171     27.6049     85.0883   8.1730399407e+01   5.6400453762e+01    0.6920213     0.502314   3.49  0.004131537    1.493    0.330
       113 -11.6643     10.0783     97.1208   9.0561176677e+01   5.5030646041e+01    0.6277911    0.4474491 -17.77  0.001674794    1.523    0.343
       114 -11.7586     44.3230     85.0621   7.5543279027e+01   5.4740215081e+01    0.4702193    0.3665824   9.24  0.001926127    1.338    0.253
       115 -10.5729     37.4263     86.0476   7.8338409007e+01   5.5268621090e+01    0.3404086    0.2173004  26.06    0.0010265    1.714    0.417
       116 -13.1750     17.6510    100.4610   8.8609913202e+01   5.3763321900e+01    0.3573089    0.3157286 -44.37  0.000542694    1.091    0.083
       117 -11.1716     22.9169     94.7562   8.5624028497e+01   5.4657535478e+01    0.3540143    0.2546406  -3.60  0.001121448    1.559    0.359
       118 -11.2259     18.2146     91.1521   8.6527507043e+01   5.5819189497e+01     0.379802     0.280245 -83.61  0.001387611    1.689    0.408
       119 -11.1770     21.3372    114.6394   9.0007480628e+01   5.0180168742e+01    0.4436773    0.2506468   6.33  0.002228239    2.315    0.568
       120 -10.8710     28.0443    113.4877   8.7639968690e+01   4.9896178402e+01    0.3398652     0.225853  -4.95 0.0009097549    1.886    0.470
       121  -9.6956     93.9898    112.5253   6.6077418626e+01   4.1243374964e+01    0.2932476    0.2184496 -65.56  0.001091872    1.566    0.361
       122  -9.9215    170.6643    110.6261   4.5221684710e+01   2.5020849186e+01    0.3373169    0.2416133 -42.09  0.001311232    1.390    0.280
       123 -11.6930     80.1875    108.2027   6.9301434042e+01   4.4627711635e+01    0.5482424    0.3319999  29.43 0.0008127987    1.779    0.438
       124  -9.6548    120.9153    108.6508   5.7099813522e+01   3.6773832628e+01    0.3325353     0.213552  22.16  0.001310142    2.097    0.523
       125 -10.4898    103.3491    108.3536   6.2120643324e+01   4.0431941562e+01    0.4830268     0.326869  10.79  0.001989161    2.097    0.523
       126 -10.5046     15.7533    108.4664   9.0721265431e+01   5.2050304432e+01    0.2649733    0.2335652  -1.48  0.001235103    1.317    0.241
       127  -9.5971    107.5852    112.2513   6.1904168207e+01   3.8717855385e+01    0.2292652    0.1442187 -37.39  0.000958356    1.659    0.397
       128  -9.7437    143.3300    106.0167   5.0428041177e+01   3.2351805174e+01    0.2907817    0.2269553  79.75  0.001307638    1.610    0.379
       129  -9.4521    118.4465    105.4996   5.6933981090e+01   3.7987651938e+01    0.1538407    0.1525588 -10.70  0.000109858    1.024    0.024
       130  -9.5950    182.5437    104.4834   4.1179065525e+01   2.3473677415e+01    0.1542535    0.1445166 -74.88 5.973626e-05    1.037    0.035
       131 -10.5539     85.5398    103.6229   6.6370614790e+01   4.4769630213e+01    0.2545157    0.2345932 -28.55 0.0005209704    1.026    0.025
       132  -9.3499     57.3232    103.6660   7.5722603267e+01   4.9035678205e+01    0.1382405    0.1112919  77.80 0.0007050577    1.708    0.414
       133  -9.7911     50.6967    102.3307   7.7657604674e+01   5.0171679688e+01     0.266249    0.1936924 -70.84 0.0007952678    1.604    0.376
       134 -10.7404     52.6537     98.2608   7.5983122227e+01   5.0859147235e+01    0.4814707    0.2325811 -43.96  0.001217025    1.862    0.463
       135  -9.8720     64.7355    101.9542   7.2783408741e+01   4.8419302429e+01    0.2952221    0.1996344 -41.75  0.000327707    1.363    0.266
       136 -12.0688     68.6856     95.8536   6.9832149074e+01   4.9208968162e+01    0.4061023    0.3150848  12.37 0.0004462831    1.378    0.275
       137  -8.7055    159.2564     99.6800   4.4921755985e+01   2.9922494706e+01    0.1545125    0.1204012 -74.91 0.0002762132    1.541    0.351
       138  -9.3748    210.1262     98.1042   3.4584100055e+01   1.8368854076e+01    0.2038012    0.1633392 -76.10 0.0005030825    1.299    0.230
       139 -10.2187     81.0001     98.0128   6.6309535548e+01   4.6785638995e+01      0.21262    0.2089932  85.94 0.0005069129    1.174    0.148
       140 -11.5580     80.9071     93.3665   6.5038369651e+01   4.7807870790e+01    0.7585826    0.4679197  34.40  0.001474117    1.659    0.397
       141 -10.4723     43.0987     94.7305   7.8460922848e+01   5.2764514129e+01    0.3793329    0.2957694 -32.73  0.002194173    1.158    0.136
       142 -10.3236     49.1275     91.5856   7.5521690918e+01   5.2772012790e+01    0.3214704    0.2662953  17.02  0.001886591    1.281    0.219
       143 -11.8802    125.3596     94.6839   5.1985718863e+01   3.8761742221e+01    0.4448504    0.2867057  52.73  0.001930759    1.611    0.379
       144 -10.5961    120.4793     90.0975   5.2007687248e+01   4.0755976150e+01    0.2990073     0.218853 -36.36 0.0006670596    1.407    0.289
       145 -11.0051     98.4734     91.0458   5.8742973232e+01   4.5111804996e+01    0.3224173    0.2623415  42.40 0.0004834419    1.254    0.202
       146 -11.4456     89.9703     89.5041   6.0969709425e+01   4.7029255716e+01    0.6088277    0.3538487 -29.78  0.002573497    1.973    0.493
       147 -10.0253     66.0406     88.7965   6.8787737674e+01   5.1125726573e+01    0.4122151    0.2406893  -6.17  0.001480293    2.828    0.646
       148  -9.4428    199.9627     88.2932   3.3984050140e+01   2.2450900586e+01    0.2075955    0.1807889  74.13 0.0006257616    1.134    0.118
       149 -10.3766    104.1889     87.2032   5.5865953217e+01   4.4760458877e+01    0.2647125    0.2401573  10.86 0.0007631644    1.085    0.078
       150 -10.4959     80.5575     84.0176   6.2427754245e+01   4.9812379230e+01    0.4192741    0.4053153   0.35  0.002469217    1.115    0.103
       151 -10.8407     76.3180     78.6075   6.2222057515e+01   5.1602297061e+01    0.5881078    0.3024485 -47.34  0.002562659    1.989    0.497
       152 -10.2310     72.5842     77.8004   6.3262064543e+01   5.2369458089e+01    0.3126632    0.2613641 -59.81  0.001489523    1.482    0.325
       153 -11.2157    143.1303     84.6574   4.4579079286e+01   3.6639025815e+01    0.2630592    0.2553886  42.07 0.0002743345    1.030    0.029
       154  -9.6895    133.4848     84.9590   4.7055144752e+01   3.8829907515e+01    0.2907339     0.209291  69.09 0.0006508416    1.685    0.406
       155  -9.2365    121.0219     85.0000   5.0367555882e+01   4.1631630825e+01    0.3407554    0.2032036  53.14  0.001443258    1.751    0.429
       156  -9.6380    120.7007     81.3947   4.9387928341e+01   4.2385075149e+01    0.3062981    0.2043005 -66.13 0.0008596439    2.251    0.556
       157 -10.9298    113.1852     82.5152   5.1824315298e+01   4.3805749127e+01    0.3185322      0.29379 -76.53            0    1.273    0.214
       158  -9.1441    165.4889     83.5224   3.9262105628e+01   3.1498788170e+01    0.1510948    0.1433071  81.02 0.0005992097    1.006    0.006
       159  -9.5564    107.5650     81.8717   5.3261569998e+01   4.5110401497e+01    0.3369868    0.1943369 -35.47  0.001445617    1.817    0.450
       160 -10.3355     66.4658     81.7230   6.6591083828e+01   5.2533399684e+01    0.4469507     0.272674  27.30  0.002166517    1.701    0.412
       161 -11.8026     53.5167     76.5069   6.9731054746e+01   5.5396540683e+01    0.6456198    0.5578844  36.49  0.003901601    1.364    0.267
       162 -11.2572     58.3602     77.7811   6.8328277887e+01   5.4492872052e+01    0.4324969    0.2890643 -56.30 0.0009702194    1.725    0.420
       163  -8.8346      1.3120     80.3224   9.0427218635e+01   5.9206756972e+01    0.1305708   0.06533973 -39.42 0.0007038888    1.654    0.395
       164 -12.6740      6.2576     62.3815   8.4428906969e+01   6.2628447209e+01    0.6591408    0.4281388 -20.76   0.00415443    1.415    0.293
       165 -11.8323     13.1959     74.1607   8.4566136809e+01   5.9815504740e+01    0.5589209    0.3631471 -55.87   0.00292401    1.347    0.258
       166 -11.0691     94.7726     76.7021   5.5566376644e+01   4.8650884646e+01    0.6235085    0.2787844  38.62  0.001647428    2.220    0.550
       167 -11.1488     78.7732     67.9018   5.7995335061e+01   5.3198094955e+01    0.9224209    0.4816086 -56.80  0.003532842    3.222    0.690
       168 -11.8111     85.9326     73.5572   5.7417719236e+01   5.0894343538e+01    0.6906766      0.47652  31.43  0.003317846    1.420    0.296
       169 -10.1007     92.0521     71.9655   5.4934625477e+01   5.0046111090e+01    0.2168738    0.2000979   8.76 0.0004488023    1.020    0.020
       170 -11.0077     82.6276     48.0065   4.9942400224e+01   5.5758149784e+01     1.383378     0.677156 -15.47  0.005110188    3.552    0.718
       171 -12.6232     74.0190     51.4126   5.4044532132e+01   5.6786125102e+01    0.6371887    0.3660491 -47.42  0.001787141    2.198    0.545
       172 -10.9177     72.6741     47.7039   5.3194776092e+01   5.7585061447e+01     0.231604    0.1770131  28.33 0.0004438326    1.189    0.159
       173 -10.0706    233.2082     77.2129   2.6528530226e+01   1.6979961368e+01    0.1982202    0.1405598 -69.60  0.001077407    1.367    0.269
       174  -9.2320    134.7412     77.6003   4.4604401104e+01   3.9891009690e+01    0.2142131    0.1407964  60.93 0.0009435372    1.636    0.389
       175  -9.5196     14.2152     67.6132   8.2534069482e+01   6.1082339002e+01     0.461111    0.1994078  12.17  0.002251015    2.672    0.626
       176 -11.4316    186.4478     71.3746   3.2158292472e+01   2.8543824400e+01    0.6961151    0.4935279 -40.28  0.003412843    1.454    0.312
       177  -9.9726    103.5884     74.5980   5.2207931135e+01   4.7285558967e+01    0.3115204     0.255317  83.00  0.001559907    1.723    0.420
       178 -11.0574      2.0468     71.7627   8.8342897728e+01   6.0965070412e+01     0.360602    0.1505992 -53.92   0.00155165    1.751    0.429
       179  -9.8762     24.3119     74.0082   8.0197473126e+01   5.9014978749e+01    0.2805661    0.1787964 -35.34 0.0006960203    1.323    0.244
       180 -10.0100     28.5172     72.1210   7.8046557886e+01   5.9034349057e+01    0.2649746    0.1909508 -10.67  0.001504986    1.363    0.266
       181 -10.8143     34.7257     71.8813   7.5547959321e+01   5.8489974897e+01     0.506762    0.2394982  26.11  0.002276564    2.246    0.555
       182 -10.5143     41.1271     73.1457   7.3428464875e+01   5.7560882158e+01    0.3025208    0.2095912 -30.92 0.0005875831    1.271    0.213
       183 -11.5289     40.3996     69.2533   7.2565728024e+01   5.8411305528e+01    0.3177421    0.2109814  15.51  0.001782476    1.556    0.357
       184  -9.4461    153.7039     72.5560   3.8769246009e+01   3.6263859241e+01    0.2870188    0.1325651  49.59 0.0009313109    2.052    0.513
       185  -9.6022     19.1471     72.1352   8.1736002892e+01   5.9809498974e+01    0.1950711    0.1290217 -31.37 0.0004723327    1.295    0.228
       186 -11.4385    122.8423     68.8566   4.5030290985e+01   4.4137705285e+01    0.4809075     0.289797  46.34  0.001323971    1.554    0.357
       187 -10.7297    219.8033     66.8645   2.6054108311e+01   2.1547923842e+01    0.4939029    0.2128553  66.54  0.002064216    2.450    0.592
       188  -9.0582    112.5017     75.4828   4.9885037842e+01   4.5256821005e+01     0.147196    0.1400184  28.05 -4.285215e-05    1.032    0.031
       189  -9.9974     84.2368     61.4040   5.4018320432e+01   5.3352174869e+01     0.251133    0.2447546   6.21 0.0008507514    1.199    0.166
       190 -11.2772     91.5738     62.5367   5.2028111910e+01   5.1780613056e+01    0.5808136    0.3277738  52.21  0.002588523    2.032    0.508
       191 -10.4732     87.8039     56.4752   5.1197715805e+01   5.3490436798e+01    0.5230151    0.2066575 -33.27  0.002032112    2.757    0.637
       192 -10.2238     91.8737     57.1817   5.0148900589e+01   5.2594309807e+01    0.2988918    0.2345485  59.05 0.0008887336    1.558    0.358
       193  -9.0559     25.3795     65.2876   7.7388410174e+01   6.0671798622e+01    0.1346262   0.07710987 -23.02 0.0005725247    1.733    0.423
       194 -10.3127    106.3630     63.6049   4.7912824464e+01   4.8613028511e+01     0.303103    0.2059512  31.42  0.001052744    1.486    0.327
       195 -10.7768    106.1944     58.4492   4.6295154528e+01   4.9476742379e+01    0.3369772    0.2728015  83.03  0.001216857    1.735    0.424
       196 -10.9633     60.7654     62.7505   6.2712056058e+01   5.7006752214e+01    0.6665509    0.3223628  25.23  0.002939333    2.281    0.562
       197 -10.9037     51.8019     48.1600   6.1111010871e+01   6.0762451721e+01    0.8160664    0.2761758  28.46  0.002927703    3.399    0.706
       198  -9.7731     51.2541     56.7401   6.4318836905e+01   5.9401539189e+01    0.2427205     0.174814  -8.25 0.0007805607    1.330    0.248
       199 -11.0853     40.8243     57.0148   6.8556743373e+01   6.0656000053e+01    0.4706801    0.3201046  -3.72  0.001772071    1.461    0.316
       200 -12.3934     44.0094     61.4959   6.8740324147e+01   5.9468036536e+01     0.903293    0.3406546 -38.35  0.001381795    2.472    0.595
       201 -10.3014     50.9562     61.1872   6.5918589708e+01   5.8652760815e+01    0.2679809    0.2452312  21.33  0.001151238    1.286    0.223
       202 -11.4875     44.0343     43.9797   6.2716497655e+01   6.2463600220e+01    0.5368724    0.3012154 -37.07 0.0002980146    1.675    0.403
       203 -11.1648     39.9761     44.0277   6.4413653161e+01   6.2960646637e+01    0.3929118    0.2405311  -5.86   0.00132444    1.731    0.422
       204 -10.0191    158.2167     63.1549   3.5227947705e+01   3.6704145322e+01    0.4786222    0.1525039  48.58  0.001575683    3.063    0.673
       205 -11.4325    235.1321     60.9170   2.2879252212e+01   1.9147677530e+01     0.416826    0.2873461  72.87  0.002360281    1.436    0.304
       206 -10.3213    174.6917    247.2420   7.2918125014e+01  -4.0439453917e+00    0.2851676    0.2779113  67.33  0.001870044    1.306    0.234
       207 -10.5119    109.9741     41.2690   3.9612741910e+01   5.1119139050e+01    0.7314296    0.5417227 -23.82  0.004053908    1.491    0.329
       208 -10.9585    116.0041     48.9690   4.0568379093e+01   4.8748305209e+01    0.4096012    0.2826887  40.82  0.001240673    1.332    0.249
       209 -11.6922    117.7838     44.0189   3.8529214796e+01   4.9025223445e+01    0.5132507    0.4097949  74.66  0.002251099    1.463    0.316
       210  -9.6167    142.6565    249.6952   8.0080307945e+01   8.3326854696e-01    0.1334978   0.09960202   7.22 0.0007041212    1.686    0.407
       211 -10.6242     34.9908     51.4021   6.9083980766e+01   6.2300688452e+01    0.6925189    0.3408386 -14.37  0.002984514    2.933    0.659
       212 -10.7301     20.4791     55.4971   7.6538025721e+01   6.2950475439e+01    0.3504092    0.2843678 -75.32  0.002221783    1.908    0.476
       213 -10.0102     28.8186     53.3827   7.2336081050e+01   6.2586678878e+01    0.2617608    0.1558035  11.91  0.001012792    1.716    0.417
       214 -10.9913     24.8276     59.6076   7.5951999706e+01   6.1811030651e+01    0.6885919     0.177534  29.04  0.002713681    3.894    0.743
       215 -10.9986     25.0054     56.0188   7.4782228546e+01   6.2464302537e+01    0.4085981    0.2448319 -16.77   0.00194662    1.648    0.393
       216  -8.9935    135.6250     58.5666   3.8768413962e+01   4.2835584451e+01    0.2634937    0.1379103 -17.05 0.0009429747    3.283    0.695
       217  -9.9739    157.8449     55.5429   3.3204399572e+01   3.7953051058e+01    0.4009714    0.3559378 -78.40  0.001971936    1.160    0.138
       218  -9.8536    154.8914     49.9367   3.2219391793e+01   3.9476144403e+01    0.4780171    0.2538793 -10.94  0.001633693    4.190    0.761
       219  -9.7702     66.9934     54.7892   5.7719864259e+01   5.7415210714e+01    0.2160341    0.1868772 -54.03 0.0009502516    1.561    0.360
       220 -10.2514    100.4339     53.6307   4.6369332795e+01   5.1422210073e+01    0.3229478    0.2147351  24.55  0.001585527    1.633    0.387
       221 -11.4628     60.9198     48.0401   5.7567289147e+01   5.9448183008e+01    0.8338887    0.3254706 -33.23  0.003498849    2.663    0.624
       222  -9.9027     57.1508     41.7479   5.6686789378e+01   6.0977105647e+01    0.2829327    0.1699575  39.06  0.001534124    1.701    0.412
       223 -11.0999     60.9894     36.4814   5.3250585510e+01   6.1132417064e+01    0.4346968    0.3224059  -9.02  0.001690062    1.255    0.203
       224 -10.6559     68.4899     32.8649   4.9161582939e+01   6.0367770114e+01    0.4419866    0.2958503  48.75  0.002490449    1.676    0.403
       225 -11.5580     57.4038     30.8225   5.2402329928e+01   6.2453849318e+01    0.4162999    0.2820507 -11.33  0.001140823    1.431    0.301
       226 -11.4433     48.7184     30.4529   5.5641355192e+01   6.3804857942e+01    0.6604207    0.2494719  31.81  0.002529653    2.552    0.608
       227 -10.8091     43.0443     28.0637   5.7002963478e+01   6.4913720343e+01    0.1901487    0.1471291   1.72 0.0002886961    1.015    0.015
       228  -9.2120    230.6616     52.2929   2.1607220483e+01   2.1384384020e+01    0.1375096    0.0841712 -72.44 0.0002958669    1.648    0.393
       229 -10.5412    145.7164     48.3666   3.3583535588e+01   4.1909896259e+01    0.5710948    0.2670097 -19.79   0.00205914    3.569    0.720
       230 -10.8832    240.6405     50.4828   2.0158391270e+01   1.9537908262e+01     0.223142    0.2046589  73.75 0.0009821816    1.343    0.255
       231 -10.0598    201.4835     48.5131   2.4370286671e+01   2.8480765545e+01    0.2108074    0.1280128 -40.12 0.0008091775    1.692    0.409
       232 -10.3272    201.0773     45.2795   2.3679996759e+01   2.9028101310e+01    0.4364735     0.225909  80.89  0.001720661    2.166    0.538
       233  -9.8272    173.1755     48.8591   2.8676717881e+01   3.5185802577e+01    0.4833859     0.157184  68.41  0.001472749    3.995    0.750
       234  -9.5510    113.5615     60.7369   4.4979647269e+01   4.7529562074e+01    0.2634421    0.1425936 -30.91  0.001139019    2.045    0.511
       235  -9.9487     23.1131     37.7962   6.9485615807e+01   6.5782180346e+01    0.3607816    0.2766563  44.60  0.002304015    2.101    0.524
       236 -10.7557     20.6905     46.0577   7.3442890967e+01   6.4624408273e+01     0.382633    0.2132097 -25.24  0.001038355    1.603    0.376
       237 -11.0716     26.6031     42.9296   6.9762450355e+01   6.4606905515e+01    0.2505687    0.1811518  11.70  0.000782537    1.314    0.239
       238  -9.5563      1.8822     49.1544   8.2746542353e+01   6.5397430753e+01    0.1603627    0.1379153 -31.23 0.0007628109    1.208    0.172
       239  -8.6460    222.3174     47.6593   2.1587588294e+01   2.3868785121e+01    0.1414388   0.08431055 -69.74 0.0007048183    1.710    0.415
       240  -9.9819     13.4187     46.7977   7.6912081879e+01   6.5080246942e+01    0.2470947    0.1247712 -29.92  0.001314938    1.699    0.411
       241 -10.5222    137.2462     44.8779   3.4323583384e+01   4.4404525326e+01    0.6914376    0.2002794  47.89  0.002314555    3.174    0.685
       242  -9.7336    160.6846     43.5149   2.9393632742e+01   3.8945816842e+01    0.2981051    0.1304426  71.06  0.001114757    2.675    0.626
       243 -10.5855    155.6852     42.1834   2.9922312460e+01   4.0332548191e+01    0.2824265    0.2696529 -25.09  0.001152615    1.216    0.178
       244 -10.4899     92.7126     41.5770   4.4527740679e+01   5.4706767835e+01     0.450495    0.2183726  44.53  0.002055394    1.829    0.453
       245  -9.3536     17.3975     41.8442   7.3497146086e+01   6.5625145413e+01     0.176255   0.08057744 -36.32 0.0009372033    1.793    0.442
       246  -9.2674    113.2241    249.5714   8.6314772908e+01   5.7188102595e+00    0.1843899    0.1163155  30.48 0.0009404771    1.627    0.386
       247 -10.1334     11.3137     30.3691   7.2268005781e+01   6.7988191928e+01    0.2890747    0.1477384 -17.00  0.001438134    1.899    0.474
       248 -10.1350      7.4870     30.4602   7.4148068051e+01   6.8263789332e+01    0.3349426    0.1453601   3.05  0.001685437    2.728    0.633
       249 -10.3955     88.3986     29.3544   4.1443122648e+01   5.7087506639e+01    0.4902274    0.2376499  35.82  0.002297121    1.960    0.490
       250 -10.3872     79.5001     38.9877   4.7726977363e+01   5.7602390056e+01    0.4220105     0.288195  68.66   0.00202059    2.622    0.619
       251 -10.6475     77.7831     34.4204   4.6604968523e+01   5.8513049918e+01    0.3864099    0.2407891  40.71  0.001592291    1.429    0.300
       252 -10.6853     81.8871     32.0819   4.4422763407e+01   5.8033704568e+01    0.2897343    0.2693013  61.39  0.001887509    1.398    0.285
       253  -8.9739    194.3573     38.3143   2.2950259148e+01   3.1539644253e+01    0.1321244   0.09691103  41.52 0.0007044144    1.745    0.427
       254 -10.5112    176.3556     35.7182   2.4829950894e+01   3.6159373008e+01    0.4360082     0.231008 -50.06   0.00206556    2.019    0.505
       255  -8.7083    206.4904     37.4536   2.1232791503e+01   2.8831977102e+01    0.1321138    0.1099351 -86.02 0.0003565291    1.004    0.004
       256  -9.8386    132.7177     36.9487   3.2900650294e+01   4.6483982727e+01    0.3316319    0.1864824  78.15   0.00138367    2.521    0.603
       257  -9.5911    227.2438     36.3670   1.8702267993e+01   2.4340104767e+01       0.1725    0.1032556  84.46 0.0004321107    1.577    0.366
       258  -9.5484     94.0555     36.0307   4.2184075512e+01   5.5149655418e+01    0.1853434    0.1627485 -89.58 0.0005820027    1.597    0.374
       259  -9.6116    213.5204    248.4753   6.5186723903e+01  -1.0271542716e+01    0.1288427    0.1032637   8.11 0.0008097548    1.017    0.017
       260 -12.1311    164.3763     27.6782   2.4570883792e+01   4.0003872744e+01    0.2711525     0.218562  75.86 0.0004436215    1.075    0.070
       261  -9.6067    138.5605     33.7156   3.0741471552e+01   4.5492827354e+01    0.1807493    0.1249527 -45.92 0.0009537689    1.655    0.396
       262 -11.9455    126.4079    241.8436   8.2464252135e+01   5.0376219316e+00    0.4106641     0.320167  85.77  0.001804875    1.574    0.365
       263 -10.4403     73.9657    238.2027   9.3266076684e+01   1.4149918943e+01    0.4655687    0.1976907  43.70  0.002123106    2.008    0.502
       264 -11.6547    146.9271    237.9385   7.7412986445e+01   2.2946790374e+00    0.5162241    0.3692327  58.58  0.001974499    1.595    0.373
       265 -11.5984    107.0257     31.8006   3.7205074436e+01   5.2921359551e+01      0.65724    0.3516681  13.53  0.002574068    3.386    0.705
       266 -12.0339    113.9117     24.9778   3.3267940553e+01   5.2154486948e+01    0.6526316    0.2622671  54.73  0.001905542    2.052    0.513
       267 -10.3352    239.7675     32.8196   1.6784288373e+01   2.2147824558e+01    0.2958494    0.1851828  63.80  0.001202236    1.665    0.400
       268 -11.2218    167.5365    238.0772   7.2959863359e+01  -1.2544727600e+00    0.2707793     0.231336 -53.84 0.0008641644    1.411    0.291
       269  -9.6309    232.7623    235.9466   5.9260572931e+01  -1.1142055085e+01    0.1634072   0.09502047 -32.74 0.0008854932    1.637    0.389
       270 -11.1802     32.3729     30.6110   6.2607608483e+01   6.5900303476e+01    0.3307789    0.1908287 -42.47 0.0004731451    1.918    0.479
       271  -9.8568    244.1797    235.1881   5.6984047412e+01  -1.2589588532e+01     0.155564    0.1384219 -14.75 0.0006168653    1.322    0.243
       272 -10.9591    196.9862    232.2329   6.5724820405e+01  -5.1273017857e+00    0.4515881    0.2562968  23.74  0.002164021    1.794    0.443
       273 -10.1112    230.0635     30.5299   1.7246463041e+01   2.4493670380e+01    0.1855808    0.1621319 -56.24  0.000406521    1.284    0.221
       274 -10.4036    197.7834     29.3145   2.0449706013e+01   3.1877133421e+01    0.3142981    0.2433387 -86.15  0.001517011    1.121    0.108
       275 -11.0987    188.8443     28.0086   2.1248387645e+01   3.4127298863e+01     0.294652    0.2856443 -40.63  0.001137104    1.307    0.235
       276  -9.7112     98.1177     28.5133   3.8405259238e+01   5.5196341120e+01    0.4645674     0.215514 -45.81  0.001953461    3.195    0.687
       277  -9.4154    150.7680     27.4305   2.6700699663e+01   4.3299969416e+01    0.2011505    0.1032825  53.77 0.0009502099    1.687    0.407
       278 -10.6920    183.4075     25.3146   2.1305193209e+01   3.5727875070e+01    0.4558687    0.2081573  55.62  0.002123371    2.038    0.509
       279 -10.2741    154.8193     24.4540   2.5211862644e+01   4.2656609267e+01    0.4041393     0.184582  80.15  0.001555722    2.958    0.662
       280 -10.6702    143.4287     25.3379   2.7390362453e+01   4.5280612120e+01    0.3870235    0.1818906  58.99  0.001792525    1.761    0.432
       281 -10.3592    148.8900     22.6550   2.5689985484e+01   4.4265775122e+01    0.3738582    0.1091618  62.35  0.001382628    2.791    0.642
       282  -9.7546     80.5829     19.4897   4.0102321339e+01   5.9686303653e+01    0.4020629    0.1058791  44.73  0.001537239    3.005    0.667
       283  -9.5394     15.2839    233.7457   1.0455901596e+02   2.2581594020e+01    0.2050614    0.1199618 -85.34  0.001064803    1.443    0.307
       284 -11.0028     67.6252    240.9336   9.4864008022e+01   1.4493761592e+01    0.4438192    0.2175273  44.10  0.002192789    1.752    0.429
       285 -10.2504    247.1865    231.2034   5.5714517129e+01  -1.2403457451e+01    0.1544618    0.1390751  -8.78 0.0006097373    1.318    0.241
       286  -9.7746     89.4945     16.5012   3.6436125420e+01   5.8214795625e+01    0.2132859     0.153718  -0.51  0.001149924    1.515    0.340
       287  -9.7781    213.5551     24.2415   1.7597564870e+01   2.8895138876e+01    0.2432742    0.1538852  78.44  0.001400815    1.374    0.272
       288 -10.3093     65.4594    149.5981   8.2935051426e+01   3.6685230607e+01    0.5158038    0.2946895   2.79  0.001833044    3.554    0.719
       289 -10.2712    200.4939    226.4551   6.3964944953e+01  -4.7063032504e+00    0.2237584    0.1698477 -18.31 0.0008043648    1.310    0.236
       290  -9.7013    166.5127    225.5307   7.1077183756e+01   1.2521868121e+00    0.1421924    0.1266938  21.93 0.0001427193    1.018    0.018
       291  -9.7871     75.3104    224.0683   9.1393271816e+01   1.7024123699e+01    0.1946929    0.1598738  84.91  0.001053535    1.133    0.117
       292  -9.6573    234.0422    223.5033   5.6754538586e+01  -9.3999400856e+00    0.1839993    0.1165031  29.34  0.000537199    1.533    0.348
       293  -9.9941     59.6486     23.5389   4.8664170325e+01   6.2990335158e+01    0.1995904    0.1615265 -10.57 0.0004556788    1.220    0.180
       294  -9.1273    120.6913    223.3151   8.1048993805e+01   9.8044370170e+00    0.1461761    0.1039402  67.81 0.0007029452    1.630    0.387
       295  -9.6830    223.4872     22.0698   1.6179823265e+01   2.6966454828e+01    0.2351858    0.1378624 -87.46 0.0007017941    1.571    0.364
       296 -10.2398    164.7690    211.9851   6.9063710681e+01   4.2334155076e+00     0.251598    0.1992615  37.10  0.000598432    1.183    0.155
       297  -9.9071     74.5444     19.4792   4.1963316535e+01   6.0829671295e+01    0.2389394    0.1585251  28.12 0.0006085558    1.309    0.236
       298  -9.8156      5.8682     22.0184   7.1780732128e+01   6.9682344035e+01    0.1686007    0.1193319 -16.71 0.0005915587    1.017    0.016
       299 -11.8491    117.5779     55.6273   4.2287859800e+01   4.7430011261e+01     1.302273    0.8445267 -89.61  0.005032389    3.259    0.693
       300 -10.3628    153.0433    207.3369   7.0899344091e+01   7.3667269461e+00    0.3551849    0.2502234 -79.37  0.001563085    2.173    0.540
       301  -9.6704    156.4101     20.5098   2.3897802461e+01   4.2695461607e+01    0.2918167    0.1097544  64.35   0.00122194    2.210    0.547
       302  -9.2596    216.4954     20.5398   1.6535727724e+01   2.8682648882e+01    0.1251695   0.09943724 -84.60 0.0001110281    1.011    0.011
       303  -9.9598     47.0399     19.4121   5.1795240605e+01   6.5429918488e+01    0.2224036    0.1748803   2.24  0.001532945    1.076    0.071
       304  -8.7757      1.5119     20.4543   7.3390213913e+01   7.0227220253e+01    0.1135237   0.07644456 -18.91 8.364458e-05    1.077    0.072
       305  -9.7260    202.8618    206.7459   5.9779401918e+01  -1.5688397690e+00    0.2695537    0.1701253 -51.45   0.00127124    1.895    0.472
       306  -9.3002     61.4995    206.5187   9.2422785781e+01   2.3057988981e+01    0.1381721    0.1181293  78.16 0.0004793293    1.014    0.013
       307  -9.4196      4.3749    204.8580   1.0467809610e+02   2.9992583143e+01    0.1753394   0.08555188 -67.73 0.0009477812    1.770    0.435
       308  -9.9615    237.8326    204.1487   5.2377196116e+01  -6.7919628202e+00    0.1910857    0.1390063  -9.86  0.001075478    1.327    0.247
       309  -9.2539     78.5002    203.5591   8.8059080221e+01   2.1277828362e+01    0.1424231     0.125963  73.91 0.0001354749    1.015    0.014
       310 -10.2050    245.8114    200.8467   5.0278189913e+01  -7.4318576310e+00    0.1646983    0.1522829 -32.47  0.001021881    1.310    0.236
       311 -10.0075    147.8669     16.2222   2.4072292969e+01   4.5160191091e+01    0.3178008    0.1568286  50.00  0.001282193    1.839    0.456
       312 -10.5844    186.9173     15.0628   1.8470587389e+01   3.6037931914e+01    0.2050953    0.1653664  85.77 0.0003514283    1.008    0.008
       313 -10.4776    138.3613    198.1641   7.2690194960e+01   1.2135873503e+01     0.468429    0.2644131  57.23   0.00183132    2.242    0.554
       314 -10.2782    233.8691    196.6830   5.1658923584e+01  -4.8964385654e+00    0.2937373    0.2011938 -33.79 0.0008861535    1.317    0.241
       315  -9.5769     74.7305     13.5706   3.9597979562e+01   6.1377941232e+01    0.1642276    0.1071901  55.35 0.0007415956    1.622    0.383
       316  -8.7994    131.3401    198.3290   7.4415014526e+01   1.3418916762e+01    0.1545958    0.1199794  -7.54 0.0007051648    1.738    0.425
       317  -9.7633    171.8382    190.4016   6.3311108098e+01   7.3913738481e+00    0.2197225     0.139395  27.44 0.0009440584    1.720    0.419
       318 -11.0732      5.0322    185.7962   1.0306868979e+02   3.4320414808e+01    0.3726892    0.3090987  85.10  0.002226228    1.087    0.080
       319 -10.4609      2.6182    181.7600   1.0326495908e+02   3.5467058557e+01    0.2624622    0.1662967 -76.10  0.001159102    1.259    0.206
       320  -9.8597    216.3830    186.2143   5.2926936259e+01  -7.0891670076e-02    0.3026071    0.1724513  61.33  0.001109016    3.552    0.718
       321  -8.9776     86.5051    185.4841   8.3399298793e+01   2.4415053173e+01    0.1472407    0.1375687  85.34 -1.941754e-06    1.018    0.018
       322  -9.2204    239.5580    184.4812   4.8182128478e+01  -3.6527282659e+00    0.1370842    0.1157144 -20.15  0.000106726    1.019    0.019
       323  -9.5897    175.7634    179.9669   6.0270055384e+01   8.8545025646e+00    0.2080894    0.1268854 -43.93 0.0008856319    1.639    0.390
       324 -10.2998    250.5090    176.9852   4.4756547308e+01  -4.0644033920e+00    0.2121902     0.113988 -38.14  0.001035387    1.599    0.375
       325  -9.3481    113.5174    175.9537   7.4737291856e+01   2.2073094271e+01    0.2172337     0.127419 -32.92 0.0008074522    2.392    0.582
       326  -9.2334     28.3661    175.7949   9.6687135936e+01   3.4541896365e+01    0.1880385    0.1011133 -62.96 0.0004585848    1.606    0.377
       327 -10.0100     51.6399    172.8266   9.0453584360e+01   3.2624196262e+01    0.4120545    0.1904705 -78.30  0.001598118    2.530    0.605
       328  -9.4546    207.0097    172.6759   5.1983930838e+01   4.2759696763e+00    0.2060377    0.1895033  11.71 0.0008369448    1.092    0.084
       329  -9.0129    170.4727    172.4456   5.9884790555e+01   1.1560094960e+01    0.1536791    0.1499419   2.97 0.0001296173    1.010    0.010
       330 -10.1194    244.3207    167.1397   4.3827694715e+01  -1.3185276984e+00    0.3607508     0.101221 -47.82   0.00109197    4.216    0.763
       331  -9.4508    198.3002    167.9418   5.2764554460e+01   6.9192382985e+00    0.2154768    0.1905481 -30.97 0.0006367274    1.074    0.069
       332  -9.7771    187.4072    167.8068   5.5065853492e+01   9.1214013215e+00    0.2219875    0.1398829 -32.62 0.0006518755    1.682    0.405
       333 -10.8252      9.2673    167.0116   1.0038168803e+02   3.8436066537e+01    0.2669608     0.217997  29.58   0.00125861    1.512    0.339
       334  -9.7701     18.7267    164.9040   9.7836102274e+01   3.8139214040e+01    0.2015918    0.1804606 -27.00  0.001314453    1.419    0.295
       335 -10.1598    205.0250    163.2953   5.0367775441e+01   6.5488787323e+00    0.2814306    0.2092155 -46.10 0.0006571109    1.312    0.238
       336 -10.1515     28.0425    161.9759   9.5117206010e+01   3.7985911156e+01    0.3718753    0.1622253 -63.50  0.001683959    1.878    0.468
       337  -9.2855     38.2269    160.6222   9.2263757612e+01   3.7268866792e+01    0.1699524    0.1346807   9.16 0.0008603602    1.639    0.390
       338  -9.5148    224.2283    157.6044   4.5413636704e+01   4.0036553044e+00    0.3644967    0.1675631 -51.77  0.001385088    2.504    0.601
       339  -9.7150    215.6765    157.0366   4.6901867001e+01   5.7349265339e+00    0.2133169    0.1808482 -34.00 0.0006245229    1.087    0.080
       340  -9.6751      9.4695    155.4996   9.9122535166e+01   4.1204400122e+01    0.2597174    0.1023151 -71.34 0.0009678388    2.031    0.508
       341 -10.4191    104.8193    154.5199   7.2764316841e+01   2.9018126516e+01    0.3747379    0.3196383   9.85  0.001836776    1.379    0.275
       342 -10.0135    142.1385    152.7174   6.2396554897e+01   2.2015323079e+01    0.3949026    0.2166203  44.18   0.00152476    1.827    0.453
       343 -12.3103     22.6565    149.1057   9.4882940949e+01   4.1677799929e+01    0.5703306    0.3007946 -38.98  0.002680712    2.286    0.563
       344  -9.5889      4.2206    153.4534   1.0023227533e+02   4.2089311973e+01    0.1630935    0.1051717  47.05 0.0009489728    1.726    0.421
       345  -9.8359     30.6072    152.0674   9.3124805604e+01   4.0199175069e+01    0.2331679    0.2070643   0.25  0.001191934    1.406    0.289
