#   1 NUMBER                 Running object number                                     
#   2 MAG_AUTO               Kron-like elliptical aperture magnitude                    [mag]
#   3 X_IMAGE                Object position along x                                    [pixel]
#   4 Y_IMAGE                Object position along y                                    [pixel]
#   5 X_WORLD                Barycenter position along world x axis                     [deg]
#   6 Y_WORLD                Barycenter position along world y axis                     [deg]
#   7 A_WORLD                Profile RMS along major axis (world units)                 [deg]
#   8 B_WORLD                Profile RMS along minor axis (world units)                 [deg]
#   9 THETA_WORLD            Position angle (CCW/world-x)                               [deg]
#  10 FWHM_WORLD             FWHM assuming a gaussian core                              [deg]
#  11 ELONGATION             A_IMAGE/B_IMAGE                                           
#  12 ELLIPTICITY            1 - B_IMAGE/A_IMAGE                                       
         1 -10.7819    212.9006     24.7093   4.3941530050e+01   2.9184165402e+01    0.4893377    0.3534847  42.80  0.001165173    1.670    0.401
         2 -12.2988    205.6517     32.3041   4.6808572458e+01   3.0011558404e+01     1.016696    0.9337067  82.51  0.004919783    1.074    0.069
         3 -11.9483    220.3858     16.5750   4.1093048769e+01   2.8344479879e+01    0.7520713     0.690818 -70.50  0.002971034    1.084    0.077
         4  -9.2111     33.0000     12.0060   8.3963936407e+01   6.9725892195e+01    0.3244231   0.05740858 -40.47  0.001058843    5.003    0.800
         5  -9.8764      8.5029      6.1564   9.4049364337e+01   7.2984761077e+01    0.2096455    0.1055007 -10.11  0.001162483    2.258    0.557
         6 -12.0032     38.3042    208.6638   1.2259099619e+02   2.6294773517e+01     0.768191    0.5672917  -4.67  0.004456682    2.913    0.657
         7 -12.3349     93.5527    244.4493   1.1529069676e+02   1.2376955088e+01     1.666577    0.3680223  35.46  0.004988262    6.341    0.842
         8 -10.6148    100.0478    248.3872   1.1448297874e+02   1.0786617513e+01    0.4545969     0.215385  39.49  0.002490262    1.811    0.448
         9 -11.9006     72.5462    249.1564   1.1942181561e+02   1.4444852981e+01     1.256287    0.4314464  44.30  0.006426184    2.201    0.546
        10 -11.9305     25.0230    224.6036   1.2605899879e+02   2.4600293491e+01    0.6640114    0.5347615 -55.83  0.003367627    1.812    0.448
        11 -13.7888     47.4527    199.9136   1.2009621196e+02   2.7049060995e+01     4.464252     1.549986  65.87   0.01540285    4.703    0.787
        12 -11.5895      8.0665    187.3383   1.2697499097e+02   3.3765129771e+01    0.5163639    0.4376405  31.08  0.002659168    1.617    0.382
        13 -14.0904      3.0115    168.7911   1.2681806253e+02   3.8181572305e+01     14.35206    0.6759976 -76.66   0.02738838   15.070    0.934
        14  -9.1097     94.8470    223.5238   1.1297363980e+02   1.5943145753e+01    0.3328304    0.2341203 -28.71  0.001782687    2.650    0.623
        15  -9.8305     79.0506    220.9429   1.1578699414e+02   1.8698765903e+01    0.2850025    0.2112863  52.02  0.001365528    1.165    0.141
        16 -10.3550     73.1709    218.7616   1.1671966654e+02   1.9930601231e+01    0.4349882    0.2331326  51.67  0.001578676    1.573    0.364
        17 -10.8185     89.9153    229.9443   1.1458215614e+02   1.5467029476e+01     0.450217    0.2506986 -83.96  0.001382029    2.187    0.543
        18 -10.6701     83.6844    224.7692   1.1526476366e+02   1.7318447297e+01    0.4917198      0.27117  34.69  0.002670488    1.915    0.478
        19 -11.0137    117.0666    229.8773   1.0935803929e+02   1.1415136049e+01     0.565345    0.3291656  62.71  0.003009238    1.881    0.468
        20  -9.9859    110.0193    229.0105   1.1062374240e+02   1.2655272933e+01    0.3291845     0.212899 -44.90   0.00187942    2.075    0.518
        21  -8.9244     53.7051    231.1636   1.2140108336e+02   2.0075477510e+01     0.182142    0.1139236  77.19 0.0006186732    1.398    0.285
        22 -10.7112    103.0039    228.5101   1.1192518552e+02   1.3808161777e+01    0.4817083    0.2149332  55.75  0.002271841    2.253    0.556
        23 -10.4493    143.9827    230.3741   1.0419654340e+02   7.0464954697e+00    0.3593487    0.1932346 -55.48  0.001884016    2.271    0.560
        24 -11.1638     48.0029    224.0105   1.2191072761e+02   2.2125974298e+01    0.7202573     0.274999 -72.71  0.000351561    2.524    0.604
        25 -10.2296     45.2357    219.5664   1.2209386249e+02   2.3317988658e+01    0.3148696    0.2726654 -28.96  0.001376799    1.973    0.493
        26 -10.2858     38.9372    224.3162   1.2357696522e+02   2.3127389837e+01     0.356241    0.1889032  46.17  0.001841866    1.610    0.379
        27  -8.2261    168.3572    225.6911   9.8808300331e+01   3.7987375845e+00    0.1266797   0.09228439  62.94 0.0007042238    1.731    0.422
        28 -11.6852    111.8768    245.3322   1.1203002789e+02   9.5649669353e+00    0.9336008    0.3470187  32.08  0.003719712    3.619    0.724
        29  -8.8310    180.0109    218.3333   9.5412343235e+01   3.0103664128e+00    0.2206382   0.09296605  25.02 0.0004808206    4.453    0.775
        30 -12.9937      9.1961    207.0740   1.2788917281e+02   2.9601259848e+01     1.004773    0.8802369  81.79  0.005700751    1.333    0.250
        31  -8.9948     67.0000    238.9754   1.1960960097e+02   1.6957079908e+01    0.2176272    0.1268269 -67.09  0.001019965    1.859    0.462
        32  -8.7307    194.3697    192.2167   8.8062913534e+01   4.7690284921e+00    0.1814856    0.1276951 -47.95  0.000727875    1.657    0.397
        33 -10.2865     54.5770    185.4123   1.1723983900e+02   2.9316761410e+01    0.4820808    0.2901032  52.97   0.00262192    1.524    0.344
        34 -10.2539     69.3515    175.1422   1.1277426912e+02   2.9712505816e+01    0.3287457    0.2598635 -44.28 0.0009814749    1.591    0.372
        35  -7.7720     99.5027    181.4073   1.0672441649e+02   2.3839056084e+01    0.1350037    0.1220198  69.23 0.0003707994    1.034    0.033
        36 -10.3035     64.2613    180.6469   1.1459159217e+02   2.9146993841e+01     0.398512    0.2600607 -43.04  0.001590566    2.107    0.525
        37  -8.8470    100.8351    171.7970   1.0495649856e+02   2.5765856187e+01    0.2011368    0.1550231  75.68 0.0006528997    1.341    0.254
        38  -8.0167    193.8353    166.1943   8.3013723473e+01   9.4584513936e+00    0.2079749    0.1663383   3.50  0.001078965    1.362    0.266
        39  -9.9665     78.6460    165.1084   1.0922967528e+02   3.0723603365e+01    0.2892158    0.2431041 -74.41 0.0003987923    1.112    0.101
        40 -10.9036     84.7233    159.3753   1.0687942720e+02   3.1167966941e+01    0.7405282    0.4016295 -41.65   0.00188735    2.442    0.591
        41 -11.7580     66.1296    161.1836   1.1170162740e+02   3.3378536518e+01    0.4801734    0.2847706 -48.05  0.001447973    1.927    0.481
        42 -11.8764     68.4762    144.4787   1.0863490690e+02   3.7053088512e+01    0.7913292    0.5262591  79.82   0.00277697    1.718    0.418
        43 -10.6190     87.2751    142.3713   1.0333607458e+02   3.4828203063e+01    0.3947842    0.3004245  31.70 0.0007732756    1.491    0.329
        44  -8.7031     33.1335    156.0812   1.1901999965e+02   3.8408299801e+01    0.1867977    0.1497442 -65.63 0.0006032528    1.245    0.197
        45  -8.5973    109.9838    132.0161   9.5222688385e+01   3.3461631669e+01    0.2371383    0.1853771 -19.77 0.0009551473    1.675    0.403
        46  -8.4250    106.0277    131.0453   9.6068073696e+01   3.4406285153e+01    0.2965779    0.1914322  66.34  0.001251794    2.057    0.514
        47  -9.2073     97.3311    128.1444   9.7802805947e+01   3.6615733262e+01    0.2840712    0.2391646 -19.44  0.001032045    1.462    0.316
        48  -9.2987    100.2855    142.6269   9.9973322914e+01   3.2648857021e+01    0.5222224    0.3281868 -27.03  0.002110401    2.603    0.616
        49 -14.0632      8.2952    240.3224   1.2961637506e+02   2.3399509153e+01     2.068927     1.347831  69.44  0.002499725    1.051    0.049
        50  -8.4423    107.0376    120.0787   9.3309930257e+01   3.6822306921e+01      0.22056    0.2116293 -58.68 0.0003564465    1.022    0.022
        51  -8.5912    235.0000    114.0018   6.3435260584e+01   1.0427146562e+01    0.2443358   0.07493617 -35.82  0.000800908    2.932    0.659
        52  -8.0800    168.3194    113.0353   7.6005947273e+01   2.5451531988e+01     0.316526    0.2057211  78.42  0.001161281    2.631    0.620
        53  -7.6041    205.6521    110.2911   6.7624526567e+01   1.7431321219e+01    0.1527036    0.1191258 -74.88 0.0005788996    1.665    0.399
        54 -11.9864    128.0147    230.2849   1.0728377753e+02   9.6249803553e+00     1.159441    0.5553309  57.01  0.005362622    2.398    0.583
        55  -7.9336     50.4687     63.5260   9.6421204906e+01   5.8364870934e+01    0.1325622    0.1147144 -41.63 0.0008085366    1.061    0.057
        56  -9.2595     13.3246     60.0304   1.0998882743e+02   6.2411001019e+01     0.177315    0.1236289 -57.35 0.0005692569    1.134    0.118
        57  -8.8885    191.3111     51.3259   5.4146515558e+01   3.0959431412e+01     0.149038    0.1140341  24.68 0.0007040241    1.660    0.397
        58  -9.6680    199.9912     49.9748   5.2423931248e+01   2.8989002092e+01    0.2462124    0.1648374 -65.70 0.0009228041    1.698    0.411
        59  -9.0781    141.1366     46.5903   6.2234534293e+01   4.4279406912e+01    0.3512307    0.2488771 -87.00  0.001310576    2.025    0.506
        60 -10.3322     64.5238    250.2466   1.2088654002e+02   1.5297636275e+01    0.4713099    0.1387086  43.22  0.002300371    2.517    0.603
        61 -11.8783    196.7373     38.9705   4.9829356095e+01   3.1351395283e+01    0.8576909    0.5784097  70.06  0.002625623    1.472    0.321
        62  -9.9530     63.8346    238.6869   1.2015208333e+02   1.7418139722e+01    0.2504414     0.167624  57.85 0.0006573831    1.158    0.136
        63 -10.7324     89.1975    250.1652   1.1658134899e+02   1.2022031734e+01     1.131911    0.1777035  38.14  0.003465888    6.059    0.835
        64 -10.2718     35.2066    233.5658   1.2482219060e+02   2.1805755424e+01    0.3811237    0.1146761  47.57  0.001794496    2.432    0.589
        65  -8.6573     57.4792    234.5244   1.2097249817e+02   1.8983070668e+01     0.112947   0.08844236  67.22  8.39487e-05    1.060    0.057
        66  -7.9648    190.3479     15.3131   4.4020731861e+01   3.5850778779e+01    0.1419871   0.09736814  39.89 0.0007046583    1.718    0.418
        67 -10.7085    126.7513    241.3990   1.0884193476e+02   7.9588974235e+00    0.3770338    0.2275945  20.56  0.001896129    2.573    0.611
