#   1 NUMBER                 Running object number                                     
#   2 MAG_AUTO               Kron-like elliptical aperture magnitude                    [mag]
#   3 X_IMAGE                Object position along x                                    [pixel]
#   4 Y_IMAGE                Object position along y                                    [pixel]
#   5 X_WORLD                Barycenter position along world x axis                     [deg]
#   6 Y_WORLD                Barycenter position along world y axis                     [deg]
#   7 A_WORLD                Profile RMS along major axis (world units)                 [deg]
#   8 B_WORLD                Profile RMS along minor axis (world units)                 [deg]
#   9 THETA_WORLD            Position angle (CCW/world-x)                               [deg]
#  10 FWHM_WORLD             FWHM assuming a gaussian core                              [deg]
#  11 ELONGATION             A_IMAGE/B_IMAGE                                           
#  12 ELLIPTICITY            1 - B_IMAGE/A_IMAGE                                       
         1 -14.0912     68.2975    144.0629   1.0676919368e+02   3.7919006154e+01     3.438332     1.508373  71.44  0.006241526    3.846    0.740
         2 -12.9222    248.9187    146.4627   7.1921286182e+01   6.2715274926e+00     1.215122    0.3170641 -26.62  0.004801348    3.668    0.727
         3 -13.3937    202.0199     32.1573   4.9461985167e+01   2.9870690310e+01     2.244222     1.358161  25.80  0.009479055    2.044    0.511
         4 -11.6766    210.1089     23.6884   4.5844605072e+01   2.8702281103e+01     0.552237    0.4187467  32.70  0.001130264    1.434    0.303
         5 -12.9685    216.2425     16.4203   4.2967559206e+01   2.7860955934e+01     1.012194    0.9025006  28.99   0.00267645    1.192    0.161
         6  -9.0125     49.3239      6.3350   7.5722423603e+01   7.0161279614e+01    0.1363614   0.09454615  -7.76 0.0007050954    1.712    0.416
         7 -10.1238     43.0469      4.0202   7.7445283050e+01   7.1529147273e+01     0.201014     0.170916 -27.30 0.0005436677    1.027    0.026
         8 -10.1107     84.2070    232.5431   1.1152226494e+02   2.1078334028e+01    0.3049479    0.1411502  60.17  0.001457208    1.989    0.497
         9  -8.8956    174.2249    249.9862   9.8854104148e+01   7.4034644616e+00    0.1374058   0.09855951  64.61  0.001066977    2.040    0.510
        10 -14.6875     72.2780    244.8871   1.1418018886e+02   2.0850381303e+01     7.199118     1.837435  34.68   0.03118507    4.687    0.787
        11 -10.0025    194.0086    192.9991   8.8705023553e+01   1.0370245455e+01    0.3982419    0.2902348  55.93  0.002651746    1.663    0.399
        12  -8.7685     96.8456    191.1304   1.0589451521e+02   2.5525084616e+01    0.1320332    0.1289798  47.82  0.001057863    1.359    0.264
        13 -11.3492     66.8722    180.9866   1.1076863077e+02   3.1154895526e+01    0.2928345    0.2513272 -37.01  0.002163329    1.833    0.454
        14 -11.1756     71.6447    175.3599   1.0931536409e+02   3.1548463094e+01    0.2588709    0.2282769 -39.25  0.001179457    1.694    0.410
        15  -8.8205     99.2182    180.7667   1.0435127716e+02   2.6881194567e+01    0.1475716    0.1228413  35.09 0.0007090457    1.338    0.252
        16  -9.3391    208.6184    179.1543   8.4135013518e+01   9.5526584347e+00    0.1547699    0.1011839 -10.09 0.0009458272    1.742    0.426
        17 -13.0394     41.4074    209.2222   1.1737532134e+02   2.9363819747e+01    0.9280956    0.6343977 -35.96  0.006027652    3.447    0.710
        18  -9.4794    141.5209    175.4827   9.5457352100e+01   2.1213180621e+01    0.1207859    0.1001903  46.50 0.0008100453    1.010    0.010
        19  -8.6839    128.0000    173.9827   9.7859305846e+01   2.3631370851e+01    0.1735405    0.0690823 -52.65 0.0008078609    2.980    0.664
        20  -9.4693    109.5365    173.4516   1.0144688766e+02   2.6588495076e+01    0.2361783    0.1622386  83.51  0.001429989    1.756    0.431
        21 -12.7907     68.3684    161.6855   1.0867953822e+02   3.4473128388e+01     0.606375    0.4813468  22.97  0.001205377    1.714    0.416
        22 -10.1726    134.3502    247.6420   1.0469677756e+02   1.2891965548e+01    0.1706789     0.119959  37.63 0.0006969058    1.179    0.152
        23 -11.3564    246.0742    162.2975   7.5359809320e+01   5.1832509873e+00     0.446572    0.2743241 -27.90  0.001951085    1.739    0.425
        24  -8.5863    161.1707    165.2403   9.0158341453e+01   1.9417889018e+01     0.156013    0.1370318  68.88 0.0005845844    1.316    0.240
        25 -14.0200     10.2750    206.3586   1.2263116600e+02   3.2831264896e+01    0.8399467    0.6440609  35.47  0.003684269    1.606    0.377
        26 -10.6355    178.6955    219.0228   9.4721641623e+01   9.8598499375e+00    0.2029991    0.1184651  27.72  0.001333468    1.600    0.375
        27 -11.0605     80.6553    165.3655   1.0644724927e+02   3.2168697753e+01    0.3038881    0.2414168  82.09 0.0003685711    1.174    0.148
        28  -8.5659    174.5250    148.5648   8.4708254007e+01   1.9453874214e+01    0.1287298    0.1131588  37.08 9.807335e-05    1.040    0.038
        29 -10.0675     38.8605    146.3980   1.1382819929e+02   4.0912990503e+01    0.2754319    0.1701506  50.89 0.0009921152    1.397    0.284
        30 -11.7124     88.3831    142.7523   1.0193732135e+02   3.5378838050e+01    0.3963289    0.2788557  27.72 0.0009366587    1.777    0.437
        31 -12.3294     86.8989    158.6985   1.0434857887e+02   3.2534327084e+01    0.8985401    0.6289413 -67.82  0.002376976    1.509    0.337
        32 -10.4166    101.7847    142.1578   9.8778486015e+01   3.3436024861e+01    0.4744464    0.3262618 -24.17  0.002349289    2.681    0.627
        33  -9.1712     79.4978    139.8676   1.0361162100e+02   3.7240872984e+01    0.1747527    0.1149465 -69.18  0.001008201    1.517    0.341
        34  -9.2738    110.8835    131.9226   9.4998161393e+01   3.3919888435e+01    0.2188696    0.1762081  32.92  0.000885678    1.371    0.271
        35  -9.4935    106.0271    130.7058   9.5921280471e+01   3.4978855255e+01    0.2772586    0.2237975  87.72  0.001642286    1.290    0.225
        36 -11.2566    238.9762    152.0700   7.4484598077e+01   7.3778688469e+00    0.3605065    0.1743641 -21.70  0.001885534    2.080    0.519
        37  -8.7147     74.2913    130.3679   1.0355009347e+02   3.9921346360e+01    0.1191869   0.09577198 -37.23 0.0007025859    1.714    0.416
        38  -9.1911    137.6709    171.3280   9.5600952999e+01   2.2482704108e+01    0.1228805   0.08619881  68.76 0.0003781117    1.708    0.414
        39 -10.1171     98.2822    128.2130   9.7338855066e+01   3.6752621229e+01    0.2401136    0.2156466 -42.49 0.0007023796    1.337    0.252
        40  -9.4383    126.2520    127.9203   9.0726003145e+01   3.1963628526e+01    0.2835349    0.1600404  67.20  0.001142251    2.687    0.628
        41 -11.0987    135.4481    124.2025   8.7914118411e+01   3.0931315865e+01    0.8216117    0.1310338 -49.15  0.001896188    8.030    0.875
        42  -9.1693    117.1370    126.1740   9.2488042082e+01   3.3947015880e+01    0.1894086    0.1509614  75.02  0.000668576    1.339    0.253
        43  -9.2393    133.9867    171.6730   9.6367912964e+01   2.3031913890e+01    0.1988067   0.09047015  27.14 0.0007051478    4.383    0.772
        44  -9.0331    107.6555    120.0672   9.3581201412e+01   3.6827276530e+01    0.1762477    0.1625391 -73.56 0.0003252053    1.096    0.088
        45 -10.3673     32.9347    118.9177   1.1276251249e+02   4.7300665214e+01    0.2536606    0.1319847 -72.85  0.001417032    1.666    0.400
        46  -9.8786    195.2605    168.7602   8.4615464744e+01   1.3011043136e+01    0.2650881    0.2171645  36.47   0.00079657    1.106    0.096
        47  -9.1468    168.0031    112.7249   7.8432804371e+01   2.6344824108e+01    0.2515513    0.1989549 -67.81  0.001302055    1.653    0.395
        48 -10.0516    134.4944    102.9666   8.3388154233e+01   3.5108525625e+01    0.3433754    0.1392007 -46.41  0.001295021    2.539    0.606
        49 -11.4216     52.4522    109.2142   1.0624428831e+02   4.7338396705e+01    0.4837779    0.2593874  85.40  0.002307673    2.211    0.548
        50  -9.2006    205.5453    110.1905   7.0860938052e+01   1.8757571285e+01    0.2478055    0.1868194  45.18 0.0006812637    1.302    0.232
        51 -10.7480     22.3356    109.2949   1.1468819261e+02   5.0396963546e+01     0.240962    0.1698686  75.99 0.0007881627    1.194    0.162
        52 -10.6280     42.7360    104.7895   1.0837781722e+02   4.9437292250e+01    0.3332089    0.1338502  44.26  0.001568078    2.400    0.583
        53 -11.5499    242.1931    100.9222   6.2986661831e+01   1.2406225143e+01    0.3903019     0.237245  10.21  0.001925549    1.847    0.459
        54  -8.1789     91.3152    102.6304   9.4274174683e+01   4.3259321773e+01    0.1455892    0.1006784  82.45 0.0002359134    1.781    0.438
        55  -9.3525     66.5996    103.7799   1.0137816346e+02   4.6747734532e+01    0.1906575    0.1143431 -76.95 0.0009565012    1.697    0.411
        56  -8.4917    163.9987    214.9977   9.6624793681e+01   1.2462091184e+01    0.1277992    0.1017549  37.52 0.0004882299    1.069    0.064
        57 -10.4719    133.6795    143.1795   9.1914669710e+01   2.7840194550e+01    0.4703915    0.1661979 -57.10  0.001629033    4.313    0.768
        58 -14.3978      6.4717    247.8434   1.2425469844e+02   2.7084918123e+01    0.8443995    0.3494886  51.26  0.002199154    1.431    0.301
        59  -9.1763     24.9361     82.3367   1.1074941027e+02   5.6322134922e+01    0.1604586    0.1394807 -87.77 0.0003690063    1.096    0.087
        60  -8.3178     54.4095     65.4969   9.7158617513e+01   5.7122115103e+01    0.1345621    0.1145594 -69.17 0.0001673331    1.027    0.026
        61 -10.5969     13.4217     59.9563   1.1152679127e+02   6.2431246082e+01    0.2545419    0.1744032 -64.77 0.0006127276    1.211    0.174
        62 -15.6345     15.0431    234.6748   1.2266175971e+02   2.8137540271e+01     1.816987    0.6125804  56.97  0.008820548    1.890    0.471
        63 -10.9361    146.8004     51.0791   6.5167009614e+01   4.1679240330e+01    0.6198406    0.3875142 -76.09  0.001751159    2.772    0.639
        64 -12.5273    193.0648     38.9251   5.2830672329e+01   3.1397901477e+01    0.9266374    0.6900375  42.44  0.001919152    1.396    0.284
        65 -15.2274     50.9447    200.5491   1.1519874880e+02   2.9720171947e+01     6.175469     2.298632  69.94   0.03057278    3.298    0.697
        66  -8.1780     94.6871     46.3163   7.7099575667e+01   5.4557529286e+01    0.1469939    0.1138405 -75.02 0.0007034803    1.642    0.391
        67 -10.5503    147.9977     44.2076   6.2473871689e+01   4.2457458303e+01    0.3424738    0.2856538 -62.90 0.0006893253    1.342    0.255
        68  -9.6703    143.8886     40.8642   6.2117495051e+01   4.4021609377e+01    0.2290119    0.2053531  15.28 0.0003362953    1.165    0.142
        69  -8.0633     96.3801    201.4505   1.0696970840e+02   2.3979316330e+01    0.1073806   0.08225909  56.41 2.690235e-05    1.030    0.029
        70  -9.9160    168.9888    233.3041   9.7908765553e+01   9.7477070632e+00    0.1536197   0.09996335  39.93 0.0009879053    1.096    0.088
        71  -8.6515    164.4144    205.9712   9.5445686724e+01   1.3463998356e+01    0.1307319     0.109671 -37.12 0.0003920415    1.541    0.351
        72 -15.5638      2.3791    188.6525   1.2350105382e+02   3.6427983429e+01     10.77893    0.2709157 -80.97  0.003969943   14.969    0.933
        73  -9.3233     59.2931    228.4979   1.1535897891e+02   2.4536678252e+01    0.1748413    0.1074629  67.16 0.0005760898    1.348    0.258
        74 -10.2424    194.3266    196.9931   8.9240355790e+01   9.8781897204e+00    0.5506716    0.3405124 -65.74  0.002366285    5.727    0.825
