#   1 NUMBER                 Running object number                                     
#   2 MAG_AUTO               Kron-like elliptical aperture magnitude                    [mag]
#   3 X_IMAGE                Object position along x                                    [pixel]
#   4 Y_IMAGE                Object position along y                                    [pixel]
#   5 X_WORLD                Barycenter position along world x axis                     [deg]
#   6 Y_WORLD                Barycenter position along world y axis                     [deg]
#   7 A_WORLD                Profile RMS along major axis (world units)                 [deg]
#   8 B_WORLD                Profile RMS along minor axis (world units)                 [deg]
#   9 THETA_WORLD            Position angle (CCW/world-x)                               [deg]
#  10 FWHM_WORLD             FWHM assuming a gaussian core                              [deg]
#  11 ELONGATION             A_IMAGE/B_IMAGE                                           
#  12 ELLIPTICITY            1 - B_IMAGE/A_IMAGE                                       
         1  -9.2027    123.4620     40.2459   2.0827409305e+01   4.9047397383e+01    0.2900628    0.2188043  29.46 0.0003006315    1.579    0.367
         2 -10.5407     41.0348     13.8557   3.7647149558e+01   7.0893532023e+01    0.2374229    0.1865654  13.56 0.0002572212    1.181    0.153
         3  -9.2806     97.6978     12.4270   1.5856132951e+01   5.9003275599e+01    0.3073128    0.1930867  -6.25  0.001475042    2.018    0.504
         4  -8.1623     64.9949      4.9650   2.1827189291e+01   6.7356706028e+01    0.1522467    0.1352801  25.73  0.000339398    1.044    0.042
         5  -9.5329     67.5446      1.3805   1.8972599391e+01   6.7148509365e+01    0.2312407    0.1122882  58.23 0.0004654002    1.859    0.462
         6 -10.0868     37.1201    248.5984   8.4308265598e+01   1.7956244985e+01    0.3988412    0.1029701  46.42  0.001530576    2.522    0.603
         7  -8.4976    213.7706    250.2303   4.9709837441e+01  -4.9145032130e+00     0.178136   0.06930882  23.61 0.0008840911    2.461    0.594
         8 -10.0285    161.4336    248.8128   5.9137577081e+01   1.8792597331e+00     0.426549    0.2028755 -54.36  0.002176005    3.199    0.687
         9 -10.8934    167.0709    241.9074   5.7146789039e+01   2.0990913657e+00    0.5381104    0.2551845  25.47  0.001601114    1.928    0.481
        10 -11.0831    166.4749    247.8320   5.8038151274e+01   1.3438473466e+00    0.4386838     0.286746  24.76  0.002350108    1.224    0.183
        11 -10.5143     54.0853    249.0290   8.0932769423e+01   1.5950978874e+01    0.3735158    0.2767861   7.40   0.00165674    1.969    0.492
        12 -10.8855     19.0630    247.9183   8.7817833989e+01   1.9978507445e+01    0.5181668    0.2188964  60.16  0.002953602    1.895    0.472
        13 -10.0627     12.9417    250.2027   8.9072695098e+01   2.0171069830e+01    0.2887164    0.1117393  37.06  0.001501336    1.893    0.472
        14  -9.8904      4.0868    249.2510   9.0711550192e+01   2.1185601361e+01    0.2428627    0.1192798  48.69 0.0006562403    1.403    0.287
        15 -10.8447     73.4918    244.5660   7.6635292348e+01   1.4381521404e+01    0.2631404    0.2150162  36.27 0.0007698676    1.170    0.146
        16 -10.6968      8.3423    240.6242   8.9638075545e+01   2.2372299746e+01    0.2894442    0.1999865  85.71  0.001045939    1.385    0.278
        17  -9.1244    250.5548    241.6776   4.2419332549e+01  -8.0460995935e+00    0.1728707   0.08260611 -25.98 0.0007095608    1.877    0.467
        18  -9.2010    235.4619    240.4909   4.4650693208e+01  -6.2807801039e+00    0.3139198     0.157454  46.34  0.001511332    4.165    0.760
        19 -10.0705    238.2730    239.3244   4.4019181497e+01  -6.4622574937e+00    0.2563845    0.1899568   8.08  0.001761343    1.099    0.090
        20 -10.2507     98.0664    241.5267   7.1215951654e+01   1.1698740230e+01    0.3428276    0.1893709  31.03  0.001036897    1.552    0.356
        21  -8.2278    221.3171    240.2917   4.6983046703e+01  -4.6302383655e+00    0.1140961   0.06789412   3.18 0.0003491702    1.599    0.375
        22 -10.4768    107.6579    238.0520   6.8836349161e+01   1.0988682924e+01    0.3754244    0.2501147 -60.87   0.00227166    1.856    0.461
        23  -8.8563     16.4460    237.9625   8.7945833564e+01   2.2090874017e+01    0.3295055   0.08845653  52.14  0.001532504    2.591    0.614
        24  -8.7473    154.3422    238.3236   5.9190418586e+01   4.3824755973e+00    0.1249244   0.08378737   4.35 0.0007050754    1.730    0.422
        25  -9.1485    248.7630    237.3794   4.2054576332e+01  -7.3897931848e+00    0.1869279    0.1079464  16.27  0.001278101    1.450    0.310
        26 -11.0101     90.5948    231.1251   7.1802112190e+01   1.4583230717e+01    0.5864383    0.2369427 -57.51  0.002759239    2.871    0.652
        27 -10.8988     87.7419    227.5538   7.2076562717e+01   1.5642753555e+01    0.4502476    0.2599044  39.06  0.001785937    1.395    0.283
        28 -12.2279     98.5494    225.5832   6.9481323987e+01   1.4513103764e+01    0.9338864    0.5176405  47.49  0.004505449    1.585    0.369
        29 -11.6195     95.9023    218.1632   6.9261936617e+01   1.6308845359e+01    0.6573845    0.3720209  40.90  0.001620447    1.458    0.314
        30 -10.0890     99.9098    217.1800   6.8239567109e+01   1.5923644631e+01    0.3236358    0.2223839  56.48 0.0006063519    1.443    0.307
        31  -9.9924    231.2500    234.3737   4.4424616866e+01  -5.0921490300e+00    0.2448983    0.1795783   2.05 0.0007255419    1.021    0.020
        32 -11.0707    162.3087    225.6438   5.5848385889e+01   5.2055830189e+00    0.4258222    0.2899279  13.69  0.002485699    1.468    0.319
        33 -10.2418    168.5126    233.6669   5.5741666071e+01   3.0994114741e+00    0.5187428    0.3057689  28.84  0.003003622    1.407    0.289
        34  -9.6757    161.2840    232.0647   5.6956990780e+01   4.3578674840e+00    0.4041675    0.1906134  34.30  0.002065639    1.754    0.430
        35 -10.9987    238.9107    229.9235   4.2484739067e+01  -5.4517507466e+00    0.4474237    0.2456087  12.70  0.002139579    1.716    0.417
        36  -9.1188    242.7340    223.9982   4.0941474376e+01  -5.1908967031e+00     0.188115    0.1134351 -28.42 0.0004902706    1.533    0.348
        37 -11.6099    126.4566    221.2243   6.2808290777e+01   1.1252230228e+01    0.6293563    0.4475398 -82.94  0.003034496    2.101    0.524
        38 -10.0830    117.5125    227.4662   6.5532713188e+01   1.1451947801e+01    0.3524157    0.1958924  45.32  0.001172183    1.601    0.375
        39  -8.4757    144.9287    227.4987   5.9686027444e+01   7.4415639544e+00    0.1894264    0.1055332  32.81 0.0003934923    1.495    0.331
        40  -8.6666    250.3001    226.3234   4.0112296022e+01  -6.3154428863e+00    0.1125726   0.06462302  -2.47 0.0005624333    1.630    0.386
        41  -9.2226    181.2822    226.0543   5.2147612971e+01   2.4349056704e+00     0.168018    0.1446601  -1.72 0.0009720778    1.137    0.120
        42  -9.7732    169.8265    224.9526   5.4236327033e+01   4.2269270449e+00    0.4052185     0.227735  50.68   0.00176668    2.422    0.587
        43  -9.3969    104.8367    225.8353   6.8119066874e+01   1.3573251749e+01    0.1832156    0.1560379  28.05 0.0004186208    1.145    0.127
        44  -9.9721    108.4771    222.8069   6.6967019344e+01   1.3610840976e+01    0.2819207    0.2057227  -9.80  0.001543942    1.981    0.495
        45  -9.3461    190.9452    222.9861   4.9833262381e+01   1.5341151967e+00    0.1520014    0.1174694  17.64 0.0009954078    1.067    0.062
        46  -7.9179    178.2918    222.3180   5.2169932908e+01   3.4136572860e+00    0.1245916   0.08441035   0.89 0.0001852588    1.601    0.375
        47  -8.3328    174.4969    222.5198   5.2948055704e+01   3.9273653537e+00    0.1250423     0.102776  17.50  0.000810324    1.012    0.012
        48  -9.2233    157.6234    221.3549   5.6190189006e+01   6.5777640041e+00    0.2362685    0.1845425  15.08 0.0007957211    1.176    0.150
        49 -10.1412    114.7208    220.9147   6.5354768411e+01   1.3048843171e+01    0.2435661     0.232527  87.80 0.0008480129    1.219    0.180
        50 -10.4377    130.6991    214.4318   6.0970463079e+01   1.1839782509e+01    0.4448195    0.3154112 -85.59  0.002334227    2.204    0.546
        51  -9.4027    212.9907    220.6537   4.5426197882e+01  -1.1123315564e+00    0.2191813   0.09402512  39.18  0.001093623    2.378    0.580
        52  -8.6055    149.3779    219.7199   5.7676375892e+01   8.0779693133e+00    0.2192575    0.1507599 -35.18 0.0009174097    1.668    0.401
        53  -9.0679    152.1296    215.9270   5.6547494575e+01   8.3036694527e+00    0.3122655    0.1670836  22.09  0.001470334    2.040    0.510
        54 -10.0724     75.1415    219.1609   7.4089984398e+01   1.8985039162e+01    0.2932793    0.1998772  57.69  0.001230002    1.337    0.252
        55  -9.5801    219.5972    218.8333   4.3976618335e+01  -1.7267209514e+00    0.2452483    0.1766532 -19.95  0.001656551    1.271    0.213
        56  -9.7315    190.0207    215.3405   4.8814625436e+01   2.7824924348e+00    0.3678918    0.2199406  14.79  0.001987327    1.753    0.430
        57  -9.2967    175.9134    216.2766   5.1716504774e+01   4.6852283431e+00    0.3043582    0.1683917 -13.37  0.001354321    2.875    0.652
        58  -8.7998    143.5144    216.9590   5.8531427715e+01   9.4352662020e+00     0.174661     0.129391 -46.41 0.0007345219    1.566    0.361
        59 -10.2177    170.5617    215.2101   5.2625868004e+01   5.6455560952e+00    0.2495144     0.214354   6.15 0.0007093452    1.072    0.067
        60  -9.9356     84.3366    215.3191   7.1601851631e+01   1.8505171527e+01     0.266193    0.2033573 -51.42  0.001587431    1.583    0.368
        61 -10.0507    121.5064    222.5084   6.4055378644e+01   1.1756167251e+01    0.2427752    0.2013801  55.89  0.001281722    1.259    0.206
        62 -10.3998     77.4761    211.5138   7.2801396538e+01   2.0228399000e+01    0.3833698    0.2936774 -51.40  0.002279957    1.584    0.369
        63  -9.5019    228.6989    213.0733   4.1484503470e+01  -2.1337824770e+00    0.3269312    0.1545632 -24.84   0.00173232    2.130    0.531
        64  -9.6464     63.4979    213.5608   7.6249038770e+01   2.1654861928e+01    0.2593623    0.1887647  52.25  0.001038641    1.142    0.124
        65 -10.8296     16.6375    212.6914   8.6818599594e+01   2.7126745429e+01    0.3140277    0.1957089  43.37  0.001026932    1.327    0.246
        66  -9.6339    202.0089    211.7824   4.5985157009e+01   1.6085117657e+00    0.2032417    0.1568827 -44.11  0.001289475    1.643    0.391
        67  -9.2167    114.5344    211.3466   6.4189992601e+01   1.4884906976e+01      0.38624    0.2168495  15.14  0.001650796    2.640    0.621
        68  -8.4475    212.6277    199.1084   4.1919140009e+01   1.9531233392e+00    0.1779319    0.1102121 -31.30  0.001021027    1.542    0.351
        69 -10.2994    212.2080    207.9292   4.3493563209e+01   7.4430057551e-01    0.3786804    0.3068531  20.61  0.002578194    1.187    0.158
        70  -9.5739    213.0189    203.2998   4.2568257822e+01   1.2915120825e+00    0.3825966    0.2009358  35.40  0.002073994    1.834    0.455
        71  -9.0637    237.4796    210.4973   3.9604825613e+01  -2.9007453435e+00    0.1849594   0.09949572  42.44  0.001032925    2.382    0.580
        72 -10.1249     11.3601    207.0899   8.7728865139e+01   2.8813479068e+01    0.2949604    0.1859515  31.71  0.001608692    1.564    0.360
        73 -11.7576     14.6317    195.8094   8.6438469821e+01   3.0972560418e+01    0.7439284       0.3126 -49.65   0.00140947    3.652    0.726
        74  -8.3034     99.3208    206.6413   6.7120798506e+01   1.8108246063e+01    0.1431852   0.09139091  62.05 0.0005895084    1.766    0.434
        75  -8.0807    224.4785    205.4883   4.0936953668e+01  -5.7426442763e-01    0.1188921   0.09567375  -1.03 -1.409929e-05    1.034    0.033
        76 -10.9087    166.9686    198.5912   5.0702666512e+01   8.9671971119e+00    0.7492422    0.5233693  68.96  0.003573837    2.626    0.619
        77 -11.0859    175.7943    184.8540   4.6478977697e+01   9.9300884336e+00    0.8656443    0.5303326 -64.38  0.003711142    3.026    0.670
        78 -11.6993    178.0869    196.8975   4.8125822890e+01   7.4909788736e+00    0.7966475    0.5349354 -11.77  0.002800546    1.756    0.431
        79 -11.3335    172.8706    195.6186   4.8973977648e+01   8.5361453411e+00    0.6857337    0.2963228 -42.39  0.002211575    2.449    0.592
        80  -9.2699    130.2595    201.9317   5.9287228669e+01   1.4252890886e+01    0.3343781    0.2514824  88.64  0.001766339    1.909    0.476
        81 -10.1673    126.2176    197.0420   5.9489846496e+01   1.5858466873e+01    0.3822371    0.2706635  17.33  0.001274583    1.577    0.366
        82  -9.4505    124.6118    193.1890   5.9282034553e+01   1.6891963039e+01    0.2514896    0.1939529   5.98 0.0007730661    1.559    0.358
        83  -9.4883     60.8726    200.5375   7.5677904244e+01   2.4780106701e+01     0.347455    0.1716823  47.38  0.001355357    1.732    0.423
        84  -8.7366    144.9857    197.8245   5.5331739449e+01   1.2657354543e+01     0.274763    0.1738605  13.04  0.001287558    2.020    0.505
        85  -9.3732    105.2110    197.4707   6.4531297616e+01   1.9105810951e+01    0.2668199    0.2209618 -19.76  0.001033556    1.526    0.344
        86  -9.2345    112.6983    197.8571   6.2792636323e+01   1.7854400611e+01    0.4113025    0.2003796  56.48  0.001614532    2.766    0.639
        87  -8.9820    113.0207    194.2963   6.2207714524e+01   1.8538055395e+01    0.2034226    0.1981967  89.24 0.0003322481    1.129    0.114
        88  -9.1810     37.2538    196.6980   8.1091308380e+01   2.8468373458e+01     0.202314    0.1627148  67.13  0.000676744    1.045    0.043
        89  -8.6520    131.9441    194.9963   5.7848023408e+01   1.5331469724e+01    0.2179302    0.1598722  64.14  0.001122734    1.698    0.411
        90  -8.9609     66.8358    194.8494   7.3642948864e+01   2.5259642785e+01    0.3320742    0.1522619  56.98  0.001267795    2.341    0.573
        91  -9.7150    103.8125    189.3446   6.3741500688e+01   2.1051137866e+01     0.297188    0.2161347  29.17 0.0008805751    1.350    0.259
        92 -11.6204     97.8871    188.3474   6.5074744525e+01   2.2198359392e+01    0.6571892    0.3818359  60.02  0.001363014    2.022    0.506
        93 -10.8429     94.2335    182.1148   6.5123556394e+01   2.4154633051e+01    0.4313368    0.3984536  27.89  0.001419093    1.146    0.127
        94  -9.5253      1.5967    197.6349   8.9528575904e+01   3.1717012422e+01    0.4442215     0.122778  82.94  0.001646016    3.963    0.748
        95  -8.5048    138.4274    189.2251   5.5427040394e+01   1.5394295121e+01    0.1807662    0.1372555 -67.41 0.0009461972    1.659    0.397
        96  -8.8507     87.2746    189.6108   6.7907542054e+01   2.3536950295e+01    0.1464168   0.09619787  67.84 0.0006994985    1.725    0.420
        97 -10.3605    204.0112    187.5479   4.1442644046e+01   4.9726219724e+00    0.3109394    0.2829532  76.73  0.001969392    1.704    0.413
        98  -9.1560    128.7487    188.2320   5.7527537115e+01   1.7214902323e+01    0.2104121    0.1774335  80.16 0.0007273528    1.438    0.305
        99 -11.0774     19.7955    181.4076   8.4347413782e+01   3.3779182230e+01    0.4622627    0.3669328  87.71  0.002942245    1.143    0.125
       100 -10.8972     11.0989    186.9955   8.6822732680e+01   3.3281290241e+01     0.418133    0.2398565  53.10   0.00161528    1.445    0.308
       101 -11.9140     12.5260    179.9860   8.6089944702e+01   3.4774435911e+01    0.7004477    0.5231855 -53.00  0.003227911    1.635    0.388
       102 -11.3407      4.7416    177.0472   8.7881852712e+01   3.6114702324e+01    0.5573912    0.3950711 -73.10  0.002531294    1.403    0.287
       103 -10.9180      3.5828    169.7041   8.7806928769e+01   3.7934030435e+01    0.4448583    0.2775133 -75.01  0.001399148    1.489    0.328
       104  -8.4925     55.5815    187.2248   7.5699793630e+01   2.8459980871e+01    0.3117317   0.08868606  52.66 0.0009594616    4.201    0.762
       105 -10.2619    183.3737    185.2398   4.5005436428e+01   8.6154576111e+00    0.2225599    0.1696694 -46.00 0.0005589557    1.483    0.326
       106  -9.9465    108.6965    185.3545   6.1946276334e+01   2.1131484309e+01    0.3658744     0.256455  86.08  0.001104594    1.917    0.478
       107  -8.9213    111.3350    184.3233   6.1134810317e+01   2.0924115048e+01    0.2328478    0.2230445  40.28 0.0005584947    1.062    0.059
       108  -8.9640    155.3460    187.2168   5.1267671455e+01   1.2929675882e+01    0.2596588    0.1636145 -28.91  0.001246806    1.887    0.470
       109  -8.4587    139.3111    185.3189   5.4571908621e+01   1.6019338924e+01    0.1411015    0.1068663  -3.55            0    1.644    0.392
       110  -8.5225    120.0000    184.9483   5.9103514285e+01   1.9357048546e+01    0.2180824   0.08186992 -54.84 0.0008002901    2.928    0.658
       111  -9.2356    228.2809    184.1532   3.6550990473e+01   1.9050307244e+00    0.2135051    0.1479934  14.99  0.001113365    1.411    0.291
       112  -9.6303    210.5889    183.6034   3.9521925148e+01   4.5852698927e+00    0.3529991    0.1890256   8.19  0.001445136    3.200    0.687
       113  -8.2091     74.4785    183.9712   7.0467950666e+01   2.6678880930e+01    0.2008931    0.1095958  79.29 0.0008102394    2.595    0.615
       114 -10.1049     45.8232    180.4549   7.7565777996e+01   3.1239089971e+01    0.6223331    0.1882579 -66.13  0.002024295    3.062    0.673
       115  -8.7655    165.4136    186.2647   4.8913488423e+01   1.1410836824e+01    0.1752715    0.1319647 -56.20 0.0006231257    1.637    0.389
       116 -10.7663    147.6999    180.1272   5.1740589819e+01   1.5605139615e+01    0.4678742    0.3541525   7.69   0.00184646    1.531    0.347
       117 -10.2930    152.3276    174.3375   4.9636678934e+01   1.5934947153e+01    0.4017369    0.2412057 -30.00  0.001531412    2.040    0.510
       118 -10.5314    149.1659    174.6190   5.0409982708e+01   1.6440335862e+01    0.3889705    0.3660342  11.41  0.001812043    1.032    0.031
       119  -9.2605    138.7911    179.7330   5.3735328507e+01   1.7233147457e+01    0.3546822    0.2176843  65.54  0.001441972    2.682    0.627
       120 -10.0336    103.4498    178.8331   6.2277833404e+01   2.3421428376e+01    0.4366772    0.3829494  58.67  0.002476625    1.097    0.089
       121  -9.8706    105.2864    174.7204   6.1163079097e+01   2.4044025770e+01    0.3878924     0.217818  76.58  0.001328335    3.648    0.726
       122  -8.3852    218.8798    177.7965   3.6980117979e+01   4.2236311089e+00    0.1560355    0.1421156 -32.68  0.000440015    1.312    0.238
       123  -9.3884    158.5002    176.2895   4.8613275672e+01   1.4464433192e+01    0.3932968    0.2219113 -34.98  0.001422258    1.983    0.496
       124  -9.3848     88.9997    176.9819   6.5749172760e+01   2.6140977133e+01    0.3326676    0.1969893 -88.40  0.001325409    2.375    0.579
       125  -8.5695     87.6736    173.3053   6.5568477601e+01   2.7202250981e+01    0.2260106    0.1739953  82.76  0.000631902    1.419    0.295
       126  -9.5820     91.4655    172.0197   6.4367496519e+01   2.6908666050e+01     0.415869    0.2000078  36.56  0.001735108    1.915    0.478
       127 -10.6090    204.3091    175.5684   3.9168462408e+01   6.8384029463e+00    0.3846563    0.2775747  15.53  0.002189505    1.405    0.288
       128 -10.4461     28.9123    169.8555   8.1121128414e+01   3.5645566844e+01    0.3893821    0.2001599 -57.58  0.001867567    2.065    0.516
       129 -10.4273     29.1456    175.4343   8.1509582273e+01   3.4275068527e+01    0.3240042    0.2745504  89.38  0.001063881    1.118    0.106
       130  -9.7172     24.2561    174.4321   8.2718142059e+01   3.5003090580e+01    0.2886216    0.1568502  61.13 0.0008083813    1.682    0.406
       131  -9.5104     77.3695    175.5807   6.8635963549e+01   2.8220709713e+01    0.3187128    0.1798945  59.36 0.0008798797    1.945    0.486
       132  -8.2483     59.6463    176.3621   7.3476690227e+01   3.0494097484e+01    0.1573627   0.08857404  62.36 0.0007019474    1.876    0.467
       133  -8.2035    193.3007    172.3725   4.0639177132e+01   9.1731690359e+00    0.1420368   0.09694673  -5.05 0.0007030073    1.749    0.428
       134  -8.4602    176.6910    171.3170   4.3766505443e+01   1.2204181577e+01     0.201794    0.1230034  60.02 0.0008448785    2.643    0.622
       135  -9.6257    177.5063    168.2932   4.3010472058e+01   1.2613608419e+01    0.3810863    0.3216178 -65.57  0.001597192    1.540    0.351
       136  -8.7672    135.0244    171.0555   5.3087315573e+01   1.9693890691e+01    0.2311561    0.1751314  69.02  0.001084453    1.682    0.406
       137 -10.5471    206.7856    168.3245   3.7322739009e+01   7.6193930634e+00     0.387697    0.2308123 -37.30  0.001736476    1.595    0.373
       138  -9.7884    121.7339    169.3674   5.6063635112e+01   2.2420326790e+01    0.4094082    0.2991956  68.77   0.00123465    1.703    0.413
       139  -8.7684     54.8956    169.0252   7.3927373342e+01   3.2881961250e+01    0.3429223    0.1603015  79.93  0.001230135    3.237    0.691
       140  -9.4533    199.9355    167.0925   3.8348050279e+01   8.9573760504e+00    0.2787073    0.1876191 -15.39  0.001163945    1.640    0.390
       141  -8.1646    168.3067    169.6066   4.5207287558e+01   1.4002280225e+01    0.1389606    0.1134109  88.45 0.0007008226    1.824    0.452
       142  -9.2160    159.1232    163.6818   4.6063589371e+01   1.6813993292e+01    0.7335988    0.3725531 -66.06  0.002124667    5.373    0.814
       143 -11.1227    150.2502    163.6006   4.8069717242e+01   1.8469140546e+01    0.5603783    0.4135782 -12.38  0.002422204    1.720    0.418
       144 -11.4831    217.3156    165.3726   3.4879255894e+01   6.3979430630e+00    0.6517059    0.3633489  38.09  0.003370004    1.874    0.466
       145  -8.6858    111.5031    167.0084   5.8270171168e+01   2.4737257670e+01    0.2093109    0.1302022 -87.55 0.0008105941    2.662    0.624
       146  -9.6556     99.8036    159.9285   6.0161278616e+01   2.8389506851e+01    0.3239852       0.2978 -52.74  0.001236149    1.161    0.139
       147  -9.9290     98.1055    165.1269   6.1499914632e+01   2.7447575864e+01    0.5209062    0.2984617  69.17  0.001305807    2.684    0.627
       148  -9.3304     92.7281    159.9055   6.2101606956e+01   2.9576965941e+01    0.4127727    0.2820157 -80.04  0.001694685    1.723    0.420
       149  -9.5551    139.2684    165.2484   5.0983025487e+01   2.0150493317e+01    0.3816683    0.2581204  75.39  0.001595658    2.457    0.593
       150  -9.3075     80.5210    164.4221   6.6201921256e+01   3.0420174996e+01      0.38686    0.2085385  77.31  0.001392341    3.093    0.677
       151  -8.9397    122.2223    163.1556   5.4817357059e+01   2.3709478741e+01    0.3353224    0.2138308 -15.89  0.001287993    2.813    0.644
       152  -9.4687     37.1631    163.2189   7.8247714371e+01   3.6410174266e+01    0.3978188    0.2167444 -76.09  0.001914193    1.741    0.426
       153 -10.6566     20.9625    161.4839   8.2622730295e+01   3.8464059514e+01    0.3473908    0.2557565 -53.40  0.001713114    1.542    0.351
       154 -10.5547     24.8117    160.4189   8.1461442675e+01   3.8367517590e+01    0.4777549    0.2682011  14.86  0.002292849    2.281    0.562
       155  -8.3821     47.3201    163.6572   7.5432907858e+01   3.5140404510e+01     0.152585   0.09015473  63.49 0.0007049827    1.722    0.419
       156 -11.1956    248.8897    151.8301   2.7233792875e+01   3.6222468708e+00    0.5219193    0.2764836 -41.32  0.002816814    1.763    0.433
       157  -9.6867      9.0411    161.2309   8.5881362975e+01   3.9545606613e+01    0.3202223     0.134404  77.22  0.001384887    2.392    0.582
       158  -8.9473    177.4786    160.5414   4.1473577991e+01   1.4050869973e+01    0.2298861    0.1321694 -52.67 0.0006351234    2.082    0.520
       159  -9.1766     60.4854    158.0808   7.0983939916e+01   3.4862068474e+01    0.4274916    0.2535155  86.53  0.001890119    1.989    0.497
       160  -8.9065    220.3022    159.3210   3.3178529178e+01   6.8791745176e+00    0.1325291   0.09158153  -3.92 0.0002176073    1.629    0.386
       161 -10.3447    142.9416    158.3760   4.8760896595e+01   2.0920221971e+01    0.7343511     0.247467  43.13  0.002467486    2.873    0.652
       162  -8.4412    128.3230    158.1623   5.2321864740e+01   2.3703420826e+01    0.3659107    0.1411946 -60.59  0.001095398    4.006    0.750
       163  -9.3826    167.6347    157.9004   4.3023636647e+01   1.6368670374e+01    0.2537404    0.2290991 -83.52  0.001047463    1.382    0.276
       164  -9.5348    105.2063    157.4193   5.8247844678e+01   2.8052061351e+01    0.3346868    0.2470843  84.39  0.001000579    1.694    0.410
       165  -8.6542    225.2863    157.3734   3.1961166260e+01   6.3890809521e+00    0.1344421    0.0895115  -7.38 0.0007018427    1.715    0.417
       166 -10.3599    207.6481    142.7293   3.1960467291e+01   1.1760024057e+01    0.3853893    0.2739424 -52.87   0.00202789    1.630    0.386
       167 -12.3282    205.7787    150.8302   3.3991448300e+01   1.0712089529e+01    0.8476503    0.6804843  80.21  0.004575125    1.962    0.490
       168  -8.9928    188.4921    156.5268   3.8426480166e+01   1.2790210199e+01    0.2887016    0.1309036 -41.40  0.001205189    2.150    0.535
       169  -9.8563    157.8657    155.7018   4.4737058537e+01   1.8645538396e+01    0.3300112    0.1946993 -47.43  0.001475665    1.756    0.430
       170  -9.4583     49.6940    155.0008   7.3733027692e+01   3.7022515080e+01     0.447312     0.225529  65.93  0.001756976    2.408    0.585
       171 -10.4113    133.9279    152.4722   4.9780502013e+01   2.3904184832e+01    0.7426986    0.4736406 -67.18   0.00245834    2.080    0.519
       172  -9.0099    119.3212    154.6141   5.3953002947e+01   2.6167415286e+01    0.3252865    0.2237578 -89.74  0.001373866    2.176    0.540
       173 -10.1174     81.5856    153.5988   6.4205477684e+01   3.2907347244e+01    0.4981132    0.2915272 -82.72  0.001589642    2.225    0.551
       174  -8.9078     32.5752    154.6120   7.8704400305e+01   3.9050728767e+01    0.3003044    0.1715028   1.00  0.001278428    2.898    0.655
       175  -9.2608     99.4412    152.1665   5.8879932041e+01   3.0305475978e+01    0.4205244    0.2549004 -81.99    0.0016583    2.412    0.585
       176 -10.2662    223.6715    148.4513   3.0433024480e+01   8.0579948159e+00    0.3986354    0.3277785  13.97  0.001841948    1.254    0.203
       177 -11.4133    189.2694    148.9324   3.6689459358e+01   1.4021164432e+01    0.9147159    0.3799783 -44.72  0.003611003    2.422    0.587
       178  -9.4920    192.4971    129.9814   3.1921679785e+01   1.6852056992e+01     0.348132    0.1304048 -41.76 0.0007845263    2.511    0.602
       179  -9.8505    192.5118    133.5518   3.2720537866e+01   1.6201021222e+01    0.2240705    0.2089138 -21.72 0.0006351124    1.005    0.005
       180 -11.4953    197.3556    136.4454   3.2458369566e+01   1.4751937607e+01    0.5522431    0.4133607  -7.27  0.002333072    1.567    0.362
       181 -10.6472    202.7861    136.0528   3.1386889389e+01   1.3800198368e+01    0.3691496    0.2479355  47.45  0.001512515    1.629    0.386
       182  -9.4081    182.2727    149.3481   3.8168399219e+01   1.5250545393e+01    0.3900945    0.1870751 -42.20   0.00157257    2.040    0.510
       183  -9.0743     89.3806    150.9973   6.1519840733e+01   3.2293199897e+01     0.433909     0.183827  41.14  0.001631102    2.209    0.547
       184  -9.3409     28.1734    148.9474   7.9437382247e+01   4.0926193792e+01    0.4640995    0.1877231  77.24  0.001616919    3.450    0.710
       185  -8.9266     22.4954    150.9825   8.1308423556e+01   4.0944822087e+01     0.198692   0.09063715  72.91 0.0008093104    2.449    0.592
       186  -8.5362    162.4171    150.2208   4.2569969027e+01   1.8875513296e+01    0.2115786    0.1379251 -56.29 0.0009503649    1.803    0.445
       187 -10.0964     39.8223    146.6324   7.5669486597e+01   4.0307431717e+01    0.7081195    0.3301965  80.23   0.00264465    2.910    0.656
       188  -8.8507    142.3966    147.7435   4.6706660088e+01   2.3295446114e+01    0.2732351    0.1905836 -38.12 0.0009458728    1.517    0.341
       189  -9.7904    107.0128    144.7532   5.5345636431e+01   3.0736284626e+01     0.603393    0.3672906  76.85  0.002174794    2.907    0.656
       190  -9.8248    116.6849    145.0323   5.2744841352e+01   2.8872326776e+01    0.6491213    0.2740654  55.90  0.001895713    3.932    0.746
       191  -9.7290    107.6753    139.3701   5.4063539596e+01   3.1902370457e+01    0.6178027    0.4534954  80.82  0.002774373    1.759    0.432
       192 -10.5905     68.3828    153.5055   6.8034061875e+01   3.4914430343e+01     0.557228    0.3537966  87.78  0.002317902    1.859    0.462
       193 -10.3667     57.4570    145.5996   7.0139708851e+01   3.8429675247e+01    0.8139042    0.3160656  41.32  0.003032642    2.395    0.583
       194  -9.6885    195.0618    145.0587   3.4752667260e+01   1.3646159728e+01    0.3518919    0.1702528 -49.65  0.001023829    2.388    0.581
       195  -8.4193    175.5981    145.7949   3.8778766024e+01   1.7194287701e+01    0.2016815    0.1333983 -51.62 0.0007272885    1.660    0.397
       196 -10.8633    148.4462    143.2311   4.4279398683e+01   2.3063944670e+01    0.9955018     0.385814 -50.40  0.003150988    2.796    0.642
       197  -8.5575    144.5347    137.4964   4.3949342156e+01   2.5077604943e+01    0.2552148     0.149657 -47.70 0.0007926799    1.731    0.422
       198  -8.7407     13.2494    146.0961   8.3622489947e+01   4.2965149933e+01    0.2239669     0.116662  69.52  0.000625857    1.885    0.469
       199  -9.6026      3.0091    142.0816   8.6362827245e+01   4.4721484573e+01    0.3143807    0.1498616  78.01  0.001409761    1.989    0.497
       200  -9.8439    125.2950    142.9108   5.0007015047e+01   2.7711260249e+01    0.5278993    0.3299811 -87.04  0.001841949    3.207    0.688
       201  -8.7445    165.6777    144.1216   4.0537187552e+01   1.9457800895e+01     0.230968    0.1856072 -66.58  0.001159137    1.523    0.344
       202  -9.3809    137.8607    143.7735   4.6975342481e+01   2.5051138976e+01    0.2903748    0.1804116 -59.07  0.001231997    1.864    0.464
       203  -9.5192     88.0657    143.5270   6.0554749163e+01   3.4358012830e+01    0.3624392    0.2370891  86.81  0.001389624    2.072    0.517
       204 -11.2456     69.7865    140.5877   6.5556586585e+01   3.7985901929e+01    0.7286303    0.3837857  78.25  0.002455715    3.381    0.704
       205  -9.2994    182.0058    141.2604   3.6476572757e+01   1.6815705032e+01    0.2637926     0.179823 -53.30  0.000936729    1.652    0.395
       206  -8.8373     46.9259    139.5088   7.2546719284e+01   4.1327033759e+01    0.2615595    0.1966264 -74.77 0.0006598169    1.250    0.200
       207  -9.4788     45.7174    135.3454   7.2346527889e+01   4.2551518927e+01    0.2885425    0.1955125 -84.19 0.0006671245    1.462    0.316
       208 -10.2882     41.0069    135.4682   7.3881977956e+01   4.3060919988e+01    0.3933341    0.3339121  14.09  0.001375308    1.386    0.278
       209 -10.6649     42.2241    129.7905   7.2689808211e+01   4.4404159632e+01    0.4740344    0.3368035  67.67  0.001897005    1.454    0.312
       210 -10.0335     81.5226    137.5132   6.1398197112e+01   3.6944187895e+01    0.4236463    0.2419104 -51.28  0.001807731    1.783    0.439
       211  -9.6712     23.2468    138.0583   7.9847302225e+01   4.4171879214e+01    0.5339777     0.232507  67.79  0.002075403    2.798    0.643
       212  -9.8797     22.6281    131.1565   7.9316400251e+01   4.6008108754e+01    0.4658679    0.2059836 -45.27  0.001897929    2.704    0.630
       213 -10.4652    245.9075    138.1226   2.4956605754e+01   6.0805480280e+00    0.1889666    0.1528193 -44.42 0.0008542843    1.299    0.230
       214 -10.4992    234.4727    136.7191   2.6335515403e+01   8.1215188951e+00    0.3320482    0.2341212  -4.45  0.001854108    1.662    0.398
       215 -10.6327    188.0552    135.4100   3.3986641914e+01   1.6728516156e+01    0.5337024    0.2320758 -45.63  0.002092562    2.314    0.568
       216  -8.6480    172.3916    138.1678   3.7775036965e+01   1.9300420932e+01     0.210992    0.1336329 -52.89 0.0006714683    1.755    0.430
       217  -9.3092    138.4868    137.4593   4.5431961977e+01   2.6312751711e+01    0.2715669    0.1471986 -59.06  0.001029054    2.283    0.562
       218  -9.0305    162.0256    136.2483   3.9592559265e+01   2.1773384777e+01    0.2148609    0.2014299  36.91 0.0007766552    1.073    0.068
       219  -9.3341    123.9741    136.2130   4.8905225981e+01   2.9504733966e+01    0.2496216    0.1820196   9.62   0.00074476    1.918    0.479
       220 -10.6831    246.7215    134.2770   2.4068934599e+01   6.5249202730e+00    0.3122649    0.2120782  55.42   0.00136327    1.952    0.488
       221  -9.2788    179.7640    133.3401   3.5162281377e+01   1.8756356947e+01    0.3460029    0.1834605 -53.85  0.001169513    2.313    0.568
       222 -10.6833    106.4496    122.7323   5.0747843808e+01   3.6135332692e+01    0.7558441    0.4790976   9.17  0.002677847    2.986    0.665
       223 -10.9476     99.0330    125.3606   5.3558042451e+01   3.6913873571e+01     1.178175    0.4696611 -58.77  0.003511562    2.802    0.643
       224 -11.4376    108.0134    113.5967   4.8074655537e+01   3.8004704354e+01     1.051442    0.6753839 -45.47  0.003819277    1.587    0.370
       225 -11.0931    116.9962    122.7940   4.7731966357e+01   3.4019719184e+01     1.009108     0.597118 -44.86   0.00408976    1.737    0.424
       226 -10.4085    110.9322    131.2698   5.1398955116e+01   3.3220651098e+01    0.6529083    0.4620337  57.54   0.00284427    1.538    0.350
       227  -9.8582    110.8580    125.6572   5.0147262190e+01   3.4572004594e+01    0.4140084    0.2820154  32.37   0.00132977    1.573    0.364
       228 -10.7221    132.2420    129.4579   4.5193672988e+01   2.9366516333e+01    0.9491154     0.353037 -53.26  0.002964637    3.073    0.675
       229 -10.3148     83.7828    131.8849   5.9612556352e+01   3.7992278756e+01    0.4957968    0.3199839  68.23  0.001384262    1.989    0.497
       230  -9.4839    208.5868    132.0702   2.9501140650e+01   1.3409266703e+01    0.3125446     0.203982  59.52  0.001540486    1.987    0.497
       231  -8.9052    142.9235    131.1558   4.2893613515e+01   2.6779607410e+01      0.23897    0.2078103  89.78 0.0006865899    1.337    0.252
       232  -9.6556     13.2415    129.5966   8.2207185465e+01   4.7168426537e+01    0.4541072      0.19379  63.36  0.001846172    2.658    0.624
       233  -9.6361    168.6879    129.3058   3.6540025601e+01   2.1797756389e+01    0.3648539    0.2193975 -61.55  0.001460951    2.330    0.571
       234  -9.7069    152.7597    127.3292   3.9637597492e+01   2.5535234691e+01    0.7143884    0.2014715 -47.84  0.002052627    3.767    0.735
       235 -10.0062     73.2670    129.1873   6.2403475626e+01   4.0377763339e+01    0.3733776     0.255495  87.39  0.001439473    1.785    0.440
       236 -10.4884    231.5887    128.2906   2.5009737668e+01   9.9223150740e+00    0.2611876    0.1994139 -85.37  0.001354484    2.109    0.526
       237 -10.7472     60.0166    124.3475   6.5848039831e+01   4.3581719407e+01    0.7521191    0.3800552  71.50  0.002437729    3.663    0.727
       238 -10.7652     44.2270    122.4591   7.0896351363e+01   4.6092124984e+01    0.8783976    0.4236702  74.01  0.002807904    3.476    0.712
       239  -8.5143    208.4227    125.2756   2.8029133788e+01   1.4602748701e+01     0.185434    0.1203893 -44.78 0.0004947539    1.473    0.321
       240 -10.6195    181.0508    120.6725   3.1965286332e+01   2.0896413596e+01    0.4436825    0.3090599 -27.71  0.001696445    1.526    0.345
       241 -10.7465     28.1796    121.9519   7.6355003114e+01   4.7904128445e+01    0.8576447      0.48862 -62.89   0.00415416    1.576    0.365
       242 -10.1335    224.5206    124.3029   2.5225228549e+01   1.1795612257e+01    0.3104145    0.1260729  56.30  0.001215759    3.415    0.707
       243 -10.1801    188.9683    121.8593   3.0719954335e+01   1.9042127407e+01    0.4186073    0.2080581 -33.96  0.001586815    2.043    0.511
       244  -9.3562     84.4778    122.1657   5.7369433480e+01   4.0324622289e+01     0.326722    0.2359745 -18.63   0.00125187    1.984    0.496
       245 -10.5309     29.9630    102.2217   7.2770157794e+01   5.2885138516e+01    0.8119937    0.2241335  44.52  0.002505029    4.287    0.767
       246 -10.7755     22.9531    101.8112   7.5413428760e+01   5.3612275241e+01    0.8144732    0.3520401  64.65  0.002834122    3.682    0.728
       247 -10.1154     21.2710     92.3303   7.4567284808e+01   5.6192208440e+01    0.5499737    0.2317866 -35.78  0.002086175    3.090    0.676
       248 -10.4062     22.5687    111.3715   7.6933136333e+01   5.1159864594e+01     0.692933    0.2370015 -76.56  0.002499982    2.886    0.654
       249 -11.4843     14.6840    113.6244   8.0058787555e+01   5.1187504429e+01    0.7151188    0.3218899 -73.45   0.00319588    1.913    0.477
       250 -10.9317     16.4023    105.4507   7.8426525719e+01   5.3179604099e+01    0.5882721     0.367997 -32.97  0.002967114    1.881    0.468
       251  -9.6469    173.1395    120.8731   3.3609130946e+01   2.2520800198e+01    0.4641412    0.2401341 -45.92  0.001873135    1.912    0.477
       252  -9.1773    158.5178    119.9158   3.6530196804e+01   2.5840537969e+01    0.5369112     0.234259 -48.41  0.001939713    2.384    0.581
       253 -10.0712    141.4993    118.2834   4.0146941019e+01   2.9870262787e+01    0.6455923    0.2696238 -55.18  0.001973661    3.132    0.681
       254  -9.9052     71.1212    118.6047   6.0990012050e+01   4.3426384142e+01    0.5463766     0.263139 -65.85  0.002075895    2.222    0.550
       255  -9.9845    130.6457    117.4358   4.2707250063e+01   3.2394685370e+01    0.5887427    0.3141937 -56.83  0.002221932    2.171    0.539
       256 -10.1225      3.0049    116.5907   8.4439260861e+01   5.1179277265e+01    0.6509686    0.2386788  74.48  0.002356768    3.448    0.710
       257  -8.9640    231.6855    116.6754   2.2517213904e+01   1.1733575411e+01    0.1303178   0.09661768  -2.72 0.0003981201    1.665    0.399
       258 -10.5767    185.8145    114.2332   2.9508429567e+01   2.1099427319e+01    0.4067913    0.2569651 -42.55  0.001008836    1.496    0.332
       259  -9.6823    182.3039    113.3141   2.9955255753e+01   2.2013294774e+01    0.2650678    0.2110846 -42.44 0.0007025019    1.194    0.162
       260  -9.2954     58.6110    114.7021   6.4495821768e+01   4.6281578438e+01     0.239634    0.1679507 -32.18 0.0009275213    1.748    0.428
       261 -10.1545     92.7757    112.3735   5.2460750990e+01   4.1268196090e+01    0.5846808    0.3695085 -78.89  0.002035465    2.298    0.565
       262  -9.3540     93.2588    104.0969   5.0220055271e+01   4.3187934241e+01    0.4607063    0.2757043  21.41  0.001738485    2.419    0.587
       263 -10.1206     79.1406    112.5341   5.6961224839e+01   4.3662856636e+01    0.5879996    0.3783249  87.69  0.001825932    2.337    0.572
       264  -9.1017     77.8965    106.1884   5.5883421931e+01   4.5465768467e+01    0.2956381    0.2371273  -4.09  0.001059527    1.599    0.375
       265  -9.7693    122.1489    112.1923   4.3668246256e+01   3.5391568773e+01    0.4121359    0.3130838 -80.06  0.001227691    1.673    0.402
       266  -9.6297    121.5099    108.4988   4.2885433610e+01   3.6364885762e+01    0.4864269    0.3429599  13.27  0.001980987    2.138    0.532
       267  -9.3174    174.7680    110.6155   3.0773333267e+01   2.4146333436e+01    0.4920552     0.175753 -46.11   0.00158362    2.838    0.648
       268  -9.4273     61.5637    105.9308   6.1601354684e+01   4.8121180614e+01    0.2615353     0.216179  35.94 0.0007675304    1.255    0.203
       269  -9.8652    133.7075    108.4105   3.9592647866e+01   3.3718768396e+01    0.5299184    0.2800352 -47.02  0.002072774    1.897    0.473
       270  -9.8760     59.3252    109.6449   6.3210067887e+01   4.7488881664e+01    0.2631826    0.2211548  77.10  0.001008231    1.258    0.205
       271 -11.0328    248.6037    103.7003   1.7512363117e+01   1.0761340941e+01    0.3114597    0.2185329 -33.03  0.001879023    1.197    0.164
       272  -9.9144    189.0961    106.7841   2.7097121797e+01   2.1762343490e+01    0.5082192    0.1183314 -43.36  0.001441307    4.064    0.754
       273  -9.5736    192.8585    114.3197   2.8229245700e+01   1.9613996399e+01    0.2482442    0.2370933   7.03  0.001448233    1.102    0.093
       274 -10.8144    199.2811    106.6621   2.5285030941e+01   1.9640021244e+01    0.3689878    0.2726629  57.50  0.001152664    1.500    0.333
       275  -9.7287    250.4196     98.7947   1.6263877674e+01   1.1170619528e+01    0.2774854    0.1066529 -32.26   0.00120222    2.326    0.570
       276 -10.1860    139.7368    103.1004   3.6650749638e+01   3.3505619756e+01    0.6882921    0.2898141 -46.27  0.002410174    2.382    0.580
       277 -10.7376     45.6445    101.9255   6.6681418709e+01   5.1276994609e+01    0.8591304    0.4159789  67.88  0.002691323    4.217    0.763
       278  -9.1042    166.6045    102.5009   3.0380386777e+01   2.7516139119e+01    0.4380203    0.1425959 -40.00  0.001395536    2.988    0.665
       279  -9.6268    150.1580    102.9940   3.4121633966e+01   3.1157550280e+01    0.5086625     0.236594 -52.71  0.001788964    2.502    0.600
       280  -9.5861      6.9002    103.1031   8.1713505823e+01   5.4408648440e+01    0.2059622    0.1600307  72.22 0.0005687464    1.274    0.215
       281  -9.8872    159.1709    110.4089   3.4010046807e+01   2.7625568995e+01    0.5853635    0.2055691 -40.60  0.001912721    2.836    0.647
       282 -10.3143    128.1552    100.9367   3.9042294349e+01   3.6580142167e+01    0.3959481    0.3687992  76.51  0.001525966    1.098    0.090
       283  -9.2813    129.3184     97.3207   3.7731126220e+01   3.7097066857e+01    0.4169854    0.2234915  37.36  0.001570091    2.145    0.534
       284 -10.7363    109.0522     98.8214   4.3864242930e+01   4.1227921063e+01    0.6495751    0.4691947  74.93  0.001823021    1.836    0.455
       285  -9.5628    108.4977     91.6728   4.1997703244e+01   4.2957060018e+01    0.5629543    0.3239299  24.08  0.001960741    2.840    0.648
       286 -10.4784     66.1820    109.0406   6.0636568757e+01   4.6637249937e+01    0.6323816    0.3339859 -71.64  0.002445329    2.263    0.558
       287  -9.3364     82.1926     99.4346   5.2699317248e+01   4.6379645817e+01    0.4617156    0.2629158 -71.98  0.001705823    2.509    0.601
       288  -8.8317     82.9733     93.8362   5.0923679183e+01   4.7590422245e+01    0.2465027    0.2137146 -10.27  0.001238021    1.344    0.256
       289 -10.2510    249.0018    117.7134   2.0381449868e+01   8.6209016619e+00    0.1941718    0.1530888 -49.83  0.001125541    1.299    0.230
       290 -10.4814     64.0884     96.0185   5.8340741561e+01   5.0251699857e+01    0.5594003    0.3522641  80.66  0.001827159    2.567    0.610
       291  -9.8223     94.9401     96.2260   4.7553986396e+01   4.4730872702e+01    0.4733691    0.2278013 -56.25   0.00139728    2.266    0.559
       292  -8.8573     97.1736     90.2171   4.5114969428e+01   4.5670666241e+01     0.385642    0.2521526  -1.25  0.001344714    3.120    0.680
       293 -10.0611     44.7484     91.8444   6.4879447472e+01   5.3966327981e+01    0.5030755    0.2649005  12.72  0.001940581    2.626    0.619
       294  -9.3040    138.6065     90.5026   3.3431229063e+01   3.6373322886e+01    0.5814687    0.2289573 -46.39  0.001958917    2.584    0.613
       295  -8.9952     57.7648     91.8120   5.9707400558e+01   5.2244994252e+01    0.1977333    0.1676355  72.64 0.0003575845    1.315    0.240
       296 -10.0838      4.6419     91.1267   8.1188430642e+01   5.7587998331e+01    0.4052687    0.2110902  69.97  0.001871941    2.247    0.555
       297  -9.6753    124.3883     90.6832   3.7156303527e+01   3.9632466114e+01    0.3791061    0.2832267 -81.23   0.00124545    1.764    0.433
       298  -9.6585    125.9458     84.4487   3.4893129852e+01   4.0571634158e+01    0.6326221    0.3994602   8.29  0.002011561    3.808    0.737
       299  -9.9824     34.6200     88.9415   6.8399847490e+01   5.5840505310e+01    0.6109977    0.2951351 -81.84  0.002305713    2.814    0.645
       300  -9.7616     35.7585     81.8165   6.6342829720e+01   5.7514642568e+01     0.449799    0.2412108 -28.14  0.001846084    2.530    0.605
       301 -10.7218    248.0884     89.5296   1.4571723156e+01   1.2926197177e+01    0.3061821    0.1957727 -72.64  0.001614896    2.191    0.544
       302  -9.9405     86.8298     86.6281   4.7523824422e+01   4.8557714825e+01    0.5226992    0.3552602  83.44  0.001739218    2.416    0.586
       303  -9.7471     86.9746     80.5078   4.5617206957e+01   4.9923054114e+01    0.4617854     0.264698  19.21  0.001597901    3.064    0.674
       304  -9.7515     65.2400     86.9206   5.5523394337e+01   5.2313568234e+01     0.487153    0.2778806  12.94  0.001810158    2.839    0.648
       305 -10.2622     48.2265     83.6769   6.1493628194e+01   5.5575590359e+01    0.5581762    0.3427136  75.79  0.002077342    2.680    0.627
       306  -9.9476     49.7903     76.8009   5.8996056196e+01   5.7044726029e+01    0.4357654    0.2779335  10.46  0.001527266    2.017    0.504
       307  -9.2462    232.3308     85.6588   1.5587383440e+01   1.6412187478e+01    0.1391542   0.08840109 -60.41 0.0007051422    1.746    0.427
       308 -10.0614      7.7875     84.4009   7.8975324697e+01   5.9119345447e+01    0.4586719    0.2357622   1.09  0.002166532    2.452    0.592
       309  -9.7095      8.7781     80.6293   7.7976765118e+01   6.0011338033e+01    0.4576838    0.1925669  37.63  0.002021951    2.611    0.617
       310  -9.2529    116.7730     83.2768   3.7061759284e+01   4.2931726894e+01    0.2979809    0.2097731 -32.11 0.0005867814    1.587    0.370
       311  -9.8600    104.6286     82.7940   4.0518348671e+01   4.5744844515e+01    0.5382729    0.3226099 -66.22   0.00161974    2.429    0.588
       312  -9.2457    104.9881     76.9467   3.8567496366e+01   4.6910039556e+01     0.252831    0.1959119   3.47  0.001133256    1.764    0.433
       313  -9.7265    140.7492     81.5609   3.0309879808e+01   3.7636151668e+01    0.4996051    0.1926227 -34.63  0.001595606    3.023    0.669
       314 -11.8858    187.0364     80.6083   2.0836734735e+01   2.6807134520e+01    0.6201936    0.4571455  24.98  0.001902685    1.878    0.468
       315  -8.5028    151.0000     88.0013   2.9816316855e+01   3.3941808173e+01    0.2599629   0.08670843 -39.84 0.0008059597    2.967    0.663
       316  -9.0822    150.1927     79.0237   2.7415856476e+01   3.5837269728e+01    0.4123129     0.128085 -31.40  0.001013038    5.230    0.809
       317  -8.9606     74.3171     79.7788   4.9985062116e+01   5.2472057703e+01    0.3489156    0.2310277 -84.09  0.001381023    2.502    0.600
       318  -9.1764    184.5111     77.4944   2.0437282153e+01   2.7913140146e+01    0.2227353    0.1259823 -46.93 0.0008030467    1.687    0.407
       319  -8.6629    167.4971     76.9779   2.3312772289e+01   3.2023962307e+01    0.2370148     0.143357 -38.84  0.001024528    1.605    0.377
       320 -10.0743     24.5667     80.4454   7.0952778421e+01   5.8934529021e+01    0.4612847    0.2626083  83.73  0.001396007    2.422    0.587
       321  -9.0147    127.8938     74.8233   3.1427820314e+01   4.2028590022e+01    0.3967364    0.2001593 -56.20  0.001393962    2.599    0.615
       322  -9.1435    128.9920     69.3097   2.9402006812e+01   4.2809775311e+01    0.4016324    0.2640519  -6.38  0.001510784    2.707    0.631
       323  -9.7557     10.0223     74.2113   7.6350517419e+01   6.1538188281e+01    0.2281376    0.2021143 -67.73 0.0003201819    1.045    0.043
       324  -8.4886     13.6819     74.2894   7.4671406577e+01   6.1291340939e+01    0.1663819    0.1234962  -9.03 0.0003891851    1.526    0.345
       325  -9.5246    220.0000     73.9842   1.4430159911e+01   2.0642090785e+01    0.2251687   0.06834799 -34.89 0.0007464598    2.914    0.657
       326  -9.3376    158.4830     81.0838   2.6250314917e+01   3.3455347789e+01    0.3917258    0.1536054 -34.10  0.001307897    2.810    0.644
       327  -9.1948    140.4811     73.9079   2.8071658767e+01   3.9151752074e+01    0.3115585    0.1536454 -36.21  0.001181043    2.115    0.527
       328  -9.7388     82.5126     72.5557   4.4656716142e+01   5.2558768086e+01    0.4413042    0.3180202 -87.23  0.001504841    2.136    0.532
       329 -10.2437     28.1854     70.6423   6.7088264555e+01   6.1028675941e+01    0.8659093    0.3450776 -28.35   0.00259409    5.046    0.802
       330  -9.6054    180.5959     72.0965   1.9643592627e+01   2.9729449371e+01    0.2787092    0.1855625 -21.25  0.001047443    1.854    0.461
       331  -9.1762    105.9649     71.7625   3.6580107918e+01   4.7758265274e+01    0.2483935    0.1795551  79.99 0.0007415817    1.903    0.475
       332  -9.2181     95.4817     71.1867   3.9711314026e+01   5.0185612794e+01     0.362058    0.2413047 -67.30  0.001350466    2.051    0.512
       333  -9.6922      5.3585     70.9083   7.7960321386e+01   6.2606509072e+01    0.3062294    0.1540777  86.85  0.001211777    2.402    0.584
       334 -10.0097     51.5315     69.1567   5.5993316434e+01   5.8608025889e+01     0.569799    0.2924353 -73.17  0.001974651    3.471    0.712
       335  -9.1070    222.6590     70.6637   1.3322905086e+01   2.0587835206e+01    0.1289999    0.1034693  11.94 0.0007050673    1.760    0.432
       336  -9.3881     16.3007     69.1411   7.2404804309e+01   6.2378507567e+01    0.3952448    0.1933525 -82.38  0.001677807    2.484    0.597
       337  -8.8725      1.4611     69.0078   7.9497134652e+01   6.3253263960e+01    0.2014855    0.1072009 -70.49  0.001025726    1.583    0.368
       338  -8.8130    188.1379     68.1318   1.7375864869e+01   2.8598581194e+01    0.2138822    0.1971583   2.32 0.0007663262    1.309    0.236
       339  -8.6574    146.8890     67.7665   2.4766116097e+01   3.8683510081e+01    0.3022178    0.1798009 -59.90 0.0009522903    2.072    0.517
       340  -8.7742    106.1994     67.0035   3.4913230826e+01   4.8651619153e+01    0.2517197    0.1837441  -3.40  0.001063452    2.013    0.503
       341 -10.1966     83.1168     65.1967   4.1935146153e+01   5.4002399328e+01    0.5041955    0.3114198  -8.77  0.001743935    3.386    0.705
       342  -9.6546    203.5813     65.6927   1.4532746507e+01   2.5442173045e+01    0.2784773    0.1308126 -30.70   0.00115779    2.184    0.542
       343  -8.4298    138.6817     66.3433   2.6139835203e+01   4.0969236471e+01    0.1622035     0.116865 -73.73 0.0007049209    1.719    0.418
       344  -9.2153    121.6132     63.9183   2.9530583420e+01   4.5597016206e+01    0.5876667    0.1996789 -35.41  0.001828392    3.284    0.695
       345  -9.3206     95.2527     64.1064   3.7358638916e+01   5.1672062946e+01    0.3442125    0.2280479  -1.25    0.0013049    2.728    0.633
       346  -9.6637     37.3440     63.8540   6.0888616049e+01   6.1680964543e+01    0.3209988    0.2215212  81.13  0.001125797    2.195    0.544
       347  -8.7222    158.8611     63.8260   2.1161762923e+01   3.6383931549e+01    0.2116824    0.1684709 -68.30 0.0005658319    1.312    0.238
       348  -8.9995    110.0232     63.0580   3.2431927710e+01   4.8522325386e+01    0.3636365    0.2116294 -53.85  0.001286925    2.005    0.501
       349  -8.8073    110.7933     58.4134   3.0591868120e+01   4.9196112089e+01    0.2774393    0.2213735   6.36 0.0008298297    1.609    0.378
       350  -9.7527     18.0391     61.5809   6.9820565727e+01   6.4073713793e+01    0.3084342    0.1732484 -48.99 0.0009999599    1.539    0.350
       351  -9.2888     52.2682     61.0148   5.3023534430e+01   6.0345211476e+01    0.2608456    0.1831258  11.52  0.001274028    1.687    0.407
       352  -9.1007    170.4488     60.4948   1.8115307934e+01   3.4060166621e+01    0.1466129     0.136234 -70.87 5.892852e-05    1.008    0.008
       353  -9.1020    100.3889     60.1543   3.4310225297e+01   5.1292790640e+01    0.2230894    0.1387031 -51.65 0.0009520072    1.780    0.438
       354  -9.5929     73.3450     59.2949   4.3504380128e+01   5.7129849933e+01    0.4276271    0.2797853 -64.13   0.00110304    2.056    0.514
       355  -9.9355     74.1145     52.0835   4.0479324608e+01   5.8414876512e+01    0.5966088    0.3446357  -9.31  0.001898236    4.257    0.765
       356  -8.4279    164.6959     59.6811   1.8871918278e+01   3.5610654036e+01    0.1451051    0.1164984  23.26 0.0007027755    1.629    0.386
       357  -9.4328     38.9106     58.2082   5.8374183406e+01   6.2788695387e+01    0.2813211    0.1522895 -33.63  0.001234578    2.075    0.518
       358  -9.4125     25.7835     55.3795   6.4141193364e+01   6.4862289614e+01    0.2669833    0.1384739 -32.63 0.0009366989    2.124    0.529
       359 -11.1677      7.3462     54.8330   7.3823843409e+01   6.6369436836e+01    0.8441349    0.1945003 -63.76  0.003105963    3.125    0.680
       360  -9.8688      2.0646     56.0135   7.6898434347e+01   6.6352100560e+01    0.2915952    0.2513746  76.76  0.001639295    1.320    0.242
       361  -8.8391    119.4503     55.9288   2.7372796732e+01   4.7544429937e+01    0.2156795    0.1216102 -59.05 0.0008065886    2.421    0.587
       362  -9.4737    100.0067     55.0923   3.2593153693e+01   5.2316998710e+01    0.2899106    0.2032589  -4.03  0.001237735    2.123    0.529
       363 -11.5194     45.4239     49.2360   5.2013775148e+01   6.3877841616e+01    0.5097727    0.2559063 -43.92   0.00228553    1.889    0.471
       364  -9.1890     62.8421     54.3673   4.5970229584e+01   6.0050566199e+01    0.2450367    0.1930178 -56.78 0.0007002632    1.398    0.285
       365  -9.2609     54.3685     54.1305   4.9621833095e+01   6.1507837164e+01    0.2860359    0.1721437 -64.24   0.00123748    2.246    0.555
       366  -8.8976     20.3249     52.6841   6.6248992914e+01   6.5968510925e+01    0.1269017   0.09882914  64.78 0.0003275652    1.669    0.401
       367  -9.3728     92.4588     50.0600   3.3105301507e+01   5.4928638636e+01    0.4301906    0.2164428 -50.76    0.0015889    2.401    0.583
       368  -9.5257     30.9352     50.8678   6.0001691417e+01   6.5352640438e+01    0.2409949    0.1747219  86.76 0.0009932108    2.075    0.518
       369  -9.6099     63.5959     47.7251   4.3050479720e+01   6.1236070556e+01    0.4281914    0.2631557  -9.65  0.001694201    2.791    0.642
       370  -9.2687     22.4741     46.7517   6.3236131428e+01   6.7113845816e+01    0.2651397    0.1722101   1.09    0.0014073    1.729    0.422
       371  -9.3588     54.2277     46.1763   4.6601939834e+01   6.3151096681e+01    0.2376988    0.1438047  -9.68 0.0009442511    2.778    0.640
       372  -8.7182      1.6276     45.9775   7.4986773385e+01   6.8705509256e+01    0.1749906    0.1333167 -57.08 0.0005955969    1.108    0.098
       373  -9.0332    149.9997     44.0343   1.6716323252e+01   4.1712412437e+01    0.2772723    0.1858036 -35.03  0.001321144    1.532    0.347
       374  -8.6267    130.6813     45.6866   2.1124769238e+01   4.6402643302e+01    0.1515619    0.1136085  28.39 0.0007037329    1.649    0.393
       375  -9.6878     16.6920     42.2349   6.5078398617e+01   6.8606873747e+01    0.6430922    0.1166716 -52.42  0.002217747    3.551    0.718
       376  -8.8729     31.1866     44.5870   5.7653687501e+01   6.6686562221e+01    0.1852494    0.1211039   5.60 0.0009452305    1.750    0.428
       377  -9.2143     58.1995     42.3645   4.3203683913e+01   6.3213235239e+01    0.2942105    0.1650928 -64.08  0.001084121    3.454    0.710
       378 -10.1234      5.0566     41.1168   7.1717476273e+01   6.9636304520e+01    0.4639013    0.2144937 -81.83  0.001959289    3.077    0.675
       379  -9.2757    113.9127     41.3402   2.3534079453e+01   5.1277349477e+01    0.2490579    0.2179953 -12.38 0.0002934773    1.285    0.222
       380 -10.1534    247.2614    248.0894   4.3878392377e+01  -8.3839074088e+00    0.2478572    0.1728558  12.65 0.0009787031    1.159    0.137
       381  -8.9312     83.9351     39.8280   3.1871058029e+01   5.8561347404e+01    0.2329075    0.1854491  21.98  0.001055048    1.359    0.264
       382  -8.7620     36.7144     40.3484   5.3003001144e+01   6.6890932978e+01    0.1982068    0.1608821  71.59  0.001081802    1.818    0.450
       383  -8.9965    106.0397     37.0082   2.3935374648e+01   5.3860524326e+01    0.2377877    0.1691852  27.27 0.0006781293    1.685    0.406
       384  -9.0817     95.5045     37.5213   2.7155165559e+01   5.6303056557e+01    0.1435938    0.1369884  72.62 5.265644e-05    1.092    0.084
       385  -8.9075     26.0951     36.4536   5.7416474253e+01   6.8946496061e+01    0.2049455    0.1590564 -45.95  0.001224344    1.207    0.172
       386  -8.7573     38.1669     35.5664   5.0197189932e+01   6.7639594784e+01    0.1817488    0.1202071  13.94 0.0006493214    1.666    0.400
       387  -8.9533    119.4605     33.4783   1.9256341278e+01   5.1019021756e+01    0.2571505    0.1216036 -43.00   0.00102337    2.238    0.553
       388  -9.9307      6.5221     33.7384   6.8591657069e+01   7.1169081688e+01     0.245968     0.200693 -33.86  0.001027347    1.049    0.047
       389  -8.9865    222.4967     32.4801   4.3521037290e+00   2.5844768643e+01    0.1314542    0.1042282 -60.31 0.0002710112    1.043    0.041
       390  -8.7545     60.4199     32.2710   3.7719034257e+01   6.4598659102e+01     0.187838    0.1278053 -48.08 0.0009466169    1.675    0.403
       391  -8.4826     49.5370     32.4988   4.2901172846e+01   6.6480330177e+01    0.1326882    0.1231339  -1.11 0.0001458983    1.058    0.055
       392  -9.3234     12.8203     31.0977   6.3561683345e+01   7.1288499748e+01     0.177478    0.1691869 -70.68 0.0007567642    1.283    0.221
       393  -9.1204     81.9054     46.2191   3.5221267959e+01   5.7908894218e+01    0.2964931     0.186617 -42.93 0.0008551958    1.648    0.393
       394  -8.3434    112.4999     30.4928   1.9742700473e+01   5.3176249074e+01    0.1465085    0.1319492  45.62 -3.326861e-05    1.094    0.086
       395  -9.5596     27.6416     28.2608   5.2971942161e+01   7.0386747811e+01    0.4146073     0.104158 -41.05  0.001366012    4.104    0.756
       396  -9.3086    148.2118     28.5737   1.2027363888e+01   4.4257693271e+01    0.2174291    0.1174212  55.98 0.0009593121    1.765    0.433
       397  -8.5717    101.0000     27.9817   2.1651784936e+01   5.6352569150e+01    0.2243953   0.08228613 -30.10 0.0006399793    2.930    0.659
       398  -8.9416      2.3479     27.5044   6.9321444933e+01   7.2731596078e+01    0.2599297    0.1545807 -14.49 0.0009392826    1.710    0.415
       399  -8.5546     61.7601     27.4132   3.4826360644e+01   6.5124209392e+01     0.194891    0.1175369  33.93 0.0009360814    1.666    0.400
       400  -8.7011    110.2915     24.5823   1.7937968662e+01   5.4489524133e+01    0.1786832    0.1753536 -88.75 0.0006414395    1.074    0.069
       401  -9.6411     44.3917     25.1446   4.1943511195e+01   6.8582174050e+01    0.2189442    0.1753615  31.90 0.0003680892    1.228    0.186
       402  -8.0499    118.5092     24.5047   1.6074940327e+01   5.2419564081e+01    0.1430344    0.1313544  67.67 1.159181e-05    1.003    0.003
       403  -8.6408     67.0000     23.9397   3.0965710527e+01   6.4597897241e+01    0.2111175   0.07664695 -33.87 0.0004711536    2.872    0.652
       404  -8.2524     58.9872     22.0073   3.3338823988e+01   6.6473731624e+01     0.158336    0.1430143   6.28 0.0003237006    1.039    0.037
       405  -8.6502     84.8566     21.1612   2.3338892942e+01   6.1067216389e+01    0.2022467    0.1842178 -89.05 0.0005288303    1.261    0.207
       406  -8.7785     40.7708     21.0873   4.1779824936e+01   6.9826267306e+01    0.1781117    0.1501978  -5.03 0.0002879207    1.077    0.072
       407  -9.4079    188.9403     20.5199   4.4616075253e+00   3.4967332445e+01    0.2026325    0.1212684  75.01  0.001030145    1.588    0.370
       408  -9.9701     13.0620     21.1586   5.9261887583e+01   7.3256138208e+01    0.2645867     0.198531   6.49 0.0007569828    1.305    0.234
       409  -8.3734     92.0315     21.4802   2.1347035746e+01   5.9345210797e+01    0.2141747   0.09412466  40.02 0.0008100112    2.542    0.607
       410  -8.9901     50.6091     15.2951   3.3594734689e+01   6.9008734373e+01    0.2262373    0.1390749  26.55 0.0006553136    1.708    0.415
       411  -9.0438    196.4837    248.5170   5.2524528301e+01  -2.6192863578e+00    0.2072355    0.1558872  14.10   0.00107424    1.008    0.008
       412 -11.0563    173.6299    245.1779   5.6317994037e+01   7.5968004234e-01    0.4746251    0.4664161  83.72  0.003654813    1.533    0.348
       413  -8.0776     32.2756     11.3571   4.1205262564e+01   7.2648912176e+01    0.1296123   0.08651567  -4.60 0.0004404791    1.652    0.395
       414  -8.3747     80.6289     12.3137   2.0457020875e+01   6.3087298796e+01    0.1364459    0.1037429 -74.84 0.0007034573    1.781    0.438
       415  -9.7148    107.3878    247.4544   6.9854299569e+01   9.4337449378e+00    0.2874434    0.2179151  88.87  0.001825742    1.738    0.425
