#   1 NUMBER                 Running object number                                     
#   2 MAG_AUTO               Kron-like elliptical aperture magnitude                    [mag]
#   3 X_IMAGE                Object position along x                                    [pixel]
#   4 Y_IMAGE                Object position along y                                    [pixel]
#   5 X_WORLD                Barycenter position along world x axis                     [deg]
#   6 Y_WORLD                Barycenter position along world y axis                     [deg]
#   7 A_WORLD                Profile RMS along major axis (world units)                 [deg]
#   8 B_WORLD                Profile RMS along minor axis (world units)                 [deg]
#   9 THETA_WORLD            Position angle (CCW/world-x)                               [deg]
#  10 FWHM_WORLD             FWHM assuming a gaussian core                              [deg]
#  11 ELONGATION             A_IMAGE/B_IMAGE                                           
#  12 ELLIPTICITY            1 - B_IMAGE/A_IMAGE                                       
         1 -13.6495     23.5788     54.3896   9.1489269734e+01   6.3735979875e+01     1.260589     1.002934 -80.82  0.007432433    1.950    0.487
         2 -12.6703     36.4068     56.8259   8.6464446360e+01   6.1943141985e+01      0.50204    0.4098094   9.67  0.001646731    1.206    0.171
         3 -12.6339    215.9734     11.8735   3.0539336296e+01   3.0488452310e+01    0.2980692    0.2721658  -5.74 0.0007455951    1.604    0.377
         4 -12.5387    199.8400     11.1095   3.1746783771e+01   3.4046333810e+01    0.8174303    0.3111385 -58.83  0.003519831    2.927    0.658
         5 -13.2486     65.3441     10.3481   5.5600465807e+01   6.4319226154e+01    0.3481075     0.224447  36.73 0.0006740189    1.292    0.226
         6 -11.9489     36.7465     11.1438   6.7357135945e+01   6.9090900831e+01    0.2117353    0.1613161  19.52 0.0002715518    1.107    0.097
         7 -10.9770    128.0941      5.7929   3.9003263904e+01   5.1105564722e+01    0.2782708    0.1535453  56.94  0.000825984    1.505    0.336
         8 -11.5854    189.4232      4.2081   3.1122607901e+01   3.7046504683e+01    0.2868184    0.1806508  79.37 0.0005736809    1.359    0.264
         9 -11.4359     65.2551      1.5706   5.1694282027e+01   6.5112881966e+01    0.3437563    0.1265354  53.53  0.001118306    2.305    0.566
        10  -9.5476    118.0928      1.0000   3.9117377973e+01   5.3797715858e+01     0.203735   0.06036397  66.26 0.0005079514    2.815    0.645
        11 -10.1365    127.3051    227.6503   9.5031799438e+01   8.3491660982e+00    0.1377439    0.1014522  65.58 0.0003813749    1.702    0.413
        12 -11.1047     70.3739    248.7898   1.0996610174e+02   1.2360546556e+01    0.3276815    0.2457178 -10.05  0.001116136    2.185    0.542
        13 -11.6822     14.4657    249.9940   1.2106485848e+02   1.8654116876e+01    0.2339802    0.1357611  28.57    0.0014216    1.965    0.491
        14 -11.2306     36.0347    223.4350   1.1502829732e+02   2.1895503924e+01    0.2464574    0.1815979  84.35 0.0008598163    1.212    0.175
        15 -12.2532    233.8020    210.7665   7.0010082292e+01  -4.7746716141e+00    0.4474355    0.3877198  16.50  0.003006139    1.293    0.226
        16 -10.0031    154.4859    212.7012   8.6525631696e+01   6.9655954508e+00    0.1861166    0.1285655 -31.78 0.0009293089    1.563    0.360
        17 -10.9572     87.0887    206.4889   1.0147609940e+02   1.9105852596e+01    0.4190915    0.2664106 -38.07  0.001440318    2.028    0.507
        18 -10.6125     18.4402    203.3321   1.1731354194e+02   2.8294313409e+01    0.3060898    0.1231504  58.69  0.001341562    2.552    0.608
        19  -9.8784      2.5217    203.0478   1.2077703088e+02   2.9797058174e+01    0.1740993   0.09918243 -82.05 0.0003407014    1.476    0.323
        20  -9.9754    124.1702    198.1616   9.1150867193e+01   1.5113490185e+01    0.2026535    0.1693786  63.70 0.0005763242    1.332    0.249
        21 -10.5002    133.2485    195.4487   8.8480199293e+01   1.4172467727e+01    0.2678298    0.2032447 -51.09 0.0008934778    1.371    0.271
        22 -11.5052    162.3295    194.0034   8.1387656086e+01   9.4318260517e+00    0.5058903    0.3012168  50.15  0.002214196    2.007    0.502
        23 -11.2657    179.7696    216.7665   8.1705815112e+01   2.1238341656e+00    0.2555049    0.1890009 -49.47  0.001260064    1.572    0.364
        24 -10.8742     66.3711    191.1346   1.0457175361e+02   2.5701170965e+01     0.434667     0.206359 -46.71  0.001771031    2.469    0.595
        25 -10.7718    155.9251    188.1605   8.1745377794e+01   1.1784245181e+01    0.2821558     0.221404 -28.87   0.00128137    1.311    0.237
        26 -10.1111     86.6236    188.8055   9.9065148796e+01   2.3367376003e+01    0.2089268     0.135408 -76.43 0.0009513683    1.742    0.426
        27 -10.4100    183.1155    183.9963   7.4839601758e+01   7.8393545237e+00     0.315725    0.1891343 -56.50   0.00136206    2.148    0.534
        28  -9.8380    174.3180    183.6679   7.6688710156e+01   9.4534025180e+00    0.1412614     0.119503  85.31 0.0004543291    1.691    0.409
        29 -12.3831     44.5363    181.5183   1.0895818670e+02   3.0815959248e+01     0.444489    0.2511214  88.54  0.002021735    1.984    0.496
        30 -10.4879    147.4098    180.1937   8.2207202736e+01   1.5053114811e+01    0.2158419    0.1451157 -61.08 0.0009528183    1.768    0.434
        31 -11.6919     37.1018    178.2292   1.1049553446e+02   3.2465128372e+01    0.4078389    0.1643035 -68.64  0.001702371    2.199    0.545
        32 -12.0362     34.0037    172.9933   1.1071063134e+02   3.4106525218e+01    0.3670821    0.1945869  71.72  0.001599754    2.280    0.561
        33 -10.5625    191.9845    178.0199   7.1759908733e+01   7.4744732918e+00    0.2179519    0.1856717 -87.06  0.001138901    1.724    0.420
        34 -10.4567    129.1542    176.6987   8.6025984874e+01   1.9165394918e+01    0.3011907    0.1839352 -67.12  0.001215186    2.136    0.532
        35 -10.2934    159.4813    175.4880   7.8402398243e+01   1.3869790519e+01    0.2667017    0.1450061 -57.87  0.001029021    2.315    0.568
        36 -11.4673     11.7752    172.5240   1.1637153799e+02   3.6285522210e+01    0.4572932    0.1699353 -69.67  0.001780608    2.182    0.542
        37 -10.3571     76.3424    175.6596   9.9749951624e+01   2.8149962657e+01    0.1583769    0.1062346  68.65 0.0007048856    1.775    0.437
        38 -10.3821    175.7852    171.1417   7.3801374612e+01   1.1778831527e+01    0.3388426    0.1714423 -47.31  0.001373583    1.975    0.494
        39 -11.6482     44.6104    171.1785   1.0767486196e+02   3.3412250561e+01    0.3945481    0.1654702 -73.79   0.00154599    2.409    0.585
        40  -9.1652    198.0000    169.0015   6.8664334879e+01   8.1852575545e+00    0.2440273   0.07651175 -42.83 0.0008062513    2.969    0.663
        41 -11.6989     99.5434    163.9413   9.1386373819e+01   2.7457950045e+01     0.467525    0.3145829 -42.08  0.002106321    1.569    0.362
        42 -10.3510    138.6646    164.5073   8.1165067362e+01   2.0248902539e+01    0.3025348    0.2022265 -81.11  0.001156379    2.538    0.606
        43 -10.8966     93.4768    160.5099   9.2417273295e+01   2.9329906222e+01    0.3574866    0.2252427  71.87  0.001390337    2.407    0.585
        44 -10.9877     31.4913    160.4949   1.0991445297e+02   3.7533198395e+01    0.2549347     0.120754 -84.40  0.001036002    2.353    0.575
        45 -12.0196    122.3443    157.3162   8.3868720291e+01   2.5031253489e+01    0.5382155    0.3673159  15.44  0.001887653    1.915    0.478
        46 -12.2864    119.0015    157.5146   8.4803588956e+01   2.5604055015e+01    0.5827268    0.3536416  38.02  0.001402133    1.662    0.398
        47 -12.5540     49.4589    164.1420   1.0540809887e+02   3.4647161160e+01     0.518002    0.3764103  16.87  0.001913298    1.667    0.400
        48 -10.5148    218.9303    156.3507   6.2008130799e+01   6.9353563538e+00    0.2453812    0.1782357 -44.65  0.001117201    1.303    0.232
        49 -10.6697    167.6589    157.3652   7.2660170977e+01   1.6251165064e+01    0.2298018     0.188657  89.11 0.0009359646    1.671    0.401
        50 -10.8907     79.2168    162.7240   9.6825527799e+01   3.1009813963e+01     0.576766     0.274857 -81.71  0.001645255    4.540    0.780
        51 -10.2398     55.5344    159.5096   1.0301841923e+02   3.5101068471e+01    0.2265107    0.1234733  42.96 0.0006502425    1.899    0.473
        52 -10.2173     81.3202    154.6501   9.4770929278e+01   3.2758002162e+01    0.1597907    0.1147362  73.81 0.0007048344    1.741    0.426
        53 -11.0199    243.4961    151.1955   5.6806839407e+01   3.7966489900e+00    0.2287444     0.192706  34.48  0.001429355    1.398    0.285
        54 -10.3164     22.6594    151.3362   1.1127379629e+02   4.0693108679e+01    0.1437128   0.09031942  67.40 1.228416e-05    1.759    0.431
        55 -10.7822    189.6310    149.2087   6.6089675892e+01   1.3691003202e+01    0.3781608     0.171199 -52.50  0.001356784    2.625    0.619
        56 -11.6206    108.9977    146.9192   8.5282759068e+01   3.0044894058e+01    0.7937033    0.3690399  59.17  0.002141138    4.715    0.788
        57 -10.7134    148.8101    145.5347   7.4446823384e+01   2.2630262657e+01    0.3035449    0.2153558 -85.53   0.00120699    2.307    0.567
        58 -10.7236     55.0033    145.2924   1.0087985754e+02   3.8851904164e+01      0.30647    0.1746198  84.34  0.001170174    2.688    0.628
        59 -10.4707    124.6903    143.6461   8.0228364224e+01   2.7879453532e+01    0.3221149    0.1956861 -71.30  0.001164865    2.532    0.605
        60 -10.8426     87.4941    143.5199   9.0771728843e+01   3.4626203433e+01     0.280525    0.1500551 -68.92  0.001033437    2.335    0.572
        61  -9.9674    181.5277    141.5102   6.6033249001e+01   1.6868929670e+01    0.1510767    0.1418154 -45.86 0.0002333934    1.071    0.066
        62 -11.5502     21.7765    139.9160   1.1009232653e+02   4.3687107437e+01    0.3182406    0.3036555   6.04  0.000986889    1.245    0.197
        63 -10.5495      1.3624    136.7059   1.1573102472e+02   4.5954861110e+01    0.1855358   0.09379435 -65.83 0.0006412868    1.559    0.358
        64 -11.1357     82.5715    131.3131   8.9646941921e+01   3.8521334243e+01     0.304482    0.1486496 -60.36  0.001140908    2.125    0.529
        65 -10.1908    143.3071    131.6667   7.2519571945e+01   2.6912298439e+01    0.1599253    0.1271997 -87.14 0.0004811097    1.668    0.400
        66 -11.5510     97.9325    126.7682   8.3896249274e+01   3.7033627407e+01    0.5018747    0.3465721 -78.53  0.001451776    2.031    0.508
        67 -10.1990     73.3040    129.6612   9.2187774807e+01   4.0378503197e+01    0.1538352    0.1171306  77.36 0.0007039562    1.673    0.402
        68 -10.2920    117.3257    125.6384   7.7957444897e+01   3.3627660797e+01    0.1649095    0.1272597  86.86 0.0007041532    1.788    0.441
        69 -10.8600     58.9094    123.7695   9.5581197307e+01   4.3897444269e+01     0.398072     0.216686 -81.06  0.001437114    2.939    0.660
        70 -11.4202     43.1398    123.2630   1.0069039182e+02   4.5917506401e+01     0.427186     0.277102  81.13   0.00192544    2.116    0.527
        71 -10.7560    189.3092    124.1083   6.0382554823e+01   1.8819488526e+01    0.2623395    0.2207315  58.33 0.0007672991    1.315    0.239
        72 -10.8339     28.5173    123.0250   1.0547785265e+02   4.7421672063e+01    0.2012151    0.1102405  85.05 0.0008103776    2.637    0.621
        73 -10.7706    130.3367    117.8611   7.2400980703e+01   3.2760849390e+01    0.3268692    0.1426232 -52.95  0.001087336    2.583    0.613
        74 -11.0644    108.4139    112.6343   7.7189360582e+01   3.8434433963e+01    0.5580529    0.3011477 -63.13  0.001962048    2.658    0.624
        75 -10.3137    185.6625    113.9500   5.8661945564e+01   2.1592162209e+01    0.2182643    0.1783026 -44.62 0.0005838068    1.146    0.127
        76 -11.4830     92.0200    111.8769   8.2002912661e+01   4.1694166240e+01    0.6168215    0.2829905 -60.05  0.002091996    2.787    0.641
        77 -11.6696     14.0864    109.8425   1.0818312809e+02   5.1858161413e+01    0.5562981    0.2831129 -84.21  0.002455434    2.325    0.570
        78 -12.3758    120.9829    107.8864   7.2300991347e+01   3.6956772414e+01    0.5842962    0.4133562  65.76  0.001777695    1.852    0.460
        79 -12.6270    149.0947    105.2945   6.4338615737e+01   3.1395292972e+01    0.3998131    0.3479069 -24.12 0.0004558344    1.218    0.179
        80 -11.7395    140.5704    105.0865   6.6360689670e+01   3.3333326685e+01    0.4547919    0.3439175  89.66   0.00199926    1.856    0.461
        81 -11.9147     64.0665    102.1406   8.8815941152e+01   4.8533355506e+01    0.3997176    0.3215999 -70.48  0.001136689    1.412    0.292
        82 -11.3071      7.0948    102.5044   1.0945240453e+02   5.4094655533e+01    0.4274682    0.2179696 -82.05   0.00198653    2.147    0.534
        83 -11.5669    128.4286    102.2629   6.8723772667e+01   3.6591509810e+01    0.3842898     0.258954 -71.51  0.001530855    2.230    0.552
        84 -12.7660    110.4376    100.1103   7.3164544648e+01   4.0848284513e+01    0.8571147    0.5307657  66.24  0.003213504    2.618    0.618
        85 -11.4202     45.2778    102.3735   9.5597885649e+01   5.0890823744e+01    0.5292476     0.300866  72.66  0.001790085    4.245    0.764
        86 -10.9694     78.7611    112.8701   8.6529543240e+01   4.3712363362e+01    0.4837377    0.2906441 -77.41   0.00177005    2.839    0.648
        87 -10.7341    124.0461     90.7556   6.6634430210e+01   3.9934968964e+01    0.3282889    0.1980069 -66.29  0.001194022    2.736    0.635
        88 -10.2170     79.5213     87.9461   7.9484507929e+01   4.9341603990e+01    0.2194954    0.1405257 -45.84 0.0003710344    1.510    0.338
        89 -10.3508    192.9347     85.8542   5.0458078888e+01   2.5207326843e+01    0.4333245    0.2420165  30.76 0.0009477609    3.338    0.700
        90 -10.9121     86.1098     86.8953   7.6935634869e+01   4.8405494977e+01    0.3151412     0.232087  83.23  0.001359023    2.333    0.571
        91 -10.8730     48.7737     85.2096   8.9966151434e+01   5.4502944843e+01    0.4091927    0.2419873  70.30  0.001308801    5.122    0.805
        92 -10.9363    104.2471     83.0368   6.9983423132e+01   4.5693508659e+01      0.51118    0.2394084 -60.46  0.001417382    4.905    0.796
        93 -10.4314    129.6799     77.3513   6.1197644213e+01   4.1259964333e+01    0.1549612    0.1189677 -78.60 0.0007047869    1.744    0.427
        94 -10.2458    203.1801     76.2697   4.6526170618e+01   2.4567068143e+01    0.2083265    0.1667143  45.80 0.0007783119    1.458    0.314
        95 -10.4582    157.6163     75.8120   5.4379230912e+01   3.5052701972e+01     0.219078    0.1309459 -48.30 0.0009571246    1.721    0.419
        96 -10.4772    103.0480     75.9954   6.8150578170e+01   4.7317086007e+01    0.2349082     0.191069 -89.34  0.001140524    1.728    0.421
        97 -11.4256     82.0803     72.5206   7.3795800090e+01   5.2070807962e+01    0.4736543    0.2637553 -61.50  0.001755323    3.130    0.680
        98 -10.8282     62.5104     74.5158   8.1528140818e+01   5.4934266520e+01    0.3444675     0.209807 -60.27  0.001536898    2.135    0.532
        99 -11.5315     25.3192    247.0307   1.1885062694e+02   1.8108571259e+01    0.2102607    0.1366654  51.88 0.0003785105    1.254    0.202
       100 -12.4988     44.6244     64.7893   8.5552348995e+01   5.9386375780e+01    0.6190034    0.3409669 -30.35  0.000698544    1.854    0.460
       101 -12.1232     36.8508     62.6930   8.8188987564e+01   6.0728223216e+01    0.4481624    0.3545114 -52.31  0.001696604    1.354    0.261
       102 -12.4512     37.0739    244.1469   1.1636336514e+02   1.7388969109e+01    0.3725507    0.2427156  48.48  0.001092543    1.286    0.222
       103  -9.5938    179.0670     69.7812   4.8745072320e+01   3.1053422797e+01    0.1757504     0.113595  62.86  0.000340566    1.561    0.359
       104 -12.1307      7.1548     65.9983   1.0224588056e+02   6.2535142564e+01    0.3931072     0.305307  24.05  0.001879896    1.537    0.349
       105 -11.7562    235.1577     66.0890   4.0114500101e+01   1.9499737573e+01    0.2133848    0.1834053 -56.52 0.0003106669    1.078    0.073
       106  -9.9247    105.3225     52.6859   5.9785681861e+01   5.0862429455e+01    0.1379801    0.1133588 -82.57 0.0002522077    1.659    0.397
       107 -12.9830      9.7629     49.2263   9.6468529553e+01   6.5856599480e+01    0.3650921    0.2519418 -23.59 0.0008809181    1.242    0.195
       108  -9.5407    215.2922     74.7269   4.4452554332e+01   2.2220354021e+01    0.1345399   0.09313662 -68.61 0.0001552569    1.517    0.341
       109 -11.1003    141.8240     40.5637   4.7307835932e+01   4.4169649967e+01    0.2694824    0.1666704 -66.97  0.001207944    2.226    0.551
       110 -12.4948     74.7838     39.0472   6.4339147014e+01   5.9099267985e+01    0.3510478    0.3295498  88.12 0.0008220493    1.474    0.321
       111 -10.1519    126.8230     35.1655   4.8642962381e+01   4.8398336419e+01    0.1949488    0.1777741  89.20 0.0004532593    1.165    0.141
       112 -11.2916     73.3372     32.2812   6.2159034228e+01   6.0302445433e+01    0.3313086    0.2213958  68.20  0.001582231    2.517    0.603
       113 -11.6875      1.9478     28.8802   9.3734180838e+01   7.0179110319e+01    0.4026423    0.1422122 -47.91  0.002011711    2.205    0.546
       114 -10.3546    156.2918     25.4082   4.0433044243e+01   4.2544457823e+01    0.2293507    0.1435883 -55.48 0.0009183671    1.745    0.427
       115  -9.9989    178.9070     25.5127   3.7386638237e+01   3.7212501112e+01    0.1867174    0.1145103  72.26 0.0003386294    1.479    0.324
       116 -10.6179     42.0243     20.6136   6.9458126754e+01   6.7141187898e+01    0.2004919    0.1251374  28.96 0.0003927193    1.427    0.299
       117 -10.5333     37.8366     18.4998   7.0389030694e+01   6.8027409548e+01    0.2394122    0.2103323 -38.02  0.001178691    1.605    0.377
       118 -10.7765     31.2231     20.4487   7.4466092589e+01   6.8668857388e+01    0.2757465    0.1591066  -8.29  0.001491231    1.896    0.473
       119 -10.6260     90.3692     18.7731   5.1551844161e+01   5.8436033867e+01    0.2632441    0.1914741  66.26 0.0005501827    1.514    0.340
       120  -9.5882      1.3154     17.3036   8.9481806827e+01   7.2169581973e+01    0.1204624   0.06447212 -21.02 0.0003169429    1.620    0.383
       121 -11.8996    211.3584    238.4410   7.9041838026e+01  -6.0576929284e+00    0.5089833    0.3192445  56.98   0.00219895    4.086    0.755
       122 -13.1852     19.3484    236.5148   1.1937226620e+02   2.0886133848e+01    0.4151008    0.2135892  39.51 0.0007203529    1.733    0.423
       123 -10.3287    131.2675    234.8533   9.5178318421e+01   6.3278513647e+00     0.183739    0.1458531   9.62 0.0008304578    1.358    0.264
       124 -10.8353     10.3447    232.0321   1.2087666061e+02   2.2722697506e+01    0.2213957    0.1761298 -30.20  0.001464345    2.002    0.501
       125  -9.9411    145.6657     11.2567   3.7969928823e+01   4.6503294961e+01    0.1273725   0.08795172 -78.93 0.0001528436    1.569    0.363
       126 -11.9276     72.5500    229.0264   1.0755501195e+02   1.6138396516e+01    0.3281457    0.2888183  83.47  0.001129418    1.113    0.102
       127 -11.6111    149.6128    223.5583   8.9408080154e+01   5.6300985658e+00    0.6633776    0.4215248 -57.29  0.003301885    1.918    0.479
       128 -10.6637     50.2333    227.1680   1.1227959034e+02   1.9413581685e+01    0.3073821    0.1514274  66.74  0.001412323    2.306    0.566
