#   1 NUMBER                 Running object number                                     
#   2 MAG_AUTO               Kron-like elliptical aperture magnitude                    [mag]
#   3 X_IMAGE                Object position along x                                    [pixel]
#   4 Y_IMAGE                Object position along y                                    [pixel]
#   5 X_WORLD                Barycenter position along world x axis                     [deg]
#   6 Y_WORLD                Barycenter position along world y axis                     [deg]
#   7 A_WORLD                Profile RMS along major axis (world units)                 [deg]
#   8 B_WORLD                Profile RMS along minor axis (world units)                 [deg]
#   9 THETA_WORLD            Position angle (CCW/world-x)                               [deg]
#  10 FWHM_WORLD             FWHM assuming a gaussian core                              [deg]
#  11 ELONGATION             A_IMAGE/B_IMAGE                                           
#  12 ELLIPTICITY            1 - B_IMAGE/A_IMAGE                                       
         1 -16.1286    161.8108     75.3612   9.3818924247e+01   3.4715427345e+01     5.544457        1.917 -37.54   0.01485414    2.732    0.634
         2 -14.8409    204.3302     41.6323   7.6458886094e+01   2.9372020151e+01     1.729755    0.6941334 -32.41  0.006954886    2.165    0.538
         3 -19.0755    233.4854     59.8003   7.7885056562e+01   2.0775270980e+01     15.26934     6.552795 -32.45   0.06751493    1.961    0.490
         4 -15.8604    183.0984     86.8907   9.2922628223e+01   2.8063019011e+01     9.672499    0.9440038 -37.15   0.02079377    7.222    0.862
         5 -10.5090     84.4118     14.6529   9.0321089755e+01   6.2034830898e+01    0.2508169     0.125448 -31.58 0.0005809538    1.909    0.476
         6 -12.4330    141.6616     11.5671   7.5362994668e+01   4.8402524792e+01    0.4377266    0.2990912  -8.66 0.0006729962    1.534    0.348
         7 -12.5899    138.9574      6.9443   7.3962910647e+01   4.9538010828e+01    0.5315328    0.2697006 -22.80 0.0006214204    1.938    0.484
         8 -10.3482    183.7719      8.0856   6.8544344639e+01   3.7861572006e+01    0.3137419    0.1856939 -63.92  0.001430824    1.973    0.493
         9 -10.3880    130.3352      8.2916   7.5986609445e+01   5.1645423751e+01    0.1556576   0.09830081  34.23 0.0003374663    1.638    0.389
        10 -10.4202    106.5118      6.9911   8.0304698657e+01   5.7779795473e+01    0.2165971    0.1358823 -20.39  0.001025984    1.575    0.365
        11 -10.9851    178.3474      1.8162   6.7058694494e+01   3.9761586895e+01     0.275213    0.1892165  68.24 0.0005935617    1.434    0.303
        12 -12.6326    134.8294    120.2961   1.1222443064e+02   3.2193161624e+01    0.6653684    0.2117447 -47.43  0.002203837    3.345    0.701
        13 -13.0702    134.6150    108.1477   1.0934420135e+02   3.4611867446e+01     1.170688    0.2603356 -44.41  0.003216571    4.540    0.780
        14 -13.6660    160.8472    128.1530   1.0800884549e+02   2.5766961882e+01     0.518293    0.4439535  24.44   0.00204872    1.104    0.094
        15 -14.5190    167.4054    113.7651   1.0317562172e+02   2.6975893341e+01    0.7841287    0.6913067  32.81     0.003152    1.127    0.113
        16 -12.5625    119.5234    111.6118   1.1407664476e+02   3.6798789398e+01    0.5642052    0.3429845  66.31  0.002206041    2.811    0.644
        17  -9.6964    111.6915    113.7103   1.1666299840e+02   3.7776809140e+01    0.1414547    0.1114014  -7.16 0.0003577879    1.578    0.366
        18 -13.0638    152.6292    119.6151   1.0785684292e+02   2.8890416466e+01    0.4717149    0.3228688  12.66  0.002182635    1.864    0.463
        19 -10.5842    169.1183    227.8115   1.2342240812e+02   9.3887218853e+00    0.2231714    0.1011941  47.96  0.001137226    2.660    0.624
        20 -11.8226    112.0422    103.9444   1.1422917493e+02   3.9776158494e+01    0.3028062    0.2169378 -55.83  0.001139361    1.478    0.323
        21 -12.9407    120.1407    102.5340   1.1166328544e+02   3.8552726153e+01    0.4649549    0.3276933 -25.21  0.002198241    1.640    0.390
        22 -11.4324    139.0839    103.1866   1.0696217396e+02   3.4680078025e+01    0.2304545    0.1971098   5.97 0.0006004013    1.233    0.189
        23 -12.2129    143.8013     98.9734   1.0469501156e+02   3.4509696272e+01    0.3786061    0.2931246  -8.80 0.0008096604    1.466    0.318
        24 -11.5272    131.3796     95.7626   1.0690884943e+02   3.7690014853e+01    0.3248275    0.2676436 -57.35 0.0009091764    1.368    0.269
        25 -10.8720    113.3066     95.0292   1.1156647108e+02   4.1411679792e+01    0.2072024    0.1859021 -39.46 0.0003945857    1.088    0.081
        26 -11.9375    136.7175     88.2501   1.0343960238e+02   3.8024710309e+01    0.3332201    0.3137527  89.01 0.0008022089    1.246    0.197
        27 -13.0794    148.7921     81.2729   9.8474500152e+01   3.6665309121e+01    0.4450243    0.3295776 -18.90 0.0007363718    1.420    0.296
        28 -11.0039    207.8313     77.8046   8.6179654583e+01   2.3960549617e+01    0.5529838    0.2317346 -15.57  0.001835356    3.428    0.708
        29 -11.2097    229.9714    166.6544   1.0298736866e+02   7.9954895144e+00    0.1974945    0.1642798 -34.93 0.0008770067    1.606    0.378
        30 -11.2763    119.3815     66.4537   1.0121547380e+02   4.5874853160e+01    0.2762995    0.2671683 -78.55 0.0007405517    1.174    0.148
        31 -12.2538    131.0119     64.9348   9.7615844474e+01   4.3570636693e+01      0.46416    0.2533633 -36.07  0.001791741    1.771    0.435
        32 -15.3163     33.9121    197.3596   1.4671516409e+02   3.0675996519e+01    0.8501437    0.7758962  36.70  0.003831618    1.305    0.234
        33 -12.0389    192.2155    194.1022   1.1441271328e+02   1.0334417275e+01     0.734959     0.413651 -59.72  0.002483815    7.661    0.869
        34 -14.3286     69.7672    164.3144   1.3605798492e+02   3.3242612531e+01    0.9532194    0.6208928  35.12  0.001494944    1.465    0.317
        35 -13.9250     58.6128    176.6601   1.3991358710e+02   3.2070798894e+01    0.6109287    0.4557436 -11.80 0.0008922922    2.083    0.520
        36 -15.2502     13.4046    205.8720   1.5112330636e+02   3.0955123267e+01     1.560408    0.8788453  50.62   0.01129846    1.348    0.258
        37 -11.6865    127.9409     50.3641   9.3281189961e+01   4.6759287040e+01    0.2878323    0.1989089 -46.93 0.0006211528    1.574    0.365
        38 -12.0837     72.0372     47.5044   1.0987497082e+02   5.8868428431e+01    0.4796152    0.1413806  35.53  0.001471033    4.227    0.763
        39 -12.3107    192.0618     45.6569   7.9325711303e+01   3.1801926956e+01     0.498915    0.2568445 -41.43  0.001439471    1.930    0.482
        40 -15.0748     64.7962    171.0032   1.3795045906e+02   3.2486228222e+01     2.094976     1.371732 -22.24  0.002991632    2.703    0.630
        41 -10.5817    164.5793     44.6453   8.3434085472e+01   3.8666256241e+01    0.2459046    0.1710583 -36.46  0.001165897    1.405    0.288
        42 -10.2191    166.0455     40.2830   8.1707728788e+01   3.8875540819e+01    0.1939891    0.1866268  56.39 0.0002546394    1.089    0.082
        43 -10.1358    189.6990     36.0601   7.6706991729e+01   3.3525971664e+01    0.1981568    0.1616732 -25.76 0.0006303504    1.156    0.135
        44 -10.7340    194.3766     25.8978   7.2965875073e+01   3.3504965377e+01     0.237336    0.1591171 -11.73 0.0007189183    1.538    0.350
        45 -11.9519    101.3552     22.9845   8.9186070989e+01   5.7109775910e+01    0.3184851    0.2144894  -0.08  0.001054561    1.712    0.416
        46 -11.4736     93.7835     19.6170   8.9831148284e+01   5.9295055012e+01    0.4035661    0.2305412  23.48  0.001671904    2.238    0.553
        47 -12.8902    172.1133    149.8804   1.1028104751e+02   2.0023003936e+01    0.5223125     0.184705  42.34  0.002028958    2.677    0.626
        48 -11.2659    133.6683    146.1266   1.1794397985e+02   2.7437035076e+01    0.6430278    0.1619993 -52.31  0.001815246    5.563    0.820
        49 -12.6324     68.1006    144.5654   1.3402922958e+02   3.7596783150e+01    0.6658319    0.3385635  59.24  0.002790166    2.392    0.582
        50 -11.7129    161.5034    139.6149   1.1038218576e+02   2.3650993708e+01    0.2588778    0.2225866  64.89 0.0003504708    1.490    0.329
        51  -9.8306    101.4669    137.5214   1.2423361135e+02   3.4445095753e+01    0.1312538    0.1280704  44.90 9.715051e-05    1.020    0.019
        52 -12.1136    136.0000    129.9943   1.1410955236e+02   3.0095740206e+01    0.4994379    0.1938301 -47.92  0.001579882    2.742    0.635
