#   1 NUMBER                 Running object number                                     
#   2 MAG_AUTO               Kron-like elliptical aperture magnitude                    [mag]
#   3 X_IMAGE                Object position along x                                    [pixel]
#   4 Y_IMAGE                Object position along y                                    [pixel]
#   5 X_WORLD                Barycenter position along world x axis                     [deg]
#   6 Y_WORLD                Barycenter position along world y axis                     [deg]
#   7 A_WORLD                Profile RMS along major axis (world units)                 [deg]
#   8 B_WORLD                Profile RMS along minor axis (world units)                 [deg]
#   9 THETA_WORLD            Position angle (CCW/world-x)                               [deg]
#  10 FWHM_WORLD             FWHM assuming a gaussian core                              [deg]
#  11 ELONGATION             A_IMAGE/B_IMAGE                                           
#  12 ELLIPTICITY            1 - B_IMAGE/A_IMAGE                                       
         1 -14.3609    234.8815     50.7975   3.5551197855e+02   2.3307421292e+01     5.698164     2.016622 -54.48   0.02575628    2.799    0.643
         2 -11.1893    178.6604     72.6529   6.7325188437e+00   3.1092143496e+01     1.295923    0.4922776 -28.82  0.004463485    3.541    0.718
         3 -13.5916    218.0923    115.4572   1.0969748462e+01   1.6905190116e+01     3.248001     1.511867 -27.20   0.01448658    2.495    0.599
         4 -11.8167    234.9240      3.7663   3.4574843748e+02   2.8611235633e+01    0.6476656    0.3242512 -87.31  0.003556272    1.989    0.497
         5  -9.7338     56.7030    231.7820   6.5085908442e+01   1.8032525511e+01    0.2124467    0.2034475 -12.59 0.0005681795    1.245    0.197
         6 -10.8882    247.5722    249.1223   2.9514009929e+01  -5.0312097178e+00    0.5442271     0.278944   5.70  0.003818211    1.756    0.431
         7  -8.3305    150.2884    226.9941   4.3431439506e+01   7.8040318382e+00     0.161948    0.1397722  -8.14 0.0003828414    1.114    0.102
         8  -8.7566    228.1387    223.1148   2.8722637554e+01  -2.3896959433e-01     0.161996    0.1206295 -10.65 0.0004011712    1.054    0.051
         9  -9.9253    224.1307    219.6005   2.8824382168e+01   6.1186261957e-01     0.202033    0.1719009  11.85 0.0007297646    1.422    0.297
        10  -8.3214    242.1503    221.8757   2.6406839167e+01  -1.4139366403e+00    0.1515605    0.1174966 -17.38  0.001221141    1.244    0.196
        11  -9.3815    172.8866    220.7909   3.8027988886e+01   6.0845497938e+00    0.1923795    0.1528219 -22.38  0.000522624    1.188    0.159
        12  -7.9711    232.1666    219.8088   2.7599755966e+01  -2.0987207317e-01    0.1474715   0.09344473 -12.49  0.000543625    1.276    0.216
        13  -8.1747    197.2331    220.4411   3.3467078785e+01   3.3407555177e+00    0.1421363   0.09770449  31.19 0.0007785588    1.577    0.366
        14  -7.7554    230.4654    213.5410   2.6902576686e+01   7.6673315857e-01    0.1093046   0.08100128 -12.36 0.0001390242    1.022    0.022
        15  -7.8437    248.8003    211.3714   2.3847428672e+01  -7.4099437515e-01    0.1374594    0.1061801 -12.88 0.0003186566    1.170    0.145
        16  -8.1289    246.5274    208.4885   2.3726440776e+01  -1.6577827026e-01     0.105449   0.07769402 -16.60 0.0008087094    1.079    0.073
        17  -9.3142      6.4861    208.4743   7.5953074563e+01   2.7809674873e+01    0.1258151    0.1029181  54.61 0.0001468884    1.006    0.006
        18  -8.9374    210.2970    202.3084   2.8369730146e+01   4.4852766406e+00    0.1953263     0.161532 -15.89 0.0004009932    1.143    0.125
        19  -9.6595      2.3929    203.0205   7.6777041929e+01   2.9363861324e+01    0.2229655     0.166731  30.36 0.0002259148    1.279    0.218
        20 -10.8943    232.6905    197.1294   2.3956317891e+01   2.7257868245e+00     0.313365    0.1966008 -35.55  0.001285461    1.425    0.298
        21 -11.4572    192.0514    192.8906   2.9997858177e+01   8.1321519768e+00    0.9736835    0.5203235 -58.25  0.004092174    3.889    0.743
        22  -9.4458    184.8048    187.3976   3.0398827421e+01   9.9766931314e+00    0.1959811    0.1528905 -25.61 0.0004773885    1.137    0.121
        23  -7.9627    242.9810    198.6797   2.2687348063e+01   1.4429134083e+00    0.1661892   0.07308535  11.26 0.0007050047    4.329    0.769
        24  -8.1437    151.7139    196.7593   3.8639357921e+01   1.2864321733e+01    0.2031724    0.0922017  41.22 0.0008885414    2.362    0.577
        25  -9.4577    180.3042    194.6503   3.2485541100e+01   9.3680244550e+00    0.2385536    0.2090274 -36.40 0.0008494473    1.293    0.226
        26  -8.7284     79.4841    190.8613   5.5312293201e+01   2.4138913602e+01    0.2593966    0.2053646 -19.18 0.0009924098    1.514    0.340
        27 -13.2891    182.2353    107.9781   1.4778135564e+01   2.4420418809e+01     2.468972     1.442717 -37.47  0.003139459    1.551    0.355
        28 -12.1967    200.7479    113.7758   1.3108371102e+01   2.0072146098e+01    0.9553817    0.7660339  40.63  0.004199509    1.466    0.318
        29 -11.9737    223.5265    179.1430   2.2332921644e+01   6.3168466201e+00     1.330007    0.9786991 -51.26  0.008581363    1.818    0.450
        30 -12.2198    245.7715    170.1886   1.7546826561e+01   4.9786774124e+00     1.164137    0.6374494 -29.30  0.005075867    1.435    0.303
        31 -12.6130    226.2319    166.9125   1.9759526192e+01   7.7929063812e+00     1.171853    0.9119017 -83.78  0.006707118    2.920    0.658
        32  -9.9302    231.2339    249.6594   3.2041125356e+01  -3.7321667357e+00    0.2282122    0.1593576  36.89   0.00134505    2.326    0.570
        33 -12.7431    249.7272    117.6753   7.4994367707e+00   1.1868900955e+01      2.35762    0.2764275 -39.99  0.007150355    5.597    0.821
        34 -13.3807    237.9517    100.3098   5.4243855571e+00   1.6055587523e+01     2.225913    0.5524608 -35.74  0.004397966    3.298    0.697
        35 -11.8609    247.2977     92.3221   2.8527970845e+00   1.5758770463e+01    0.6165495    0.3782711 -29.44 0.0003285072    1.471    0.320
        36 -12.3347    240.0431    117.4263   8.5705128255e+00   1.3266950307e+01    0.8692375    0.5244583 -15.32 0.0009604185    2.199    0.545
        37 -11.8903    233.4056    115.1405   8.9234757895e+00   1.4577958696e+01    0.4794239    0.4005261  36.98  0.001494229    1.504    0.335
        38 -12.2525    223.5378    139.8624   1.5103866560e+01   1.2271131459e+01     0.606631    0.4741345 -66.15  0.001688411    1.811    0.448
        39 -14.4747    240.3015    131.6988   1.1284843208e+01   1.1151472188e+01     4.004059     1.378631  39.28   0.01776073    4.108    0.757
        40  -9.3098      2.4705    183.9743   7.6026135251e+01   3.3851979582e+01    0.1973939    0.1166847 -87.98  0.001033385    1.597    0.374
        41  -9.2326     17.7088    182.0792   7.1682408457e+01   3.3109516925e+01    0.1842237    0.1605202  77.53 0.0003510469    1.079    0.073
        42  -9.8014    148.5385    167.3234   3.4217913422e+01   1.8982816061e+01    0.2654079    0.2274368  -7.56 0.0008907855    1.156    0.135
        43  -9.7926     10.1839    160.9817   7.2584496064e+01   3.9084908795e+01    0.2622962    0.1506378  82.77  0.001257512    1.669    0.401
        44  -8.8905    200.6287    157.7161   2.2137326206e+01   1.2718168599e+01    0.1710986    0.1054164 -44.12  0.000512669    1.538    0.350
        45 -10.2330      4.8127    155.2662   7.3917696210e+01   4.0966094338e+01    0.2957471    0.2193355  14.86  0.000794515    1.495    0.331
        46 -10.4507    137.0323    137.6351   3.0879540955e+01   2.7137422048e+01    0.6205159    0.2833014 -46.26  0.001641585    2.117    0.528
        47 -10.2639    142.1385    132.0193   2.8423285360e+01   2.7387586053e+01    0.4126235    0.3112326  55.61  0.001192999    1.506    0.336
        48 -11.8161    137.2204    125.9085   2.8187591462e+01   2.9618621752e+01     1.584899    0.5985023 -45.20  0.005624108    2.550    0.608
        49  -9.6596    134.6608    112.8540   2.5656653325e+01   3.2905219226e+01    0.3142793    0.2416417 -65.12 0.0008455369    1.448    0.309
        50 -10.7548    134.5350    107.2283   2.4262859904e+01   3.4115013586e+01    0.6663235    0.3154746 -40.73  0.001653018    2.117    0.528
        51 -10.3917    135.3526    153.1969   3.4543583583e+01   2.4089226621e+01    0.3548725    0.2560945 -57.33 0.0007298213    1.503    0.334
        52 -11.4032    133.9554    147.2661   3.3674862067e+01   2.5609757067e+01    0.9451606    0.3294567 -54.20  0.002661498    3.365    0.703
        53 -11.4203    144.0521    147.7105   3.1370355053e+01   2.3745431941e+01    0.8300983    0.3740636 -58.58  0.001802781    3.194    0.687
        54  -9.5334    198.0532    147.3847   2.0558095781e+01   1.4838835309e+01     0.241112    0.1657544 -41.69 0.0005071904    1.314    0.239
        55 -10.4275     67.8600    144.0183   5.1932289352e+01   3.7324321201e+01    0.8245208    0.4005844  55.77  0.002950164    2.674    0.626
        56  -9.5014    237.6948    186.8250   2.1513107675e+01   3.5913110968e+00    0.2955512    0.1964384 -51.63  0.001501353    2.247    0.555
        57  -9.0286      4.5057    145.5148   7.3420808626e+01   4.3570690853e+01    0.1380986     0.122192  77.55 0.0008104828    1.001    0.001
        58 -12.6451    160.2253    164.9440   3.1222595744e+01   1.7594903585e+01     1.097996    0.8476497 -36.38  0.003280609    1.224    0.183
        59  -9.3284    166.2994    133.6724   2.3554533132e+01   2.2615019907e+01    0.2309021    0.1777827  44.03 0.0008574989    1.413    0.293
        60  -9.9096    168.4629    131.4945   2.2645558944e+01   2.2643652483e+01     0.267438    0.1944628 -38.39  0.000804298    1.265    0.209
        61  -8.2123    115.9713    132.5040   3.5135187479e+01   3.2169020401e+01    0.2295902    0.1495308  36.77  0.001022427    1.567    0.362
        62 -10.3591    167.9355    125.4667   2.1406822945e+01   2.3888280623e+01    0.3799469    0.2756489  23.85  0.001401813    1.696    0.410
        63 -11.6549    159.2695    113.1651   2.0275059061e+01   2.7905729630e+01    0.7107857    0.5645536  34.18  0.002608349    1.417    0.294
        64 -11.6654    160.8876    128.2980   2.3464044930e+01   2.4645139581e+01     1.024694    0.4546343 -56.11  0.003592042    3.185    0.686
        65  -8.1786     73.1154    127.1272   4.7055086412e+01   4.0955086210e+01    0.2230438    0.2015274 -34.53 0.0002972313    1.184    0.155
        66  -8.8588    198.0307    125.5395   1.6066037063e+01   1.8557899608e+01      0.25217    0.1645039 -38.76 0.0006165899    1.315    0.240
        67 -10.5287    174.5659    123.5020   1.9694259690e+01   2.3039231449e+01    0.4453377     0.262795 -21.45  0.001818416    2.353    0.575
        68 -12.5079      3.7774    110.8296   7.1000087494e+01   5.3043009109e+01     1.273354     0.652768 -86.90  0.003991883    1.859    0.462
        69  -9.7209    153.0726    124.0432   2.4142434379e+01   2.6961165619e+01    0.4172876    0.1771735 -53.87  0.001468854    2.871    0.652
        70  -9.0945    198.7082    119.9985   1.4772285450e+01   1.9381036274e+01    0.1952245    0.1922871  37.20 0.0005171883    1.190    0.160
        71  -7.3349    116.3733    120.2938   3.2198583732e+01   3.4905202475e+01    0.1568029    0.1216428  -3.50 0.0007025176    1.733    0.423
        72 -11.1127     60.5581    109.0249   4.7690045029e+01   4.7647673908e+01     1.066409    0.8191186  27.73  0.005178256    1.359    0.264
        73 -11.8183     47.4796    113.6470   5.3692355607e+01   4.8242415508e+01    0.7306998    0.6455936 -37.62  0.002232628    1.195    0.163
        74 -11.9850     39.3978    110.2677   5.6266163768e+01   5.0150647618e+01    0.9565357    0.7372627 -50.20  0.002893715    1.286    0.222
        75 -11.5171     31.2359    110.5230   5.9636237129e+01   5.0972789879e+01     0.513618    0.3760326  19.48  0.001274859    1.466    0.318
        76  -9.6379    150.0144    113.0193   2.2181852886e+01   2.9773635824e+01    0.3107677    0.2480108 -33.41  0.000778285    1.256    0.204
        77 -11.0229    159.9710    107.5240   1.8765798928e+01   2.8850266320e+01    0.4167154    0.3226313 -62.16 0.0004718801    1.389    0.280
        78 -10.1667    126.9421    107.3348   2.6164755666e+01   3.5663131886e+01    0.5321887    0.2386349 -49.05 0.0005284147    2.208    0.547
        79 -13.8244    176.1265    164.6239   2.7928486648e+01   1.5181458131e+01     2.363288     1.488074 -54.47   0.01193887    1.912    0.477
        80  -9.3416    144.0681    105.3757   2.1581707537e+01   3.2519538567e+01    0.2992083    0.2417943 -87.50 0.0006307563    1.505    0.335
        81 -10.6879     49.0656    106.6111   5.1649202356e+01   4.9928611199e+01    0.5274147    0.3733022 -23.23 0.0009859185    1.770    0.435
        82 -12.0239    187.2283    174.0816   2.7582143745e+01   1.1887052454e+01    0.9427926    0.4165246 -38.01  0.001909553    2.071    0.517
        83  -9.0737    211.0405     98.1888   8.2401570255e+00   2.0793275109e+01    0.3070405    0.1605272 -34.68 0.0007387073    1.677    0.404
        84  -8.0485    102.6405     99.0441   3.0673110378e+01   4.2516874076e+01     0.202557    0.1895561 -49.64   0.00032427    1.063    0.059
        85  -7.9973    200.9894     93.9491   8.6589035773e+00   2.3268872661e+01    0.1696015    0.1213591 -40.44 0.0006037176    1.186    0.157
        86 -10.3880    183.9714     92.9069   1.0935390678e+01   2.6686195321e+01    0.4835387     0.350538   6.22  0.001935625    2.209    0.547
        87  -8.1920    157.2056     93.0350   1.5655809040e+01   3.2144702594e+01    0.1966058    0.1082668 -40.54 0.0004985601    1.698    0.411
        88  -8.1894    205.6670     91.6265   7.4979630331e+00   2.2779042725e+01    0.1857011    0.1473522  -2.93 0.0007917315    1.682    0.405
        89  -8.4310    144.0068     89.2986   1.7351853346e+01   3.5685189942e+01    0.1935987    0.1845142  82.09  0.000276701    1.072    0.067
        90  -8.1534    112.6295     88.5862   2.4804261512e+01   4.2710062148e+01    0.2890878    0.1349809 -32.50 0.0009439213    3.079    0.675
        91  -9.2527    184.1984     88.9318   9.9419373029e+00   2.7307265219e+01    0.2906142    0.1728615 -38.91 0.0007643021    1.494    0.331
        92  -9.3622    213.9552     84.1642   4.7878243592e+00   2.2422468331e+01    0.2448999    0.2107334  63.89  0.001104282    1.387    0.279
        93 -10.4749    183.2263     80.1686   7.9450169497e+00   2.8941277024e+01     0.698933    0.4236492 -19.66  0.003162021    2.333    0.571
        94 -10.3691    215.8016    241.8983   3.3423850175e+01  -1.4186155183e+00    0.3062075    0.2653087  78.60  0.001991489    3.460    0.711
        95  -8.7303    194.2566     66.2962   3.0465011479e+00   2.8844646702e+01    0.3181503     0.175273 -20.76  0.001401581    2.598    0.615
        96  -7.9191    187.4243     67.3914   4.1871058680e+00   3.0077117633e+01     0.130569    0.1137477 -55.46 8.178871e-05    1.022    0.021
        97  -9.3611    218.4902     84.7580   4.3835408331e+00   2.1529540175e+01    0.2480959   0.09355871 -41.45  0.001119826    2.084    0.520
        98  -8.5481      6.3348     56.3192   6.1589255122e+01   6.7344928413e+01    0.1490978   0.08487289 -36.92 0.0007049108    1.700    0.412
        99  -8.0595    206.4983     53.0872   3.5853368183e+02   2.8267829799e+01    0.1782333    0.1074356 -36.07 0.0005191551    1.464    0.317
       100  -8.5002    210.8837     70.6750   2.1206113512e+00   2.4968430559e+01    0.2057262    0.1477904 -35.29 0.0005166076    1.265    0.209
       101  -8.4087    176.3069     48.6591   7.9837088279e-01   3.5180504666e+01    0.1445627   0.08650611 -61.84 0.0002822042    1.685    0.407
       102  -8.0420    186.6251     47.7040   3.5932872044e+02   3.3071854113e+01    0.1228131   0.09967146  30.72 0.0007025682    1.743    0.426
       103  -8.6315    173.7984     43.2268   3.5965153473e+02   3.6480566139e+01    0.2597234    0.1830845 -22.80  0.001399637    1.675    0.403
       104  -9.8329    141.5466     39.0941   2.9327272941e+00   4.4571839996e+01    0.5250173    0.2838145 -11.66  0.001961129    3.495    0.714
       105  -7.7201    179.3028     38.3234   3.5771008675e+02   3.5902639333e+01    0.1193064     0.101693  26.34 0.0002732198    1.636    0.389
       106 -12.3214    202.6354    184.0535   2.6606117573e+01   8.1761926609e+00     1.283856    0.7930259  -5.46  0.004951697    1.897    0.473
       107  -9.6635    203.4323     32.8768   3.5405138657e+02   3.1466144691e+01    0.2211434    0.1838229 -82.43 0.0007550393    1.184    0.156
       108  -7.9501     97.2260     33.6438   9.9894327597e+00   5.6190033278e+01    0.1409432    0.1016436 -61.57 0.0002787229    1.565    0.361
       109  -8.2416     81.0856     31.7492   1.3786696632e+01   6.0312127070e+01    0.1870296    0.1673284  53.10 0.0002579776    1.051    0.049
       110  -8.3938    199.6617     30.0648   3.5368995815e+02   3.2574458645e+01    0.1755471    0.1287581 -45.00 0.0004527388    1.171    0.146
       111 -13.0922    237.5682    156.7067   1.6287590717e+01   7.8666684471e+00     1.493653     1.050474 -33.56  0.009529759    1.144    0.126
       112 -10.5027    221.9046     67.0696   1.5224623684e-01   2.3454582925e+01    0.3679295    0.2466394 -55.98  0.001351788    1.323    0.244
       113  -8.0540      2.2703    231.3544   7.7701706843e+01   2.3249091194e+01    0.1045005   0.08590788 -45.45 0.0004941614    1.636    0.389
       114 -10.3174    237.5605     19.1144   3.4876158512e+02   2.6551198566e+01    0.2230199    0.1624738 -44.92 0.0007821745    1.139    0.122
       115  -7.7095     97.0336     16.9798   3.1283597103e+00   5.8326354768e+01    0.1567483    0.1412808  75.10            0    1.005    0.005
       116 -12.6251    194.3389    171.7467   2.5863136738e+01   1.1279772787e+01     1.170699    0.8981564  39.94  0.007273022    1.537    0.349
