#   1 NUMBER                 Running object number                                     
#   2 MAG_AUTO               Kron-like elliptical aperture magnitude                    [mag]
#   3 X_IMAGE                Object position along x                                    [pixel]
#   4 Y_IMAGE                Object position along y                                    [pixel]
#   5 X_WORLD                Barycenter position along world x axis                     [deg]
#   6 Y_WORLD                Barycenter position along world y axis                     [deg]
#   7 A_WORLD                Profile RMS along major axis (world units)                 [deg]
#   8 B_WORLD                Profile RMS along minor axis (world units)                 [deg]
#   9 THETA_WORLD            Position angle (CCW/world-x)                               [deg]
#  10 FWHM_WORLD             FWHM assuming a gaussian core                              [deg]
#  11 ELONGATION             A_IMAGE/B_IMAGE                                           
#  12 ELLIPTICITY            1 - B_IMAGE/A_IMAGE                                       
         1 -10.5735    192.1029     32.0514   5.7457566891e+01   3.3160569809e+01    0.9700963    0.4293227  33.40  0.003017555    4.386    0.772
         2 -11.7780    201.9987     36.6492   5.7429262610e+01   3.0105984237e+01     1.242139    0.9611337   2.67  0.006441697    1.611    0.379
         3 -11.2544    185.8263     37.2517   5.9888067661e+01   3.4100118457e+01    0.9907495    0.4920277 -32.04  0.004195354    1.971    0.493
         4 -10.3609    205.6715     24.7508   5.3677975896e+01   3.0630315909e+01    0.8513893    0.4732738 -85.42  0.003688975    2.253    0.556
         5  -9.7014    231.8923      2.6108   4.5512038339e+01   2.6711998669e+01    0.3883459    0.1957037 -76.60  0.001629416    2.187    0.543
         6 -10.5371    250.3340     17.4831   4.7551309263e+01   2.1020677489e+01    0.8231335    0.3334294 -19.34    0.0032555    3.395    0.705
         7 -10.8347    221.2191     14.5629   4.9358323029e+01   2.7982274735e+01    0.5864785    0.4454248 -20.56  0.003367726    1.461    0.316
         8  -9.3702    230.5161     15.1200   4.8649699406e+01   2.5737235130e+01    0.3216591    0.2172764 -58.22  0.001532726    1.387    0.279
         9 -10.0847    233.0199     10.6545   4.7350063512e+01   2.5634651064e+01    0.3152761    0.2443549  32.98  0.001294273    1.688    0.408
        10 -11.4022    239.2223     17.2164   4.8400855460e+01   2.3514430402e+01    0.9819146    0.4346075 -62.06  0.004153495    2.647    0.622
        11  -9.7530    234.4624     19.3821   4.9338243715e+01   2.4358075604e+01    0.3734103    0.2888299  17.38  0.002115748    1.774    0.436
        12 -10.1547    244.7135     13.6750   4.7118921692e+01   2.2672155328e+01     0.357802     0.235808  85.76  0.001705747    1.518    0.341
        13 -10.2343    239.1371      8.7566   4.6408525060e+01   2.4440707346e+01    0.5028748     0.221536 -53.94  0.002271659    2.186    0.543
        14 -10.3358    215.0425      7.7482   4.8188608772e+01   3.0166801461e+01     1.062337    0.4409859  62.42  0.004696905    2.243    0.554
        15  -8.9842    201.2669      5.6994   4.8956545071e+01   3.3731078632e+01    0.3585377    0.1458014  44.69  0.001373629    3.131    0.681
        16 -10.0712    200.3051     14.3294   5.1420294965e+01   3.3105689766e+01    0.4312005    0.3071096  14.72  0.001693669    1.888    0.470
        17  -9.2610    198.3576     10.7831   5.0650567783e+01   3.3954077790e+01    0.2560322    0.1896253 -31.67  0.001403548    1.385    0.278
        18  -9.6411    187.2836      9.5525   5.1534558854e+01   3.6856941144e+01    0.4293978    0.2512774 -57.15  0.002038111    1.861    0.463
        19  -8.0048     84.0000     11.0187   7.1929590046e+01   6.1554327893e+01    0.2060871   0.07066612 -25.54 0.0007961338    2.899    0.655
        20  -9.5940    155.3882      9.6671   5.5798526521e+01   4.4970111487e+01      0.30955    0.1992417 -34.15  0.001555951    1.630    0.387
        21  -9.6438    117.3386      7.7239   6.1941814615e+01   5.4547751376e+01    0.4609169    0.1668259 -32.96  0.001819922    2.823    0.646
        22  -9.4169    249.6565      7.3619   4.5306780874e+01   2.2256909999e+01     0.219262    0.2041693 -83.39  0.001089332    1.163    0.140
        23  -9.1409    206.4969      6.5005   4.8661938925e+01   3.2366221546e+01    0.3031729    0.1765013 -50.59  0.001521242    1.680    0.405
        24  -9.4219    171.8055      5.3691   5.2147039544e+01   4.1181701719e+01    0.2476605    0.2048785  -0.51 0.0009171241    1.393    0.282
        25  -8.5746    165.0000      2.8645   5.2230297896e+01   4.3135916448e+01    0.3470357   0.07831392 -20.56  0.001042509    4.854    0.794
        26  -9.4803    249.3149      2.2775   4.4191981042e+01   2.2852041508e+01    0.2920889    0.1697943 -60.68  0.001361072    1.565    0.361
        27  -9.7586    240.1234      2.1949   4.4808755431e+01   2.4887081639e+01     0.305351     0.172108 -86.30 0.0008826041    1.791    0.442
        28  -9.0075    194.9626      1.9740   4.8561281407e+01   3.5643832897e+01    0.2291638     0.138075 -63.56  0.001129809    1.758    0.431
        29  -8.2596    190.4799      1.8909   4.8992365060e+01   3.6770897188e+01    0.2855011    0.1579395  56.33 0.0009532231    1.725    0.420
        30  -9.4096     63.9555      1.9916   7.4146422219e+01   6.6327290369e+01    0.1946939    0.1589163   7.83 0.0008922141    1.022    0.022
        31  -8.0083    201.3036      1.3262   4.7770985665e+01   3.4132283923e+01    0.1322062   0.09414747  40.06 0.0005515416    1.644    0.392
        32  -8.3195    247.6454    158.6917   8.0586970065e+01   1.8146105033e+00    0.1392976   0.09079619   7.76 0.0007042824    1.723    0.419
        33  -9.7227    146.0464    157.9967   1.0043014752e+02   2.1440053149e+01    0.2205745    0.2132321  34.23 0.0007414269    1.019    0.019
        34  -8.1008    243.7142    154.6351   8.0379090059e+01   3.0884656579e+00     0.140219   0.09292348   1.01  0.000702085    1.693    0.409
        35  -9.7988    118.8874    153.3411   1.0587095872e+02   2.7486949430e+01    0.2447888    0.1956891 -71.32 0.0008651247    1.340    0.254
        36  -8.8243    229.2457    152.3660   8.2359571431e+01   6.0671949966e+00    0.1803083    0.1287202  52.26 0.0007244258    1.662    0.398
        37  -9.3499    198.3292    150.6830   8.7741374452e+01   1.2366036146e+01    0.1383246    0.1172217 -83.84  0.000634714    1.681    0.405
        38  -9.1060    230.7770    148.5992   8.1272044196e+01   6.3634143299e+00    0.1808027    0.1320206  52.88  0.000950837    1.633    0.388
        39  -9.4741    111.8712    147.8568   1.0653382479e+02   2.9930939440e+01    0.2086133    0.1989438 -15.45 0.0005337112    1.189    0.159
        40  -9.1203    225.0037    146.1365   8.1742493757e+01   7.8509725416e+00    0.2627408    0.1917789 -26.91  0.001399497    1.289    0.224
        41  -9.2279    196.3996    144.7439   8.6798826752e+01   1.3798157207e+01    0.2056063    0.1345615 -25.73 0.0009505207    1.621    0.383
        42  -8.5827    172.5289    144.5293   9.1688269236e+01   1.8777229432e+01    0.1452996    0.1419758  26.14 0.0004116551    1.054    0.051
        43  -9.8516     89.1548    143.4050   1.1142239080e+02   3.4696341322e+01     0.197324    0.1215489  50.75 0.0006208633    1.680    0.405
        44  -8.9827    232.0318    141.9799   7.9592746723e+01   7.1552936720e+00    0.2255121    0.1571356   8.99  0.001129716    1.650    0.394
        45 -10.0740    123.7610    141.1857   1.0225955842e+02   2.9238570118e+01    0.2480451    0.1584635  80.27  0.000949678    2.768    0.639
        46  -9.4853    210.0194    138.2184   8.2684915896e+01   1.2133617131e+01    0.1908473    0.1153898  45.06 0.0007984671    1.680    0.405
        47 -10.0764    146.6173    138.3877   9.6140502325e+01   2.5351076547e+01    0.3912625    0.1810402  57.07  0.001314663    3.088    0.676
        48  -9.5263    127.3220    137.3260   1.0055730435e+02   2.9403234557e+01    0.1492931    0.1180665  -7.37 0.0004708419    1.685    0.407
        49  -9.1110    249.5496    136.0627   7.5400363945e+01   4.7717851714e+00    0.1976625    0.1698191  27.45  0.000640337    1.215    0.177
        50  -9.9473    216.1199    135.7928   8.0999612088e+01   1.1296013810e+01    0.2101729    0.2014794 -54.66  0.001149225    1.232    0.188
        51  -9.8009    164.8988    136.1876   9.1454905900e+01   2.1996933064e+01    0.2279947    0.2104507  71.41 0.0009032441    1.206    0.171
        52 -10.2173    169.9244    134.1914   8.9879465596e+01   2.1321096379e+01    0.2926759    0.2221739 -39.21 0.0007148642    1.324    0.245
        53  -9.2874    242.9897    135.4300   7.6304212905e+01   6.0836587470e+00    0.1954078    0.1307068  42.71 0.0007010394    1.587    0.370
        54  -9.7218    150.2198    134.7922   9.4478203797e+01   2.5354556474e+01    0.2549798    0.1710474  87.29 0.0009593681    2.820    0.645
        55 -10.4509    140.6549    134.8794   9.6763674722e+01   2.7296101515e+01    0.2674872    0.1989305  34.56 0.0007171524    1.398    0.284
        56 -10.3123    180.8136    133.9820   8.7494827304e+01   1.9032614742e+01    0.3268223    0.2124944  76.81  0.001226292    2.939    0.660
        57  -9.9915    132.3137    130.8906   9.7887065747e+01   2.9821503603e+01    0.2718155    0.2110826  55.47 0.0009797534    1.355    0.262
        58 -11.1304     86.6028    130.4301   1.0966982614e+02   3.8082965174e+01    0.3712452    0.2706074  75.95  0.001867909    1.645    0.392
        59 -10.8490     86.7941    125.8002   1.0869534220e+02   3.9127528228e+01    0.3261631     0.215451 -71.72  0.001380586    1.653    0.395
        60 -10.9696     83.8289    122.5259   1.0884453258e+02   4.0347303775e+01    0.3220727    0.2811568  -9.32   0.00143767    1.405    0.289
        61  -9.1223    250.0221    130.5685   7.4103780996e+01   5.4998018062e+00    0.1911259    0.1307726  44.28  0.001023708    1.593    0.372
        62  -9.0713    221.7981    129.6137   7.8547689341e+01   1.1159452078e+01    0.1932306    0.1385903  59.36 0.0009508323    1.707    0.414
        63  -9.8972    206.5026    126.5570   8.0605519223e+01   1.4867347771e+01    0.2492363    0.1393364 -35.08  0.000739744    1.724    0.420
        64 -10.1010    213.1155    123.5928   7.8672889636e+01   1.3969058659e+01     0.437645     0.313746  -3.19  0.002086737    1.673    0.402
        65  -8.7624    201.4935    127.4926   8.1782007898e+01   1.5774379575e+01    0.1483305    0.1379382  -3.80 -6.984768e-05    1.016    0.015
        66 -10.2784    136.9928    127.2608   9.5888453165e+01   2.9658003789e+01    0.2194305    0.1977241  45.31  0.000798266    1.112    0.101
        67  -9.3975    242.5253    124.7669   7.3962199835e+01   7.7975281270e+00    0.2520545    0.1960604  41.54  0.001410378    1.382    0.276
        68  -8.3468    230.2865    125.6459   7.6160752518e+01   1.0079520331e+01    0.1399088    0.1073968 -58.18  0.000702259    1.669    0.401
        69  -9.6744    148.6286    125.1864   9.2579253479e+01   2.7673550956e+01    0.2199775    0.1413041 -33.64 0.0004263479    1.690    0.408
        70 -10.6804    189.5075    123.5889   8.3195570240e+01   1.9076449238e+01    0.3373978     0.259155 -41.88  0.001669914    1.309    0.236
        71  -9.8636    161.6420    124.1333   8.9301957278e+01   2.5090831172e+01    0.2487909    0.2128918  60.15 0.0005831335    1.266    0.210
        72 -10.2898    196.6403    121.5167   8.1269245550e+01   1.7886156924e+01    0.4238403    0.2475622  33.42  0.001776568    1.971    0.493
        73  -8.4751    221.6259    121.2746   7.6606934212e+01   1.2564606281e+01    0.1395635    0.1143214 -75.87 0.0007003228    1.689    0.408
        74  -8.6310    153.6694    123.2925   9.0928916504e+01   2.6986492803e+01    0.1521736    0.1227568  88.65 0.0004300372    1.630    0.386
        75 -10.2527     98.7181    124.7149   1.0521981711e+02   3.7433482756e+01    0.4470994    0.1386625  32.00  0.001221334    5.101    0.804
        76  -8.7031    125.0075    119.9897   9.7166392725e+01   3.3641673714e+01    0.1778044    0.1700627  45.63 0.0003328653    1.062    0.058
        77  -8.2045    244.3158    119.6255   7.2498960172e+01   8.2352382244e+00    0.1408358    0.1022238 -57.73  0.000703122    1.796    0.443
        78  -9.8215    231.7615    116.5886   7.3782624242e+01   1.1222463897e+01    0.3148105    0.1443421  54.53   0.00097029    2.513    0.602
        79 -10.3200    182.5881    116.4207   8.2820883318e+01   2.1937712274e+01    0.4003014    0.3236227   6.57  0.001298925    1.421    0.296
        80  -8.7490    203.8387    116.1560   7.8565898594e+01   1.7250449465e+01    0.2081999    0.1717638   7.44 0.0008273064    1.319    0.242
        81  -9.4358    213.7298    115.2940   7.6546027142e+01   1.5239311017e+01    0.3450814    0.1558216  37.94 0.0009975547    2.656    0.624
        82 -10.3857    155.4165    115.0297   8.8440531873e+01   2.8283541828e+01    0.3571104    0.1881725  31.80  0.001294095    2.493    0.599
        83 -10.0757    248.6028    113.1356   7.0348306131e+01   8.3821155256e+00    0.2211065     0.197945  88.77 0.0005774703    1.447    0.309
        84 -10.9628    104.6527    111.7258   1.0060554907e+02   3.9346781644e+01    0.3610016    0.3187462   4.14  0.001076633    1.309    0.236
        85 -10.4821    104.5152    107.5204   9.9603123409e+01   4.0315870957e+01    0.2616223     0.232796  45.91 0.0008192995    1.175    0.149
        86 -10.0194     97.4532    112.6586   1.0284278000e+02   4.0407145221e+01    0.2853419    0.1907485  36.09  0.001358038    1.607    0.378
        87  -9.2897     52.4345    113.4796   1.1607437803e+02   4.6689543499e+01    0.1332839     0.114809 -67.49  9.93872e-05    1.008    0.008
        88  -9.1796     15.1573    111.8662   1.2664888092e+02   5.0512735264e+01    0.1789826    0.1379825  88.77 0.0004483808    1.191    0.161
        89 -11.0914    163.5862    110.3181   8.5344536938e+01   2.7395208804e+01    0.5363532    0.3096266  65.56  0.001989494    2.550    0.608
        90 -10.5475    184.2548    109.7208   8.0758426171e+01   2.2801526786e+01     0.294537    0.2865345  65.48  0.001609274    1.106    0.096
        91  -9.7973    173.8307    110.6255   8.3175028382e+01   2.5010219347e+01    0.2165733    0.1471431  59.47 0.0008544956    1.670    0.401
        92  -9.6886    150.3100    109.6522   8.8241773458e+01   3.0500322208e+01    0.1581293    0.1238124 -79.78 0.0004625099    1.709    0.415
        93 -11.6094    122.7425    109.0391   9.5017710678e+01   3.6479343867e+01    0.7364209    0.2887663  55.65  0.002115194    4.226    0.763
        94  -9.8263    215.6360    107.5691   7.4298012092e+01   1.6117887019e+01    0.3076104    0.2632779 -64.96  0.001253596    1.382    0.276
        95 -10.2193    249.2018    106.3051   6.8672202375e+01   9.2905921354e+00    0.2749262    0.2357307  26.00  0.001085288    1.260    0.206
        96 -10.1024     66.3316    106.8641   1.1062344061e+02   4.6517877131e+01    0.2861821    0.1228183 -65.32  0.001097207    2.557    0.609
        97  -8.9206    248.0498    102.4951   6.7945071564e+01   1.0091376388e+01     0.238574    0.1699851 -40.67 0.0005893494    1.311    0.237
        98 -12.0880    141.4920     97.8558   8.7176009126e+01   3.4848355506e+01    0.6884783    0.3666489 -29.06  0.002449876    2.319    0.569
        99 -11.1761    185.4413    103.0262   7.8761304561e+01   2.3751332122e+01    0.3621672    0.3395774  53.25  0.001429802    1.115    0.103
       100  -9.6656    196.3225    103.4137   7.6739834812e+01   2.1170950019e+01    0.3070227    0.1883107  57.65  0.001086555    1.803    0.445
       101 -11.0995     74.0600    109.2805   1.0883770366e+02   4.4884319535e+01    0.4387098    0.1736875 -59.86  0.001666896    2.480    0.597
       102 -10.9541     90.9154    102.4869   1.0225189753e+02   4.3829548369e+01    0.3376519    0.2339898 -44.19  0.001451483    1.380    0.275
       103 -11.0229    167.5287    101.3037   8.2055779296e+01   2.8232965790e+01    0.4343142    0.2708438  42.75  0.001866231    1.643    0.391
       104  -9.9251    218.8254    100.2596   7.1922471627e+01   1.6619427630e+01    0.5180259    0.2869292  64.57  0.002140841    2.352    0.575
       105 -11.0223    160.7686     99.3218   8.3017264772e+01   3.0178327995e+01     0.442595    0.1998468 -41.07  0.001620153    2.175    0.540
       106 -10.3651    190.3959    109.2579   7.9405261725e+01   2.1485763421e+01     0.281345     0.192204 -43.80  0.001053569    1.473    0.321
       107  -8.9468    249.7666     98.7606   6.6823153745e+01   1.0304906598e+01    0.1835486    0.1490616 -54.24 0.0006206388    1.345    0.256
       108 -12.0713    178.0429     96.9474   7.8629658866e+01   2.6585988371e+01    0.5883293    0.4846762  83.80  0.002863887    1.502    0.334
       109 -11.7850    165.3359     87.2745   7.8605424402e+01   3.1370416314e+01     0.594249    0.4656112 -50.92  0.002710417    1.348    0.258
       110 -12.4776    129.8745     96.8892   8.9859993545e+01   3.7579188263e+01     0.586641    0.5680516  69.04  0.001613315    1.094    0.086
       111 -11.0090    117.3288     99.3089   9.3887384820e+01   3.9665843880e+01    0.3595631    0.1893333  43.98  0.001459732    1.961    0.490
       112  -9.6655    196.3984     97.8712   7.5269730899e+01   2.2120746583e+01    0.3537958    0.2205748  73.79  0.001407955    2.397    0.583
       113 -11.3105    171.4960     92.1832   7.8679050160e+01   2.9005137142e+01    0.5588546    0.3635724 -32.38   0.00170357    1.546    0.353
       114 -11.8343    101.8952     94.7710   9.7004389940e+01   4.3618288792e+01    0.5674419    0.2672542 -36.31  0.002102868    2.473    0.596
       115  -8.9815    146.3262     95.9038   8.5442426918e+01   3.4155053647e+01    0.2599657    0.2215988  66.55 0.0007205172    1.311    0.237
       116  -9.1851    231.0244     94.9224   6.8639861526e+01   1.4800085469e+01    0.2129398    0.2001288 -23.70 0.0005004004    1.030    0.029
       117  -8.8555    208.1738     95.1682   7.2433563084e+01   1.9860545978e+01    0.2010879    0.1758507 -67.95 0.0006616699    1.300    0.231
       118  -9.2669    243.3775     92.8820   6.6324003989e+01   1.2490374897e+01    0.2584627      0.19604  45.98  0.001410263    1.451    0.311
       119 -10.4872    151.4837     92.9265   8.3364113856e+01   3.3560401813e+01    0.3197605    0.2752967  35.57  0.001609439    1.187    0.158
       120 -10.1946    108.4631     91.2533   9.4122467273e+01   4.3136780392e+01     0.291897    0.1398003 -41.36  0.001049575    2.049    0.512
       121 -10.1830    215.5826     88.7422   6.9515308463e+01   1.9215783855e+01    0.3241152    0.1683371 -40.02  0.001362873    1.808    0.447
       122 -10.0062    195.9490     90.6892   7.3434667900e+01   2.3461406968e+01    0.4998955    0.3146501  75.38  0.002025995    2.313    0.568
       123 -10.1295    198.1924     88.3839   7.2404455895e+01   2.3321986849e+01     0.331654    0.2454719 -66.58  0.001066196    1.703    0.413
       124 -11.4930    179.8416     86.0094   7.5227862141e+01   2.8115392439e+01    0.4887474    0.3103092 -44.94  0.002054969    1.599    0.375
       125 -10.4391    176.1880     87.0128   7.6247414139e+01   2.8817163574e+01    0.3802774    0.2347397 -54.52   0.00156024    1.947    0.486
       126 -10.0765    216.4434     95.2403   7.1045473317e+01   1.7969331908e+01    0.2871567     0.139899 -29.16  0.001137359    2.063    0.515
       127  -9.1842    237.6910     89.6446   6.6350641819e+01   1.4178867582e+01    0.3288735    0.2054963  80.17  0.001411314    2.480    0.597
       128 -10.3298    146.6913     89.9516   8.3648378284e+01   3.5240130437e+01    0.2259023    0.2056811 -37.13  0.001050132    1.083    0.077
       129 -10.3742     51.3217     95.6778   1.1288297693e+02   5.0981168950e+01    0.3009776    0.2150677 -71.06  0.001406937    1.370    0.270
       130 -10.1554    225.3152     86.2440   6.7338626322e+01   1.7409437698e+01    0.5246475    0.3519006   4.49  0.002326451    2.152    0.535
       131 -11.4866    139.7910     86.9305   8.4451957462e+01   3.7401622801e+01    0.5300209    0.3803204 -11.36  0.001777029    1.806    0.446
       132  -9.2602    233.1606     85.4058   6.5960051299e+01   1.5802682014e+01    0.2990544    0.2176949 -76.02 0.0007163191    1.841    0.457
       133  -9.6188    231.9816     82.2502   6.5343213972e+01   1.6540740022e+01    0.2656249    0.2308675  87.18  0.001496154    1.322    0.244
       134  -9.3562    237.8480     83.9836   6.4939019258e+01   1.4999005909e+01    0.3303266    0.1792303 -55.81  0.001358322    2.371    0.578
       135 -10.9034    112.6548     78.1045   8.9000749912e+01   4.5022546817e+01    0.3770466    0.2301545  48.46  0.001662046    1.737    0.424
       136 -11.3470    117.1342     84.5889   8.9722050000e+01   4.2791529285e+01    0.3457075    0.3205812  80.22 0.0009846985    1.228    0.186
       137 -11.4578    119.0678     79.1906   8.7539608156e+01   4.3472632622e+01    0.4277659    0.3715721  13.44  0.001514906    1.235    0.190
       138 -10.4192    244.5059     78.3697   6.2664133101e+01   1.4401014281e+01    0.7453852    0.3906386 -61.42  0.002919086    2.986    0.665
       139  -9.3833    241.4698     80.5392   6.3596081306e+01   1.4731751539e+01    0.2764146    0.2103447  75.47 0.0009989929    1.575    0.365
       140 -10.0400    235.7871     75.8362   6.3208437009e+01   1.6659761220e+01    0.5684127    0.2412579 -42.30  0.001974774    2.179    0.541
       141  -9.4006    206.1580     83.9553   6.9823073460e+01   2.2175253925e+01    0.2598965    0.1589143 -56.51  0.001087599    2.017    0.504
       142  -9.2383    134.6923     83.9084   8.4834679835e+01   3.9139594922e+01    0.2206853    0.1957722 -39.43 0.0006894562    1.111    0.100
       143 -10.6126    111.4964     82.9479   9.0817146620e+01   4.4276529007e+01    0.2878245    0.2174912  62.78  0.001154513    1.621    0.383
       144 -10.9286    152.5143     80.7337   7.9550389875e+01   3.5623632965e+01     0.398344    0.2897789  -5.17   0.00173019    1.789    0.441
       145 -10.6329     88.2169     81.4377   9.7357871849e+01   4.8933697919e+01    0.3493714    0.2178702 -56.19 0.0009681278    1.697    0.411
       146 -11.0625    195.7065     78.1142   7.0040944847e+01   2.5618772824e+01    0.5904101    0.2842905 -54.26  0.002043839    2.915    0.657
       147 -10.2371    189.8070     77.4856   7.0923829613e+01   2.7151868741e+01    0.3550991    0.3030474 -17.49  0.001828683    1.216    0.178
       148 -11.4967    176.1259     77.7371   7.3601559558e+01   3.0448872449e+01    0.5833718    0.3846466 -65.57   0.00240265    2.121    0.528
       149 -11.1696    159.6697     80.0627   7.7735539553e+01   3.4036940165e+01    0.6598628    0.1969817  48.95   0.00199787    3.272    0.694
       150 -10.6893    131.4982     78.7273   8.4073215296e+01   4.0856642707e+01    0.3792647    0.2527424 -31.98  0.001424751    1.530    0.347
       151 -11.0398    135.9612     77.7653   8.2635745164e+01   4.0031774249e+01    0.3988849    0.2813115  71.87  0.001443763    1.915    0.478
       152  -8.9913     43.0000     79.9623   1.1209496586e+02   5.5480754930e+01    0.2211579   0.06440889 -58.84  0.000798746    2.917    0.657
       153 -10.4644    214.2839     76.7753   6.6591769822e+01   2.1408595100e+01    0.4064995     0.308736 -21.85  0.001296652    1.350    0.259
       154 -11.6024    126.4920     75.3174   8.4317589477e+01   4.2620966362e+01    0.4621581    0.4111816   7.01    0.0019662    1.181    0.153
       155  -8.9337    224.5305     75.9984   6.4839661107e+01   1.9159656942e+01    0.3129323    0.1528884 -47.42 0.0009713027    2.135    0.532
       156  -8.9355    227.4288     74.2785   6.3981048193e+01   1.8759166299e+01    0.3818459    0.2048497 -56.69  0.001547255    2.397    0.583
       157  -8.8673    160.5082     75.4794   7.6178536472e+01   3.4648798298e+01    0.1531214    0.1492165   2.90 2.471843e-05    1.018    0.017
       158 -10.5243     97.1595     74.4693   9.2448633720e+01   4.8788835615e+01    0.3371902    0.2485887  69.83  0.001577911    1.961    0.490
       159 -10.8545    201.6263     72.1432   6.7380047526e+01   2.5143648201e+01    0.5923138    0.3347927  72.92  0.002374116    2.335    0.572
       160 -10.4259    140.9083     73.4545   8.0064640572e+01   3.9689153788e+01    0.2962613    0.2021674  38.21  0.001329462    1.537    0.350
       161 -10.6542    175.9531     71.8394   7.1911258872e+01   3.1484216213e+01    0.3574957    0.2187533  66.33  0.001495303    1.888    0.470
       162  -9.6649    158.4939     62.7624   7.2692663877e+01   3.7297427283e+01    0.4525959    0.1868931 -30.46  0.001581759    2.550    0.608
       163 -10.4251    157.8513     70.5052   7.5240208947e+01   3.6158529864e+01     0.441285    0.2542423 -48.68  0.001794274    1.923    0.480
       164  -9.9952    154.9647     66.6739   7.4680456198e+01   3.7515144007e+01    0.3381135    0.2497965  68.45  0.001018306    1.541    0.351
       165  -8.3999    250.4657     70.4845   6.0015244123e+01   1.4267366630e+01    0.1354913    0.1196949 -38.21 0.0008094767    1.007    0.007
       166  -9.6230    163.1441     70.2034   7.4014957108e+01   3.4914603021e+01    0.2174955    0.1846777 -72.80  0.001075279    1.368    0.269
       167 -11.1209    225.4126     66.3365   6.2226789229e+01   2.0392362432e+01    0.6353269    0.4160155  88.02  0.002787482    2.043    0.510
       168  -9.2941    221.1721     61.1633   6.1467754903e+01   2.2126905333e+01    0.2244675    0.2003673 -45.21 0.0008631712    1.048    0.046
       169  -9.4345    139.8127     67.4711   7.8427610885e+01   4.1016743282e+01    0.2583787    0.2151997 -58.01  0.001284625    1.352    0.260
       170 -10.4809    151.6859     73.4362   7.7518632449e+01   3.7138929632e+01     0.349745    0.2177274 -57.14  0.001413034    2.069    0.517
       171  -9.7197    250.1488     65.6284   5.8893528334e+01   1.5012081930e+01    0.3077892    0.1656775 -37.64 0.0008217327    1.604    0.376
       172  -9.5787    181.5524     65.4468   6.8971351726e+01   3.1131767988e+01    0.3518826    0.2195574  21.95  0.001379638    2.410    0.585
       173  -9.0493    238.2545     64.4092   6.0045463550e+01   1.7763194026e+01    0.2449319    0.1646108 -19.19  0.001041946    1.615    0.381
       174 -10.3571    208.3161     62.6521   6.3720491493e+01   2.4972710619e+01    0.6575736    0.2260146 -52.31  0.001695973    5.453    0.817
       175  -9.0981     85.3333     65.6652   9.3360616972e+01   5.2688265204e+01    0.1397545    0.1147272 -84.07 0.0007052202    1.736    0.424
       176 -10.5038    237.9124    247.4081   9.8256043903e+01  -7.6909316452e+00    0.2828868    0.1468131  25.63  0.001451609    1.583    0.368
       177  -8.8083    199.2344    248.5955   1.0496191804e+02  -2.2940289787e+00    0.1673786   0.08468371  30.92 0.0008089706    1.645    0.392
       178  -9.1270    198.0063     63.7604   6.5644390975e+01   2.7319189862e+01    0.2884881    0.2216705 -20.48 0.0009080861    1.377    0.274
       179 -11.6507    199.2398     58.4247   6.3947963482e+01   2.7811796774e+01     1.182937    0.6254866  51.86  0.005038343    1.911    0.477
       180 -10.8370    190.5472     42.7943   6.0808814682e+01   3.2178778522e+01    0.8241407    0.5196793  -8.94  0.003612848    2.082    0.520
       181  -9.9613    183.9595    245.5373   1.0721397635e+02   3.7264149057e-01    0.2023062    0.1519382  -4.10 0.0008721573    1.560    0.359
       182  -9.2018    249.6592    242.0688   9.5521454569e+01  -8.7370269987e+00    0.2121925    0.1188382  16.83  0.001325759    1.573    0.364
       183 -10.9119    200.8071     53.8702   6.2427704415e+01   2.8083887774e+01    0.6581681    0.4025475   1.27  0.002597581    2.684    0.627
       184 -10.3857    198.6591     49.6164   6.1551554307e+01   2.9215285354e+01    0.6263909    0.2966304 -22.50  0.002408542    2.459    0.593
       185  -9.6744    123.0161     62.0142   8.0891528066e+01   4.5836958311e+01     0.298151    0.1905136  23.63  0.001247051    2.040    0.510
       186 -11.4637    127.0299     59.1880   7.8880079525e+01   4.5420964180e+01    0.5793691    0.2576853 -43.88  0.002153191    2.385    0.581
       187 -11.1537    131.5739     54.7358   7.6209407367e+01   4.5113041081e+01     0.456449    0.1961315 -30.49   0.00166472    2.449    0.592
       188  -8.3358     43.6922     62.3238   1.0717319209e+02   5.9269389054e+01    0.1214146    0.1000488  88.38 0.0007030796    1.648    0.393
       189  -9.2567    226.8402     60.4683   6.0522814479e+01   2.0906081883e+01    0.3078767     0.152595 -45.30  0.001314929    1.944    0.486
       190  -9.8094    149.1466     60.3596   7.3956103667e+01   3.9985420427e+01    0.3752001    0.2736923  65.91  0.001755441    1.519    0.342
       191  -9.2241    235.7407     59.9857   5.9259136002e+01   1.8944867532e+01    0.4052928    0.2051058  71.44  0.001739622    2.401    0.584
       192  -9.7400    117.8418     59.8407   8.1548351493e+01   4.7364023710e+01    0.2046285    0.1833166 -71.69 0.0005352231    1.344    0.256
       193  -9.1948     47.8635     60.6437   1.0508185080e+02   5.9154158064e+01    0.1718442    0.1172689  40.98 0.0009427877    1.773    0.436
       194 -10.3830    213.6720     57.8978   6.1650289738e+01   2.4374688267e+01     0.547006    0.3239409  63.52  0.002429551    1.764    0.433
       195 -10.8620    171.5947     58.4627   6.8732446520e+01   3.4713173399e+01    0.3511596    0.3421997  32.70  0.001102917    1.032    0.031
       196  -9.1465    135.3128     58.0187   7.6407901761e+01   4.3693973512e+01     0.244427    0.1255331 -10.92 0.0007044399    4.236    0.764
       197 -10.4358     99.3211     57.2036   8.6001147676e+01   5.1698369635e+01      0.32606    0.2461707  57.79  0.001594821    1.596    0.373
       198 -10.8126    228.5466     51.8561   5.8096234175e+01   2.1706014411e+01    0.5126417    0.4496383 -14.51  0.002540365    1.238    0.192
       199  -9.9215    119.4658     56.4627   7.9936602543e+01   4.7590786090e+01    0.1473744    0.1405317  -0.34 6.234171e-05    1.014    0.014
       200 -10.1863    106.7512     55.3927   8.3131714176e+01   5.0513010613e+01    0.3859685    0.2538365  88.06  0.001367399    3.760    0.734
       201  -9.3482    220.9765     53.3440   5.9444977507e+01   2.3274514686e+01    0.3916542    0.1881569  52.78  0.001664284    2.167    0.539
       202 -10.6645    163.2752     52.6999   6.8540345497e+01   3.7681039757e+01    0.3998953    0.2969041 -57.14  0.001271276    1.534    0.348
       203  -9.5594    158.5333     48.2250   6.8039215583e+01   3.9535171553e+01    0.4472259    0.2067275 -29.07  0.001718217    2.230    0.552
       204  -9.3305    162.4591     46.1409   6.6604961108e+01   3.8845238606e+01     0.383544    0.2661283  89.99  0.001511253    1.902    0.474
       205  -9.7915    152.9385     53.4928   7.0898961938e+01   4.0143331644e+01     0.234926    0.1465828  56.34 0.0008015239    1.588    0.370
       206 -10.9369    145.7939     48.8478   7.0894687828e+01   4.2614448732e+01    0.4156169    0.2742008  54.33  0.001922739    1.483    0.326
       207  -8.7669     87.3386     49.6594   8.7065227998e+01   5.5335130102e+01    0.1371551    0.1137581 -76.19 0.0006539388    1.766    0.434
       208  -8.8573    248.9937     48.0000   5.4813927001e+01   1.7629879545e+01    0.2621637      0.17917  83.38  0.001413638    1.663    0.399
       209  -9.5267    250.1919     44.9860   5.3974408441e+01   1.7759343784e+01    0.3838476    0.1342423 -41.08  0.001564903    2.381    0.580
       210 -10.0983    112.8516     46.6079   7.8208069933e+01   5.0674944758e+01    0.3542628    0.1916675 -17.53  0.001178051    2.438    0.590
       211 -10.3325    215.7093     42.3124   5.7204708662e+01   2.6015705717e+01    0.5556062    0.3079453 -15.64  0.002347159    2.312    0.568
       212  -9.6764    236.6871     53.6467   5.7563200619e+01   1.9602516651e+01    0.3686038    0.2577351  86.78  0.001915557    1.664    0.399
       213  -9.1037     41.8458     54.8881   1.0563758459e+02   6.1020332756e+01    0.1664124    0.1444982 -63.67 0.0004193073    1.309    0.236
       214 -10.3390    123.8792     45.1763   7.4768042792e+01   4.8411751331e+01    0.3272716    0.2218058  52.36  0.001563984    1.472    0.320
       215 -10.4687    244.4156     41.9390   5.3839015583e+01   1.9411216822e+01    0.3939192     0.309037 -22.05  0.001871845    1.346    0.257
       216  -8.5563    238.9186     44.5284   5.5052742828e+01   2.0306406620e+01    0.1874166    0.1302246  66.79 0.0005350051    1.521    0.343
       217 -10.3277    201.6010     27.3198   5.4875058908e+01   3.1342511676e+01    0.5350549    0.3332385  25.59  0.002382177    2.329    0.571
       218 -10.7526    176.5634     41.1121   6.2517715285e+01   3.5952875636e+01    0.5699125    0.4040266 -78.74  0.002669593    1.743    0.426
       219  -9.8997    134.1610     42.2464   7.1228294262e+01   4.6418399856e+01    0.2750929    0.2131288  80.67 0.0009465632    1.607    0.378
       220  -9.2934     76.9820     45.3665   8.8959573234e+01   5.7930366933e+01    0.4636598    0.1480508 -41.32  0.001668362    2.948    0.661
       221 -10.4315    165.8150     39.8612   6.3973935782e+01   3.8859607920e+01    0.3162867    0.2608891  88.03 0.0007348018    1.332    0.249
       222  -8.8680    161.5025     39.0217   6.4483647615e+01   4.0068534739e+01     0.271145    0.1487856 -23.18 0.0009999588    1.985    0.496
       223  -9.2117    163.9476     34.2862   6.2511269848e+01   4.0061840272e+01     0.407919    0.2381026  -6.26  0.001666634    2.374    0.579
       224 -10.2414    244.8673     51.6167   5.6127481937e+01   1.8054874821e+01    0.3868044    0.2593208 -62.52  0.001516537    1.593    0.372
       225  -8.9490     86.1037     39.1992   8.3434425158e+01   5.7324890040e+01    0.2609431    0.1745933 -55.24  0.001236241    2.098    0.523
       226  -9.9056    238.4951     38.3076   5.3570568104e+01   2.1193684701e+01    0.2562995     0.224512 -66.24 0.0009991394    1.072    0.067
       227  -8.9218     61.4764     37.9179   9.1745305539e+01   6.1717264257e+01    0.2022532    0.1167459 -38.43  0.001024346    1.568    0.362
       228  -9.4677    250.5298     36.0351   5.1832498364e+01   1.8808837901e+01    0.2708019     0.132703 -37.38 0.0008643744    1.742    0.426
       229 -10.7041    248.2725     31.9039   5.1073256710e+01   1.9802957914e+01    0.7197455    0.4594394 -66.61  0.003863866    1.625    0.385
       230 -10.6395    227.4483     32.9234   5.3395525882e+01   2.4404988407e+01    0.6476025    0.3249455 -44.36  0.002990493    1.832    0.454
       231  -9.7921    235.4524     31.5810   5.2229468595e+01   2.2713340131e+01    0.4624708    0.3150785  63.44  0.002532075    1.526    0.345
       232  -8.6820    140.5435     37.4833   6.8125263766e+01   4.5530031033e+01    0.1453024    0.1385293  30.04 4.059846e-05    1.004    0.004
       233  -9.7868    221.0529     42.3046   5.6543348338e+01   2.4735868711e+01    0.4713537    0.3148361 -53.86  0.002386378    1.491    0.329
       234  -9.3144    242.4938     34.2372   5.2177937477e+01   2.0798285118e+01    0.2434841    0.1569775 -78.81 0.0007719766    1.738    0.425
       235  -8.9899    105.4298     34.2517   7.5560813640e+01   5.4152238008e+01    0.1939141    0.1282204 -38.81 0.0009446442    1.589    0.371
       236  -9.5492    174.0499     27.8378   5.8812797913e+01   3.8266358024e+01    0.4591272    0.1047906 -41.01  0.001322416    4.362    0.771
       237  -9.9804    169.6365     32.7124   6.1043714493e+01   3.8805827674e+01    0.2518876    0.1990383  46.38   0.00121592    1.261    0.207
       238 -10.0454    170.7517     29.5779   5.9872953693e+01   3.8903641698e+01    0.2842631    0.2463395  -6.83 0.0008390096    1.264    0.209
       239  -9.7088    117.1087     32.3718   7.1711520151e+01   5.1806945035e+01    0.2870921    0.2046566 -34.66  0.001388096    1.447    0.309
       240  -8.9403    209.2973     31.6658   5.5131666688e+01   2.8919030853e+01    0.2434098    0.1358974  74.90 0.0006501489    1.884    0.469
       241  -9.6368    221.3111     31.0797   5.3590007303e+01   2.6080599242e+01    0.4769574    0.2749462 -49.28   0.00230765    1.673    0.402
       242  -9.8853    216.0429     30.2480   5.3961851555e+01   2.7446284967e+01    0.3558939    0.3072525  11.78  0.002054536    1.405    0.288
       243  -9.9553    212.7507     30.0053   5.4275418631e+01   2.8274631196e+01    0.4048487    0.2427978 -35.19  0.001986274    1.584    0.369
       244 -10.4819    110.3524     31.0621   7.2955931153e+01   5.3511751935e+01    0.4354736    0.2191568 -27.73  0.001696391    2.008    0.502
       245  -9.5167    146.0816     25.5461   6.2824129945e+01   4.5656357788e+01    0.4508261    0.2330565 -55.01  0.001732668    2.771    0.639
       246  -9.4550     25.8465     26.0556   1.0231729225e+02   6.8177498179e+01    0.2951804    0.1282421 -55.04  0.001362777    2.637    0.621
       247  -8.8133    164.7286     25.8848   5.9663866663e+01   4.0881557037e+01    0.3279876    0.1693649 -85.93  0.001114002    3.493    0.714
       248 -10.1160    118.1893     24.7345   6.8487815467e+01   5.2532166393e+01    0.4059144    0.2295239 -40.29  0.001843803    1.949    0.487
       249 -10.6513    224.9332     23.0061   5.1140452967e+01   2.6168353081e+01    0.4603768    0.3119641 -76.69  0.002444606    1.542    0.351
       250  -8.7215    132.2246     21.9706   6.4291815283e+01   4.9502595949e+01    0.2766864    0.1131772 -21.48  0.001039524    2.719    0.632
       251  -9.7243    244.7514    236.9981   9.5521096612e+01  -7.5466582371e+00    0.2089278    0.1345083  52.98  0.001185757    2.740    0.635
       252  -8.3723    211.5041    228.5134   9.9839463869e+01  -1.7085395214e+00    0.1209486   0.09519789  21.51 0.0003492899    1.004    0.004
       253  -9.2214    164.7173    228.4241   1.0835773395e+02   5.7276842409e+00    0.2429264   0.09818206  43.09  0.001136883    2.060    0.515
       254  -8.9424     99.3194    226.0298   1.2046293244e+02   1.6254421524e+01    0.1619516    0.1359198  71.10   0.00104919    1.116    0.104
       255  -8.6930    212.7196    219.6136   9.8193177785e+01  -7.6574626023e-01    0.1631368    0.1005696  41.86 0.0009339859    1.531    0.347
       256  -8.7863    247.8181    215.8667   9.1509259835e+01  -5.6442906615e+00    0.2908872   0.07020008  42.17  0.001089516    4.064    0.754
       257  -8.8422    156.0000    215.9457   1.0823956842e+02   9.0723240906e+00    0.1800988   0.07325511 -47.94 0.0007966927    2.903    0.656
       258  -9.6448    132.6948    214.0635   1.1255279241e+02   1.3214235484e+01    0.1875971    0.1505811  83.75 0.0009608177    1.471    0.320
       259  -8.3432    235.5208    210.5438   9.2655625907e+01  -3.1705564499e+00    0.1220525   0.09765828  12.56 0.0002108308    1.030    0.029
       260  -8.8653     74.6420    209.3130   1.2353733167e+02   2.2758717002e+01    0.1301434   0.07376299  64.84 0.0007043453    1.743    0.426
       261  -9.7497    174.0531     20.0080   5.6379483406e+01   3.9151964649e+01    0.5692717    0.2404968  65.09  0.002285742    2.188    0.543
       262  -8.5871    183.3022     19.6931   5.5011424389e+01   3.6823129863e+01    0.1449702   0.09954502 -63.35 0.0003071511    1.599    0.375
       263  -9.5012    147.2164     17.9991   5.9985328780e+01   4.6209984989e+01    0.3495402    0.2707932  50.41  0.001882633    1.200    0.166
       264  -8.2695     67.6645     17.7050   8.0552247865e+01   6.3813571112e+01    0.1353753   0.08839677  11.01 0.0005780326    1.646    0.392
       265  -8.8100     57.5315     17.4855   8.4334044707e+01   6.5523970084e+01    0.1270262    0.1067573  -5.82 0.0002082466    1.047    0.045
       266  -9.4615     65.3363    203.1798   1.2478934696e+02   2.5169167376e+01    0.1624576   0.09828784 -84.86 0.0006566086    1.666    0.400
       267  -8.7444     16.3906    201.7352   1.3412103929e+02   3.0889415344e+01     0.140524   0.08323207 -74.31 0.0007020698    1.552    0.355
       268  -9.5611    238.6499    192.9446   8.8923741932e+01  -1.4076952677e+00    0.2682385    0.1479338  25.72 0.0007842256    1.780    0.438
       269  -8.9701    162.6583     15.1154   5.6496839193e+01   4.2582854030e+01     0.226413    0.1627834 -51.68  0.001160112    1.513    0.339
       270  -9.5544    226.6525     17.7992   4.9664179484e+01   2.6346840103e+01    0.2579279     0.231442  38.15  0.001108208    1.328    0.247
       271  -8.3395    105.3032     14.6785   6.7604761972e+01   5.6625619163e+01    0.1300667    0.1057456 -60.87 0.0002806081    1.632    0.387
       272  -8.3578    169.6922     13.3291   5.4908351555e+01   4.0963973396e+01    0.1456432   0.09920869 -62.41 0.0007039141    1.660    0.398
       273  -8.6595     21.5502    189.5358   1.3236705769e+02   3.2829772414e+01    0.1137389   0.08509532  77.40 6.163645e-05    1.025    0.025
       274  -9.0023    194.4421    188.4948   9.6165433402e+01   6.7940819403e+00    0.2472029    0.1178229  51.06  0.001034857    2.482    0.597
       275  -8.8535     58.6845    188.7015   1.2473207851e+02   2.8935916755e+01    0.1078134   0.09324166 -39.55 0.0003222695    1.610    0.379
       276  -9.1034    121.3060    187.6852   1.1114498660e+02   1.9953174339e+01     0.135446   0.09672456  71.03 0.0002998363    1.624    0.384
       277  -9.5193    105.7983    184.5803   1.1406141409e+02   2.3108446431e+01    0.1937083    0.1087314  50.53 0.0006873549    1.682    0.406
       278  -9.6846    157.6323    178.7104   1.0183508187e+02   1.5232277306e+01    0.2948348     0.221743   0.00  0.001221945    1.759    0.431
       279  -8.6970    152.4819    178.4716   1.0288981147e+02   1.6228394578e+01     0.137958     0.126969  40.96 3.309419e-05    1.014    0.014
       280  -8.3057    235.3401    175.3304   8.6079502890e+01   1.5582139233e+00     0.140017   0.09007017   7.20 0.0007051649    1.742    0.426
       281  -8.6806     84.7222    175.3202   1.1746529435e+02   2.8264108347e+01    0.1332412   0.09058806  73.84 0.0002681133    1.579    0.367
       282  -8.5560    213.4833    170.4507   8.9024400910e+01   6.1752716207e+00    0.1358918    0.1209617   9.17 0.0002221863    1.030    0.030
       283  -9.1813    147.3072    167.9914   1.0208753592e+02   1.9207256566e+01    0.1882789    0.1814968 -49.07 0.0004280013    1.102    0.093
       284  -9.1248    201.8077    165.3936   9.0203950885e+01   9.1831094178e+00    0.1996212    0.1211956  32.17 0.0008047196    1.647    0.393
       285  -8.4917     94.4565    160.4904   1.1300318086e+02   3.0023852906e+01    0.1359115    0.1236832  80.61 0.0001227745    1.014    0.013
