#   1 NUMBER                 Running object number                                     
#   2 MAG_AUTO               Kron-like elliptical aperture magnitude                    [mag]
#   3 X_IMAGE                Object position along x                                    [pixel]
#   4 Y_IMAGE                Object position along y                                    [pixel]
#   5 X_WORLD                Barycenter position along world x axis                     [deg]
#   6 Y_WORLD                Barycenter position along world y axis                     [deg]
#   7 A_WORLD                Profile RMS along major axis (world units)                 [deg]
#   8 B_WORLD                Profile RMS along minor axis (world units)                 [deg]
#   9 THETA_WORLD            Position angle (CCW/world-x)                               [deg]
#  10 FWHM_WORLD             FWHM assuming a gaussian core                              [deg]
#  11 ELONGATION             A_IMAGE/B_IMAGE                                           
#  12 ELLIPTICITY            1 - B_IMAGE/A_IMAGE                                       
         1 -14.1791     67.8653     35.8870   1.9643497483e+01   6.2761250523e+01     1.185079    0.5973384 -30.93  0.004957275    2.320    0.569
         2 -13.4484      2.1746     13.6172   4.8960592437e+01   7.7530682399e+01    0.7052153    0.2425723 -58.91  0.002938407    3.083    0.676
         3 -14.4149    243.7801      5.2803   3.4558951881e+02   2.6772612429e+01    0.8640783    0.4087159 -72.90   0.00534742    1.932    0.483
         4 -13.7098     43.3865      6.7017   1.4015388321e+01   7.2070881919e+01    0.7221445    0.4744585   3.15  0.003767325    1.959    0.489
         5 -13.8479     31.8672      5.4515   1.9259775341e+01   7.4539696243e+01    0.6707111    0.4078865  57.79  0.003310065    1.825    0.452
         6 -13.8210     59.6758    222.3701   6.3372557229e+01   1.9542710546e+01     1.880689    0.5638354  47.35  0.006977246    3.229    0.690
         7 -14.1135    176.9494    248.7883   4.0863212826e+01   1.3152166372e+00    0.9745252    0.3426304  29.94  0.004945823    2.437    0.590
         8 -12.9577    163.7816    245.1352   4.2867645043e+01   3.2348374586e+00    0.5199451    0.3580704 -10.20  0.003467735    1.371    0.270
         9 -12.5415     14.7657    246.1873   7.5230420118e+01   1.9229300762e+01     0.519709    0.2083478  78.32  0.002542793    2.784    0.641
        10 -11.3708      3.1057    249.9290   7.7859889014e+01   1.9511340944e+01    0.2730928   0.08628982  51.36  0.001347988    2.269    0.559
        11 -13.2338     52.5624    237.0829   6.6192843220e+01   1.7331848472e+01     0.555067    0.3997702  44.90  0.002144203    1.156    0.135
        12 -13.0011     47.8184    231.8657   6.6947267330e+01   1.8876760196e+01    0.4589781    0.4352767 -42.51  0.002641749    1.303    0.232
        13 -12.7510     44.9545    225.6666   6.7209541616e+01   2.0455650897e+01    0.4748596    0.3357286 -44.27  0.002771437    1.802    0.445
        14 -13.2517     48.1757    218.0905   6.5872723252e+01   2.1723600662e+01    0.5903239     0.422053  86.68   0.00280458    1.520    0.342
        15 -11.9703     19.4729    236.1069   7.3789618145e+01   2.0798377262e+01    0.3867921    0.1700633  75.31  0.001900282    2.474    0.596
        16 -12.6197    169.9176    233.1398   4.0085119669e+01   4.3184163576e+00    0.3998179    0.2441315   6.17  0.002379484    1.610    0.379
        17 -13.6708    128.7592    226.7818   4.7680085706e+01   1.0279169087e+01    0.5315677    0.4938493 -27.41  0.003120049    1.217    0.178
        18 -14.2059    111.2964    244.6889   5.3587161830e+01   9.2828587494e+00    0.6942429     0.626344 -76.59  0.004799459    1.455    0.313
        19 -12.8802    247.7240    231.3504   2.6779108089e+01  -3.2685198618e+00    0.2317729    0.1435274 -21.40   0.00177428    1.200    0.167
        20 -12.6565     10.6968    228.6538   7.5521978398e+01   2.3106560138e+01    0.6042572    0.1820754  51.27  0.002653884    2.558    0.609
        21 -13.2736    177.4165    223.8684   3.7336407611e+01   4.8545390970e+00     0.625861    0.3795783  29.98  0.003387886    1.566    0.361
        22 -14.9410    185.1820    213.5677   3.4334999446e+01   5.5131448224e+00     1.529009    0.8320146 -42.81  0.007463068    1.874    0.466
        23 -12.7848     99.2918    220.2256   5.3580107080e+01   1.5210453678e+01    0.3957976    0.3014948  46.38  0.001935719    1.303    0.232
        24 -11.8364     81.4774    218.2487   5.7644786447e+01   1.7829098526e+01    0.3759256    0.1732101  27.04  0.001715353    1.926    0.481
        25 -13.0566    157.2343    213.8833   3.9837641768e+01   8.9115695727e+00    0.4741026    0.4140638  37.90  0.002339454    1.359    0.264
        26 -14.9698    106.2862    208.8028   5.0503967789e+01   1.6580192457e+01     1.177346     0.998377  29.09  0.006086441    1.053    0.051
        27 -14.0200    229.8007    209.8361   2.6207342778e+01   1.0920832515e+00    0.7752063    0.4266175  32.26  0.004998399    2.023    0.506
        28 -15.5091    234.6341    197.5835   2.3526246382e+01   2.2287809416e+00     1.488009     0.979176  -6.22   0.00920261    1.396    0.284
        29 -13.8257     22.3029    192.9491   7.0878734889e+01   3.0107801045e+01     1.170252    0.4396836 -78.55  0.004816167    2.688    0.628
        30 -13.5603     15.9532    181.5339   7.1951801787e+01   3.3478717033e+01    0.8812162    0.4261505 -86.89  0.002944118    2.055    0.513
        31 -14.0833     55.5597    202.6349   6.2681109664e+01   2.4335843975e+01     1.850675    0.6930329  60.15  0.006019901    4.207    0.762
        32 -14.7071     43.9067    181.5409   6.3902037363e+01   3.0710833262e+01      1.52397    0.8392321  66.59  0.006769792    2.018    0.504
        33 -11.9052      1.4976    211.0131   7.7115083476e+01   2.7681006290e+01    0.2748255    0.1044882  84.35  0.001211299    2.655    0.623
        34 -11.7786     78.3217    209.0976   5.7450924728e+01   2.0147052557e+01    0.3314006    0.1861425  44.93  0.001235842    1.652    0.395
        35 -12.6065     73.1342    204.8203   5.8311221192e+01   2.1728660103e+01    0.4926923     0.291016  44.82  0.002463689    1.551    0.355
        36 -13.5093    204.0852    203.5864   2.9384818511e+01   4.7876963931e+00    0.5746485    0.4500257  28.66  0.003514439    1.447    0.309
        37 -14.5514    202.3876    190.2572   2.7467829317e+01   7.0140067898e+00    0.9905403    0.6981129 -27.75  0.005713845    1.212    0.175
        38 -13.2848      2.3373    199.8519   7.6522048602e+01   3.0163389182e+01    0.7552282    0.3971204  58.75  0.003748487    1.618    0.382
        39 -13.1246      2.3725    194.0011   7.6295440012e+01   3.1538311274e+01     0.671796    0.3077281  66.58  0.003066593    1.996    0.499
        40 -14.2248    100.9086    199.3253   5.0565858826e+01   1.9275637490e+01     1.214505    0.5882047  29.71  0.004868189    1.882    0.469
        41 -12.3296     34.5465    194.9765   6.7677093943e+01   2.8427694226e+01    0.3589018    0.2334895 -66.75  0.001901099    1.623    0.384
        42 -13.9068    110.2059    187.5465   4.6539240577e+01   2.0488736807e+01    0.8261716    0.4556503  38.08  0.003830531    1.692    0.409
        43 -12.1906     29.6454    184.4904   6.8248101388e+01   3.1475401231e+01    0.4439614    0.2346125 -66.56  0.001612699    1.914    0.477
        44 -14.3378     30.3985    173.9886   6.7185113392e+01   3.4049317541e+01     1.423645    0.5311391 -82.55  0.005220054    2.963    0.662
        45 -14.9022     11.9623    157.6195   7.1614007033e+01   3.9978024508e+01     1.890293    0.9088184  73.31  0.008020147    2.139    0.532
        46 -13.5380     21.6047    168.6796   6.9411046770e+01   3.6256034510e+01    0.8528407    0.4033772  40.11  0.003517875    1.860    0.462
        47 -14.0886     19.1143    161.0927   6.9598807662e+01   3.8465422151e+01    0.7213187    0.5532326  55.78  0.002619635    1.190    0.160
        48 -14.5948    149.0125    170.7931   3.4447395222e+01   1.8037268598e+01     1.457111    0.7410352 -57.21  0.006111425    2.487    0.598
        49 -14.0483     29.8126    206.8643   6.9756451444e+01   2.6121262958e+01     1.003625    0.4894454  53.35  0.004074508    1.846    0.458
        50 -13.9648    243.6206    209.5555   2.4107104910e+01  -2.4730513686e-01    0.8229695    0.4723198 -20.30  0.005179977    1.405    0.288
        51 -13.5209    206.8808    169.9243   2.3127627863e+01   9.6329808910e+00    0.4738601    0.3240218 -39.04  0.002901474    1.325    0.245
        52 -13.5863     31.2829    158.3904   6.5479240599e+01   3.8038919101e+01    0.4521918    0.3623104  83.16  0.002379889    1.189    0.159
        53 -14.8288    127.8851    148.1330   3.5017190309e+01   2.6358484337e+01     1.107371    0.9350718 -85.62  0.005773272    1.444    0.307
        54 -14.4116    128.1756    133.5711   3.1820166765e+01   2.9550112885e+01    0.9205372    0.6220615 -64.25  0.004148514    1.741    0.426
        55 -14.2805    133.1595    125.9228   2.8830666013e+01   3.0281830124e+01      1.10644    0.6169464 -45.81    0.0047199    1.733    0.423
        56 -14.5138    243.5548    134.2115   1.1179613470e+01   1.0135568140e+01    0.8468294     0.575305 -57.84    0.0053157    1.893    0.472
        57 -15.3811     37.7668    126.7848   5.9328891219e+01   4.5967575874e+01     2.097735     1.379089 -73.16   0.00777238    1.470    0.320
        58 -12.7631    104.0640    150.6398   4.1838716842e+01   2.9916314446e+01     0.307232    0.2244594 -45.76  0.001477184    1.400    0.286
        59 -12.8041     15.1598    131.6290   6.8374840809e+01   4.6781378077e+01    0.4220207    0.3799344 -71.35  0.001899311    1.096    0.088
        60 -14.1657     21.4718    124.2990   6.5195218662e+01   4.8288788361e+01    0.6588674    0.4398572 -59.85  0.002914073    1.431    0.301
        61 -13.9367    187.8126    142.8779   2.1168500264e+01   1.7036448803e+01     1.109456    0.6396418 -58.60  0.005025511    2.435    0.589
        62 -12.2334    209.8618    147.9030   1.8498396739e+01   1.2765455208e+01    0.2027977    0.1533147 -18.05  0.001253519    1.275    0.216
        63 -13.3741      9.7217    121.4406   6.9441636628e+01   4.9998835482e+01    0.8136191    0.2640589 -57.00  0.002928488    2.758    0.637
        64 -13.1711     71.0829    100.8516   4.1345729463e+01   4.8150212011e+01    0.7611241    0.5267336 -71.65  0.003368039    1.628    0.386
        65 -13.1826     21.0942    101.7361   6.2227290987e+01   5.4573093802e+01    0.4923453    0.3459312 -83.86  0.001943375    1.409    0.290
        66 -12.6096    110.2283    100.0720   2.8327681711e+01   4.0687531068e+01    0.6271994    0.3571864  51.19  0.002574563    1.835    0.455
        67 -13.9365    223.0120     92.0254   5.2353010558e+00   1.9486513627e+01      1.02301    0.4484805 -50.50  0.004845132    2.189    0.543
        68 -12.5311     46.4993     90.9756   4.8741449148e+01   5.4589197147e+01     0.494462    0.3722214 -48.83   0.00191089    1.307    0.235
        69 -14.6403    176.6753     85.9981   1.0138067897e+01   2.9166221018e+01    0.8062204    0.6031485 -36.27  0.004417141    1.275    0.216
        70 -14.6989    176.0473     76.2063   7.7645971144e+00   3.0926780918e+01    0.7979069    0.5174033 -72.11  0.003884106    1.870    0.465
        71 -13.9033    249.5620     82.5069   5.6673464597e-01   1.6565241091e+01    0.9982087    0.1345485 -37.36  0.003309923    4.645    0.785
        72 -14.0156     75.9912     83.3976   3.4581068921e+01   5.1509755335e+01     1.022416    0.7366155 -69.09  0.003865533    1.603    0.376
        73 -13.7873    110.1732     75.4650   2.1065361501e+01   4.5928375672e+01    0.9645591    0.5045339 -52.45  0.003819727    2.045    0.511
        74 -13.0953     53.5167     76.0790   4.1468473991e+01   5.7280583690e+01    0.4846877    0.3407925 -59.71  0.001960845    1.446    0.308
        75 -14.2764     46.8506     69.2670   4.2384237079e+01   5.9975403593e+01    0.7717376    0.7477973 -42.31  0.004414745    1.017    0.017
        76 -13.3475     37.5862     67.2792   4.6346135444e+01   6.1802639761e+01    0.6008165    0.5353143 -58.35  0.002484801    1.116    0.104
        77 -13.7344     36.1214     60.6042   4.4935486725e+01   6.3596271061e+01    0.4921899    0.4635013  61.71  0.002437832    1.163    0.140
        78 -11.5954    242.8656     63.3659   3.5732315529e+02   2.0173185076e+01    0.2215599    0.1187865 -44.77  0.001330826    1.380    0.276
        79 -14.6183    179.6275     53.5218   1.4105205625e+00   3.3636432162e+01     1.115741    0.7338349 -65.22   0.00421187    1.498    0.332
        80 -14.4045     82.2724     53.6054   2.1920490044e+01   5.6485133074e+01    0.7781243    0.4150306  56.32  0.003219973    1.950    0.487
        81 -13.6441    249.7155     43.8232   3.5290938380e+02   2.1497145144e+01    0.6658135    0.1745478 -33.20  0.002865904    3.120    0.679
        82 -13.0388     94.3652    245.6344   5.7390601117e+01   1.1074032871e+01    0.4556375    0.3405584 -72.70  0.002399059    1.734    0.423
        83 -13.5638    223.1210     37.5493   3.5341724892e+02   2.6920387676e+01    0.4929564    0.3503369 -39.81  0.003264391    1.229    0.187
        84 -12.9038    247.0862     31.8101   3.5068591036e+02   2.3345871500e+01      0.25023    0.1337554 -33.26   0.00154477    1.624    0.384
        85 -13.3207    203.8316     28.9625   3.5290374813e+02   3.1719969228e+01    0.4745318    0.2559704 -62.65  0.002601951    1.677    0.404
        86 -12.9955    250.1096     22.4771   3.4868927968e+02   2.3885119405e+01    0.3354107   0.09436405 -39.31  0.001703456    2.248    0.555
        87 -11.4969    105.5054     19.9945   2.1117982028e+00   5.5873566509e+01    0.2019004    0.1371369 -29.07  0.001039341    1.610    0.379
        88 -12.6037     67.4035    244.8664   6.3361246419e+01   1.4239586222e+01    0.7364808    0.2984871  62.44  0.002786507    4.343    0.770
        89 -14.1885     35.9609    245.0567   7.0474715041e+01   1.7471966772e+01    0.8515412    0.4824473  51.24  0.003680656    1.491    0.329
        90 -12.3055     84.5709    238.2072   5.8888854614e+01   1.3547790750e+01    0.4103382     0.222475  46.33  0.002127897    1.755    0.430
