#   1 NUMBER                 Running object number                                     
#   2 MAG_AUTO               Kron-like elliptical aperture magnitude                    [mag]
#   3 X_IMAGE                Object position along x                                    [pixel]
#   4 Y_IMAGE                Object position along y                                    [pixel]
#   5 X_WORLD                Barycenter position along world x axis                     [deg]
#   6 Y_WORLD                Barycenter position along world y axis                     [deg]
#   7 A_WORLD                Profile RMS along major axis (world units)                 [deg]
#   8 B_WORLD                Profile RMS along minor axis (world units)                 [deg]
#   9 THETA_WORLD            Position angle (CCW/world-x)                               [deg]
#  10 FWHM_WORLD             FWHM assuming a gaussian core                              [deg]
#  11 ELONGATION             A_IMAGE/B_IMAGE                                           
#  12 ELLIPTICITY            1 - B_IMAGE/A_IMAGE                                       
         1  -9.3501     26.1915     35.1634   6.9183866924e+01   6.5561355854e+01    0.2760592    0.1820397 -58.20 0.0009419182    1.759    0.431
         2  -8.7244    119.1252     32.4990   3.5466844913e+01   5.0888514899e+01    0.2919864    0.1824204 -34.44  0.001088859    1.683    0.406
         3  -8.5622     55.7836      9.8695   4.6081259822e+01   6.5890393625e+01    0.1974023    0.1543293 -34.97 0.0005259856    1.549    0.354
         4  -7.8496     47.6280      9.8273   4.9360182888e+01   6.7090488442e+01    0.1587144   0.09934086 -35.72 0.0005299952    1.679    0.405
         5  -8.0401     90.7876      8.5990   3.3704954452e+01   5.9758263621e+01     0.171119    0.1200174  61.36 0.0006059278    1.671    0.401
         6  -8.3503     70.4741      6.0758   3.8935617063e+01   6.3888889163e+01    0.1776987    0.1116194 -22.23  0.001013689    1.553    0.356
         7  -8.4894     33.4877      4.8689   5.3191108749e+01   6.9565550930e+01    0.2507776     0.140919 -45.07  0.001383767    2.433    0.589
         8  -8.4942     79.3244      3.7084   3.4981299331e+01   6.2496894474e+01    0.2169829    0.1351259 -29.21  0.001213456    1.724    0.420
         9  -7.6589     44.6924      3.2815   4.7432882933e+01   6.8305282935e+01   0.09776103   0.09184106 -17.09 0.0002779936    1.561    0.359
        10  -8.1352     62.6967      1.5020   3.9507751272e+01   6.5711058643e+01    0.1452706    0.1119313  46.80 0.0009215295    1.511    0.338
        11  -8.5171    156.0750    248.0604   7.6602178245e+01   2.8584809568e+00    0.1807712    0.1279296  63.87 0.0005916362    1.669    0.401
        12  -8.6465    248.9866    249.2680   6.0211650125e+01  -1.1614081188e+01    0.2971779    0.1402446 -21.90  0.001672669    2.333    0.571
        13 -10.0085    248.7100    241.8737   5.9070284710e+01  -1.0790222623e+01    0.3306314    0.1981464 -36.05   0.00127969    2.090    0.522
        14  -9.6866    211.3849    247.4314   6.6454454943e+01  -5.8855798772e+00    0.3785726    0.2294351 -53.40  0.001709754    3.035    0.671
        15  -8.9558    232.5049    246.6218   6.2612968148e+01  -8.9765747562e+00    0.2633642    0.1467767 -23.85 0.0007357752    1.985    0.496
        16  -9.1983    224.6648    245.6662   6.3833403821e+01  -7.7021873391e+00    0.2459261    0.1677283  -4.97  0.001587015    1.535    0.349
        17  -9.5457    223.6686    242.3491   6.3490813690e+01  -7.1633129049e+00    0.2215111    0.2137708 -43.76   0.00121947    1.621    0.383
        18  -9.2796    147.1188    245.9863   7.7992250631e+01   4.6073632283e+00    0.3010818    0.1882435  70.98   0.00145719    2.413    0.586
        19  -9.0918    120.4081    245.4547   8.2844328204e+01   8.9207986330e+00    0.3299974    0.1937516  73.71  0.001748485    2.367    0.577
        20  -8.7934    139.7376    244.1542   7.9133922915e+01   6.0728976946e+00    0.2174371      0.14862 -61.79 0.0008835749    1.867    0.465
        21  -8.5462     67.5306    245.0432   9.2222772215e+01   1.6599197932e+01    0.1515767    0.0984851 -78.95  0.001027833    1.580    0.367
        22  -8.6676    201.8915    242.9291   6.7486271966e+01  -3.8391925596e+00    0.2154849    0.1735341 -54.92  0.001069702    1.879    0.468
        23  -9.3104     78.2405    243.1059   9.0202142231e+01   1.5496114169e+01    0.3541208    0.1401324  63.87  0.001551537    3.263    0.694
        24  -8.5782      9.7562    243.5475   1.0154489783e+02   2.3501290326e+01    0.2123223   0.05944361  88.18 0.0008901964    4.606    0.783
        25  -8.7032    169.0284    243.1705   7.3565675850e+01   1.4545991356e+00    0.2187263    0.1434752  52.42 0.0006930505    1.516    0.340
        26  -7.4867     34.3165    243.6950   9.7682176144e+01   2.0880709197e+01    0.1125512   0.05579364  65.17 0.0005647183    1.625    0.385
        27  -9.0675    194.4552    240.3830   6.8463765071e+01  -2.3135328283e+00    0.3094156     0.225103 -56.64  0.001596269    2.112    0.527
        28  -9.1888    183.0694    239.8729   7.0492894828e+01  -3.8614101694e-01    0.4048855    0.2461567  63.92   0.00193961    2.917    0.657
        29  -9.5774    159.9454    240.0740   7.4841626051e+01   3.3983335574e+00    0.3023557    0.2252008  88.98  0.001505886    2.082    0.520
        30  -8.2474    153.5883    241.7679   7.6255882432e+01   4.1895475100e+00     0.143624    0.1174419 -76.86  0.000938343    1.623    0.384
        31  -8.5437    146.9856    240.2614   7.7298700074e+01   5.4987454515e+00    0.3524564    0.2083892  77.85  0.001523691    3.723    0.731
        32  -8.1047     88.0391    241.9957   8.8364029185e+01   1.4318362347e+01    0.1812977    0.1094198  68.77 0.0005754794    1.614    0.380
        33  -8.0538    214.3944    241.2287   6.4968560291e+01  -5.5979364612e+00    0.1402921     0.113455 -39.53 0.0006062012    1.654    0.395
        34  -8.5549    241.3051    238.4419   5.9777861811e+01  -9.3454958149e+00    0.4506524     0.206365  -9.08  0.001816227    4.196    0.762
        35  -9.2096    135.4728    238.7930   7.9278780598e+01   7.6012546469e+00    0.2287846    0.1561767  60.82 0.0008436295    1.477    0.323
        36  -8.2479    129.4408    238.9294   8.0428280777e+01   8.5491502872e+00    0.1567218   0.09879617  85.69 0.0008068013    2.474    0.596
        37  -8.9639    231.1507    236.7832   6.1278770123e+01  -7.6412293128e+00    0.2418384    0.2136096 -89.28   0.00157625    2.259    0.557
        38  -7.5967     86.4704    250.4698   8.9393435176e+01   1.3117887757e+01    0.1162908   0.08428523  60.65 0.0002212127    1.066    0.062
        39  -7.8411    189.6607    237.2791   6.8886013848e+01  -1.1121483415e+00    0.1175584   0.08782242  56.35 0.0001924563    1.621    0.383
        40  -7.8220     13.3532    237.6952   1.0071340060e+02   2.4159025740e+01    0.1122078   0.05085862  64.31  0.000395842    1.710    0.415
        41  -8.9225    217.3193    235.6918   6.3568964384e+01  -5.3693690789e+00    0.1982834    0.1473744  39.11 0.0005803391    1.307    0.235
        42  -9.5183    213.6902    231.6469   6.3576182721e+01  -4.2765113750e+00    0.3191499    0.2560724  72.31  0.001462939    2.244    0.554
        43  -9.0259    203.2047    234.5571   6.5962490015e+01  -2.9617154641e+00    0.2853067    0.2072759 -61.06  0.001163947    2.400    0.583
        44  -9.7585    175.6179    233.0462   7.0894511456e+01   1.8253362489e+00    0.4340558    0.2535865 -58.46  0.002221525    2.671    0.626
        45  -8.5886    170.2751    235.5731   7.2272181809e+01   2.3493578864e+00    0.1924403    0.1509231 -63.79  0.001031596    1.766    0.434
        46  -9.6454    246.7791    228.3492   5.7142783454e+01  -8.9882590759e+00    0.4716332    0.2063894 -29.39  0.001957675    2.385    0.581
        47  -9.1395    108.9146    234.0947   8.3733924112e+01   1.2583973428e+01    0.3701719    0.1876088  60.46  0.001195874    2.115    0.527
        48  -8.9618     78.6815    234.5373   8.9373604568e+01   1.6933584186e+01    0.1980326    0.1171191  79.07  0.001074553    1.802    0.445
        49  -8.1562    123.0293    234.0232   8.1057074951e+01   1.0382889213e+01    0.1989278    0.1274979  67.26 0.0008503508    1.750    0.429
        50  -8.0458     99.7940    234.0209   8.5434986969e+01   1.3981279470e+01     0.199319    0.1165396  74.22  0.001073246    2.050    0.512
        51  -9.4257     68.7003    232.3544   9.0988166507e+01   1.8679565301e+01    0.4415699    0.1888931  69.65   0.00197722    3.159    0.683
        52  -8.4182    194.3208    232.6103   6.7306902236e+01  -1.2391265063e+00     0.195509     0.172162  46.84 0.0006299146    1.302    0.232
        53  -8.3515    144.8158    233.1792   7.6793057273e+01   6.9700453872e+00    0.3136929    0.1680211  66.05   0.00133279    3.231    0.691
        54  -8.3075    140.1693    230.0548   7.7276216530e+01   8.2498301199e+00     0.244175    0.1342353  58.33 0.0009145344    2.038    0.509
        55  -9.1402    131.1042    232.2411   7.9300217885e+01   9.3792434809e+00    0.2648616    0.1725798  44.40  0.000964677    1.257    0.204
        56  -7.8315     38.0134    233.4895   9.6442547069e+01   2.2266802049e+01      0.16079   0.05543082  56.40 0.0008087264    2.439    0.590
        57  -9.1959    235.7628    230.9980   5.9511010506e+01  -7.6513463861e+00    0.3309563    0.2255988  11.26  0.001324166    1.312    0.238
        58  -9.5231    186.3601    230.4513   6.8469911122e+01   3.9450614987e-01    0.3139361    0.2458908 -83.60  0.001509269    2.224    0.550
        59  -8.4830    157.9674    231.9402   7.4103864704e+01   4.9662021564e+00    0.1915858    0.1391411  65.05 0.0007086666    1.654    0.395
        60  -8.3590     92.6436    231.6050   8.6522330887e+01   1.5466448605e+01     0.256197    0.1369018  68.13 0.0009900841    2.136    0.532
        61  -9.9569    149.7874    226.1560   7.4879592408e+01   7.2740639436e+00    0.5826721     0.352388 -85.07  0.002431066    3.864    0.741
        62  -8.3975      1.6353    230.3255   1.0221698582e+02   2.6592642862e+01    0.1683341   0.07578819  67.28  0.001090286    1.716    0.417
        63  -8.0629    229.6058    228.7184   6.0219548661e+01  -6.4258478933e+00    0.1438478    0.1117581 -34.51 0.0006508304    1.596    0.373
        64  -8.7287    161.9337    227.6718   7.2733038240e+01   4.9617240993e+00    0.3299174    0.1900865  57.04  0.001648377    2.032    0.508
        65  -8.7342    127.8010    226.7902   7.9254189655e+01   1.0841454802e+01    0.2683785    0.1811338  68.81  0.001256863    1.690    0.408
        66  -7.9466    120.0298    227.4945   8.0850299521e+01   1.1979821574e+01    0.1759069   0.08520839  58.09 0.0003841955    2.287    0.563
        67  -8.2473     49.4325    226.5608   9.3976014023e+01   2.2191648174e+01    0.2381469    0.1121529  72.16  0.001268512    2.214    0.548
        68  -7.9795    223.5586    226.2653   6.0893766294e+01  -5.1630013518e+00    0.1676546    0.1077429 -15.42 0.0009628525    1.700    0.412
        69  -9.2006    225.4436    221.4520   5.9733390372e+01  -4.8418081647e+00      0.23392    0.2077819 -25.42  0.001055036    1.390    0.280
        70  -8.6301    205.9720    225.7264   6.4034582128e+01  -2.2258220189e+00    0.2137577    0.1829537 -40.86 0.0008820203    1.502    0.334
        71  -8.1036    200.0530    226.0075   6.5187486982e+01  -1.2770079416e+00      0.17295      0.15087  69.15 0.0006659095    1.640    0.390
        72  -8.9764    216.3625    223.2646   6.1701029919e+01  -3.6067267394e+00    0.2343935    0.2126026 -50.46 0.0008650555    1.593    0.372
        73  -8.7137    180.5244    224.0946   6.8600123881e+01   2.3229282862e+00    0.2645977    0.1615387  47.38  0.000974351    1.529    0.346
        74  -8.5609    113.6191    223.7798   8.1648884820e+01   1.3660106283e+01    0.1562614    0.1129645 -82.53 0.0003939215    1.597    0.374
        75  -8.8370    104.7777    223.5656   8.3345974276e+01   1.5085431605e+01    0.2853964    0.1831833  79.34  0.001515726    1.850    0.459
        76  -8.5767     93.6173    223.7730   8.5525227082e+01   1.6740321452e+01    0.2353253     0.149263  73.36 0.0009183485    1.666    0.400
        77  -7.6738     38.3005    224.6107   9.5801319802e+01   2.3863378410e+01    0.1221063   0.06109342  69.02 0.0007013622    1.794    0.443
        78  -8.3686    173.1103    222.7280   6.9824140984e+01   3.8124880396e+00    0.1938489    0.1747344 -67.06 0.0007228756    1.429    0.300
        79  -8.7312    163.2116    222.7182   7.1755853305e+01   5.5283477785e+00    0.3460477    0.1700172  57.03  0.001455526    2.788    0.641
        80  -8.5240    159.0470    220.3358   7.2219716004e+01   6.6368558773e+00    0.2413035    0.1851848  63.98 0.0007762261    1.493    0.330
        81  -9.1104    239.0853    221.6219   5.7322983476e+01  -7.0154318697e+00    0.2015004    0.1893183 -44.09 0.0007188598    1.656    0.396
        82  -9.4191    192.3584    221.1216   6.5852294094e+01   7.2989827892e-01    0.2877391    0.2464391 -71.05  0.001029417    1.732    0.423
        83  -8.6082     83.0679    220.5746   8.7218144029e+01   1.8873622588e+01     0.277426    0.1512279  66.91  0.001465232    1.938    0.484
        84  -8.0465     73.2085    220.7822   8.9118318025e+01   2.0212467150e+01    0.2078928   0.09650756  69.64 0.0009424662    2.758    0.637
        85  -7.8028     27.3943    220.8559   9.7455175766e+01   2.5769653597e+01    0.1453687   0.08251834 -68.16 0.0009434173    1.782    0.439
        86  -8.4173      8.0491    222.0000   1.0079223257e+02   2.7502368502e+01    0.1513037   0.05115805  35.65 0.0008077819    2.980    0.664
        87  -8.2845    202.6208    219.8162   6.3684280439e+01  -8.3561860283e-01    0.1529291    0.1216756 -44.94 0.0003750769    1.604    0.376
        88  -9.1437    120.2830    218.9305   7.9733835059e+01   1.3458509267e+01    0.3972337    0.2103504  66.35  0.001755373    2.693    0.629
        89  -8.3170    210.0811    219.0272   6.2148147789e+01  -1.9856117195e+00     0.172521    0.1538828  67.26 0.0004732176    1.626    0.385
        90  -9.1446    249.4530    218.1654   5.4905401502e+01  -8.1714981341e+00    0.2815103    0.1980303  61.69   0.00145113    3.083    0.676
        91  -9.6950    246.3160    215.0348   5.4890344108e+01  -7.3086212861e+00    0.7283636    0.3416866   1.75  0.002279341    6.079    0.836
        92  -9.3759    132.9765    215.9203   7.6790287447e+01   1.1884951337e+01     0.499983    0.2896502  75.65  0.002105025    3.176    0.685
        93  -8.8617     51.6335    217.1384   9.2838519704e+01   2.3704510219e+01    0.2385747    0.1214589 -89.53 0.0009914738    2.037    0.509
        94  -7.8751    179.2796    217.6089   6.7814529832e+01   3.5346897877e+00    0.1235309    0.1002914  76.11 0.0006999083    1.742    0.426
        95  -8.6580    169.3127    215.9505   6.9513711124e+01   5.5536004525e+00    0.2822054    0.2103101 -83.32  0.001090459    2.172    0.540
        96  -8.7630    143.0067    216.3420   7.4831471988e+01   1.0093885493e+01    0.2859966    0.2011224  89.63  0.001502587    2.084    0.520
        97  -8.0859     61.9972    217.0532   9.0894450583e+01   2.2416019569e+01    0.1996414    0.1095569  69.18 0.0008716114    1.778    0.437
        98  -8.8612    232.2776    214.5054   5.7282067050e+01  -5.0315948989e+00    0.2166029    0.2112932  -1.91 0.0009630206    1.451    0.311
        99  -8.4581    154.6589    215.0797   7.2303870202e+01   8.2814099567e+00    0.1930984    0.1588956  85.73  0.001142885    1.543    0.352
       100  -8.3351    185.7741    214.2051   6.5987636915e+01   2.9218141759e+00    0.1896357    0.1654831  50.33 0.0007707913    1.256    0.204
       101  -8.9428     93.0436    213.7182   8.4530553034e+01   1.8715131741e+01    0.3263856    0.1645786  61.81  0.001441737    2.173    0.540
       102  -8.1219     77.6441    214.3274   8.7631416959e+01   2.0833567302e+01    0.1948289   0.07543925  56.11 0.0008361545    2.669    0.625
       103  -9.1047     72.4241    211.1801   8.8333427038e+01   2.2169855260e+01    0.5651235    0.2047125  62.51  0.001942373    4.643    0.785
       104  -8.2032    224.8523    212.5315   5.8279002674e+01  -3.5547814926e+00    0.1883255    0.1460807 -30.16 0.0005438371    1.430    0.301
       105  -9.3886    213.9992    211.8769   6.0174814296e+01  -1.6410460894e+00    0.3926832    0.2792554  56.99  0.001505412    1.949    0.487
       106  -8.7571    161.8114    212.2111   7.0422892804e+01   7.5026153911e+00    0.2459674    0.1886533 -74.98 0.0009041637    1.822    0.451
       107  -9.0369    204.3839    210.7845   6.1803070732e+01   1.7357536315e-01    0.2394489    0.2160319 -61.71 0.0006897642    1.560    0.359
       108  -9.3590    175.5159    209.7563   6.7276600347e+01   5.4584376341e+00    0.3887717     0.263695  70.30  0.001686408    2.403    0.584
       109  -8.7522    148.1350    210.4307   7.2919118943e+01   1.0235615767e+01    0.2987903    0.2128689  80.14  0.001276774    2.004    0.501
       110  -8.9610    116.5344    210.2464   7.9358932792e+01   1.5677492499e+01    0.3542273    0.2046007  65.73   0.00107823    2.110    0.526
       111  -8.7163      5.6998    207.7261   1.0044398175e+02   3.0408613308e+01    0.2690403   0.09258532  78.31  0.001245847    3.205    0.688
       112  -9.2275    236.6634    208.1677   5.5350640024e+01  -4.9000955374e+00    0.2931788     0.242443 -71.77  0.001314352    2.390    0.582
       113  -8.2452    192.3106    210.0668   6.4011019513e+01   2.4060261511e+00    0.1719176    0.1618354  -1.46 0.0005014574    1.170    0.146
       114  -8.3209     46.6457    209.2535   9.3124594750e+01   2.5842918879e+01    0.2282421    0.1182936  84.44  0.001246882    1.972    0.493
       115  -8.0244     32.2904    209.5201   9.5817937939e+01   2.7419419863e+01    0.2878925   0.08885062 -80.52  0.001214591    3.554    0.719
       116  -8.4409     85.3573    208.8867   8.5523301587e+01   2.0791974415e+01     0.254136     0.148305  81.07 0.0008310262    2.067    0.516
       117  -9.3163    246.4042    206.8357   5.3382968744e+01  -6.2790404028e+00    0.2893949     0.181685 -26.95  0.000721512    1.570    0.363
       118  -7.8660    156.5917    207.8617   7.0793966337e+01   9.1816477494e+00    0.1669312    0.1290192 -68.46 0.0006076508    1.658    0.397
       119  -8.3740    139.0604    207.5676   7.4349402809e+01   1.2345156658e+01    0.2401897    0.1798564 -82.98 0.0009899341    1.722    0.419
       120  -7.8909    126.4263    208.2134   7.7049453920e+01   1.4405786504e+01    0.1698418     0.122844 -79.01 0.0005729242    1.682    0.406
       121  -8.8081     56.9281    206.2002   9.0883888358e+01   2.5193874057e+01    0.3251473    0.1729749  82.04  0.001718529    2.046    0.511
       122  -9.2212     99.3599    205.6922   8.2297846659e+01   1.9308220043e+01    0.3673016    0.2175482  85.80  0.001223285    2.288    0.563
       123  -8.4748     12.1870    206.6122   9.9247233009e+01   3.0024775727e+01    0.1231236   0.09895945  36.23 0.0005981074    1.622    0.384
       124  -9.2545    194.7956    203.5345   6.2381515871e+01   2.9816772325e+00    0.3209065    0.2693063  71.10  0.001239568    1.663    0.399
       125  -9.4370    192.4559    197.2113   6.1704114553e+01   4.4230212639e+00    0.3560837    0.2795074 -68.37   0.00129142    1.920    0.479
       126  -9.0405    183.8372    203.7566   6.4592937738e+01   4.9341538898e+00    0.3156461    0.2287675  68.22  0.001335966    2.035    0.509
       127  -8.1249    109.0135    205.0186   8.0216519588e+01   1.7907241858e+01    0.2102391     0.138856  70.02 0.0006984882    1.673    0.402
       128  -9.6615    163.9767    202.9175   6.8476867457e+01   8.7069025229e+00    0.4533705    0.2627653  57.70  0.001416672    2.111    0.526
       129  -8.5178    131.1678    203.6451   7.5405623807e+01   1.4449543516e+01    0.2701685    0.1920684  79.32  0.001250909    1.791    0.442
       130  -9.4459    250.2064    201.6714   5.1759826499e+01  -6.2046898371e+00    0.3525443    0.1636567 -31.21  0.001477453    2.119    0.528
       131  -9.0574    243.1604    200.5856   5.2787403142e+01  -4.9359687707e+00    0.3155503    0.1702029 -32.82  0.001045763    1.873    0.466
       132  -8.4271    210.9901    201.7806   5.8926528268e+01   3.5697746942e-01    0.2056061    0.1763421 -55.59 0.0008132299    1.616    0.381
       133  -8.7910    140.5976    200.9933   7.3026255376e+01   1.3287531558e+01    0.3736359    0.2285099  69.65  0.001325917    2.440    0.590
       134  -8.0449    221.8484    201.0246   5.6738554695e+01  -1.4283227463e+00     0.185415    0.1519577 -61.75 0.0006412111    1.938    0.484
       135  -8.4633     79.7193    200.8062   8.5759815030e+01   2.3221950415e+01     0.251715    0.1351327  85.10  0.001161661    2.499    0.600
       136  -9.3449    149.5024    198.3910   7.0738222352e+01   1.2164748193e+01    0.3785388    0.2626853  86.78  0.001247593    2.284    0.562
       137  -8.8819    123.9761    199.1232   7.6252333950e+01   1.6558693021e+01    0.2869195    0.1920148  83.35  0.001103211    2.044    0.511
       138  -9.2202    112.9802    198.3231   7.8471848684e+01   1.8574504862e+01    0.4416779    0.2392297  68.44  0.001853049    2.728    0.633
       139  -9.4002    237.0576    198.1648   5.3416687699e+01  -3.6028413512e+00    0.2791668    0.1754948 -38.80  0.001051178    1.796    0.443
       140  -8.5719    177.0547    198.7386   6.5083250002e+01   7.0188108606e+00    0.2078552    0.1910764 -73.65  0.000479708    1.358    0.264
       141  -8.8951     88.6024    198.2310   8.3610839930e+01   2.2446930112e+01    0.3393102    0.1911164  78.31  0.001176146    2.367    0.578
       142  -8.3730    202.6387    197.6862   5.9783575054e+01   2.4825833723e+00    0.2364782    0.1648643 -61.86   0.00115527    2.364    0.577
       143  -9.0290     61.4656    196.9523   8.9083144639e+01   2.6495524680e+01    0.4135837    0.1888227  69.02  0.001806654    2.853    0.649
       144  -7.7283     29.2855    197.6366   9.5502930414e+01   3.0109408409e+01    0.1225976   0.06594996  71.34 0.0003963199    1.689    0.408
       145  -8.2995     12.6260    197.0516   9.8583970766e+01   3.1867641337e+01    0.2363471    0.1048661  80.24  0.001288529    2.121    0.529
       146  -7.9704    133.4199    195.9045   7.3751766544e+01   1.5532705389e+01    0.1781465    0.1162274 -86.59 0.0008026737    2.375    0.579
       147  -8.0046     53.4763    195.9965   9.0608460375e+01   2.7699067157e+01    0.1724679   0.08504887  80.87 0.0006481901    2.439    0.590
       148  -7.7717     35.9914    196.4740   9.4118510062e+01   2.9629261389e+01    0.1689959   0.06570735  56.41 0.0006841925    2.451    0.592
       149  -8.8055    224.7519    193.8856   5.4849806031e+01  -8.8832097903e-01    0.2677821    0.1666149 -39.97 0.0008155932    1.798    0.444
       150  -7.8630    209.4006    195.2645   5.8019766692e+01   1.6355167023e+00     0.172461    0.1268679 -45.19 0.0005117675    1.642    0.391
       151  -8.8268    185.1900    194.5567   6.2679060777e+01   6.2132819701e+00    0.2430626    0.2156125 -67.96 0.0006699024    1.461    0.315
       152  -8.0951    230.8623    194.1464   5.3773014229e+01  -1.9859150839e+00    0.1830654    0.1759061  15.59 0.0008471523    1.316    0.240
       153  -8.8543    160.8168    193.9351   6.7606192014e+01   1.0892879300e+01    0.2794077    0.2013469  67.04 0.0008218285    1.767    0.434
       154  -8.7377     76.8777    193.7592   8.5539216967e+01   2.5075270978e+01    0.2300864    0.1650106 -85.44 0.0005839309    1.350    0.259
       155  -8.9460     43.7242    193.2183   9.2311234093e+01   2.9433604433e+01    0.3698951    0.1682863  68.38  0.001736055    2.482    0.597
       156  -8.0075    205.5254    191.7081   5.8097983752e+01   2.9012580187e+00    0.1678327    0.1314603 -46.94 0.0009289532    1.553    0.356
       157  -8.3209    198.9139    191.6877   5.9394248815e+01   4.1277848679e+00    0.2141387    0.1776283 -53.67  0.000590758    1.537    0.349
       158  -8.2408    179.2852    191.4315   6.3312843818e+01   7.8601392467e+00    0.2132199    0.1710791 -70.69  0.000529549    1.727    0.421
       159  -8.3166    172.4723    191.4472   6.4725773887e+01   9.1471135419e+00    0.2222026    0.1350237 -57.37  0.000769513    2.200    0.546
       160  -9.0860    139.6588    190.3847   7.1520525381e+01   1.5480249279e+01    0.3653347     0.247257  75.38  0.001126452    2.083    0.520
       161  -9.5162    245.6949    193.4826   5.0987259268e+01  -4.3827240629e+00    0.3417933    0.2710344 -66.22  0.001527474    2.446    0.591
       162 -10.3468     92.5901    188.8002   8.1549831123e+01   2.3792802505e+01    0.9366814    0.2526891  48.98  0.003051962    3.877    0.742
       163  -8.3523    148.6171    189.0686   6.9363037546e+01   1.4081346184e+01    0.2083995    0.1713968 -80.90  0.001017294    1.480    0.324
       164  -8.8390    129.2567    188.4869   7.3474303517e+01   1.7733524585e+01    0.2825963    0.2019084  76.86 0.0008158245    1.749    0.428
       165  -8.9548     34.2026    187.9420   9.3758528231e+01   3.1588404558e+01     0.290617    0.1399258  77.93  0.001471705    2.234    0.552
       166  -9.3105    249.4509    185.7608   4.8825345274e+01  -3.9313874945e+00    0.2855692    0.2136546 -46.75  0.001379402    1.809    0.447
       167  -8.8203    216.0117    195.4004   5.6780629071e+01   4.2847771286e-01     0.282201    0.2121458 -59.55  0.001232559    2.089    0.521
       168  -8.7617    216.4675    187.6356   5.5200328718e+01   1.5387600898e+00    0.2403925    0.2231986 -46.16 0.0009648917    1.372    0.271
       169  -8.7385    191.5179    187.0320   5.9990080395e+01   6.2945352239e+00    0.3224517    0.2183519 -65.68  0.001066619    2.491    0.599
       170  -9.2532    155.8784    187.2732   6.7486547182e+01   1.3058895487e+01     0.316061    0.2473546 -71.55 0.0009568004    1.614    0.380
       171  -9.5634    120.6548    186.0055   7.4970766590e+01   1.9754446503e+01    0.4739843     0.268803 -74.13  0.002007621    2.539    0.606
       172  -9.1021     54.9589    186.8757   8.9390599774e+01   2.9428793177e+01    0.4274757    0.2008027  67.23  0.001454349    2.559    0.609
       173  -8.3397    230.7939    187.1768   5.2431082619e+01  -9.5438233750e-01    0.1846487    0.1796261  -9.37 0.0007344415    1.320    0.242
       174  -8.6024    164.9499    186.5497   6.5417863926e+01   1.1467357232e+01      0.24769    0.1987909 -74.05 0.0007314456    1.633    0.388
       175  -9.1018    109.6384    185.9378   7.7397975353e+01   2.1651343404e+01    0.3726649    0.2196699  69.57  0.001098051    2.263    0.558
       176  -8.8731    202.9919    184.5547   5.7214330265e+01   4.5334239267e+00    0.2545238    0.2173384 -82.19  0.001286383    1.757    0.431
       177  -8.7795    183.1231    184.6562   6.1252850996e+01   8.3137930355e+00    0.2621011    0.2173811 -80.29   0.00073476    1.707    0.414
       178  -9.0671     66.9709    184.4765   8.6568013932e+01   2.8399548559e+01    0.4057132    0.1892956  60.17  0.001196252    2.412    0.585
       179  -8.5819    224.1274    183.1991   5.2877949470e+01   8.3463163012e-01    0.2571262    0.1686628 -27.84  0.000700496    1.529    0.346
       180  -8.8210    210.0903    183.8999   5.5694092072e+01   3.3070280933e+00    0.2255549    0.1897711 -29.88 0.0005525145    1.255    0.203
       181  -8.9352    174.3216    183.6272   6.2892631925e+01   1.0198737648e+01    0.2761912    0.2228054  79.38 0.0007738306    1.695    0.410
       182  -8.3183    237.3177    188.1192   5.1431710189e+01  -2.2235025415e+00    0.1829771    0.1483028 -18.33 0.0005553511    1.186    0.157
       183  -8.0122    197.1514    183.1764   5.8108066570e+01   5.8735330993e+00    0.1798198    0.1688411 -82.77 0.0004635971    1.382    0.276
       184  -9.0196     44.5749    182.2541   9.1103772338e+01   3.1648527910e+01    0.3536957    0.1677166  68.07  0.001069809    2.414    0.586
       185  -8.0582      1.8010    183.5824   9.9760289616e+01   3.5530487751e+01    0.1484401   0.07825395  51.23 0.0009508433    1.727    0.421
       186  -9.3800    147.4781    180.4903   6.8101069417e+01   1.5964012789e+01    0.3673139    0.2673346 -84.11  0.001165227    1.951    0.488
       187  -9.3660     25.5618    178.5539   9.4715550832e+01   3.4453514755e+01    0.6108333    0.2250147  80.20  0.002211559    4.546    0.780
       188  -8.6360    137.8992    179.0815   6.9975864528e+01   1.8050598097e+01    0.3213089    0.2208709  75.35  0.001267913    2.009    0.502
       189  -8.8734    250.4634    172.3113   4.5944670821e+01  -2.1836216431e+00    0.2748929    0.1786267 -28.60  0.000581346    1.433    0.302
       190  -9.3338    249.1371    177.3860   4.7206019165e+01  -2.6918957327e+00    0.3078716    0.2094755 -32.94  0.001151312    1.453    0.312
       191  -8.9255    247.3252    174.2943   4.6891265206e+01  -1.9339776325e+00    0.2689835    0.1945263  -8.36  0.001308742    1.321    0.243
       192  -8.6738    205.0826    177.8829   5.5475112465e+01   5.2441652867e+00    0.2957979    0.1913791 -33.62 0.0008987924    1.603    0.376
       193  -9.3959    191.5531    178.1928   5.8258671491e+01   7.8128475208e+00    0.3252741    0.2590269  72.81 0.0008194106    1.766    0.434
       194  -9.1790     35.8723    176.5950   9.2391879314e+01   3.3823101573e+01     0.500329    0.1970181  82.90  0.001811774    4.315    0.768
       195  -8.0967    169.4098    178.2567   6.2911629581e+01   1.2147641842e+01    0.1853044    0.1388173 -57.78 0.0004762752    1.600    0.375
       196  -8.6943    129.2981    177.0976   7.1563078339e+01   2.0046563102e+01    0.3440337    0.2222569 -87.48 0.0009527028    2.457    0.593
       197  -8.5362    231.1631    176.6854   5.0261946924e+01   5.6285815319e-01    0.2273856    0.1696458 -37.41 0.0006618198    1.439    0.305
       198  -8.4780    217.4454    177.0573   5.2904627988e+01   3.0323921229e+00    0.1976253    0.1935862  45.84 0.0006499916    1.279    0.218
       199  -9.1704    183.1195    175.8171   5.9529965465e+01   9.8938289452e+00    0.3069926    0.2329352 -56.22 0.0007285263    1.615    0.381
       200  -7.9067     97.3755    177.2746   7.8853307833e+01   2.5498115100e+01     0.127927    0.1081795  -5.10 0.0003469195    1.693    0.409
       201  -8.9872     89.0666    176.6273   8.0648416396e+01   2.6937992402e+01    0.2749676    0.1826321  80.82 0.0009593897    1.735    0.424
       202  -9.4166     58.3227    174.9884   8.7352513887e+01   3.1579218021e+01     0.436637    0.2128694  74.40  0.001849026    2.894    0.654
       203  -9.4659     55.9982    170.9982   8.7401912700e+01   3.2747638726e+01    0.7067183    0.3068991  73.06   0.00242145    4.505    0.778
       204  -7.6614    211.6619    176.2922   5.3863153925e+01   4.2499623558e+00    0.1299271    0.1134686  79.98 0.0006367895    1.645    0.392
       205  -9.2370    158.6930    174.7437   6.4562786767e+01   1.4924945204e+01    0.3971518    0.2819991 -83.26  0.001153237    2.241    0.554
       206  -9.3015    104.2486    174.4782   7.6851206375e+01   2.4983465958e+01    0.5297974    0.2600059  62.80   0.00194245    3.053    0.672
       207 -10.6386     75.9447    169.9613   8.2718340107e+01   3.0340343887e+01     1.247023    0.4488707 -73.49  0.004019844    4.416    0.774
       208  -9.7471     81.7729    154.7281   7.9053138511e+01   3.2937453934e+01     0.512791    0.4047551 -76.00  0.001868194    1.207    0.171
       209  -8.3628     13.0164    176.4694   9.7096026483e+01   3.6056979736e+01    0.2205203   0.09927991  53.25  0.001105847    2.065    0.516
       210  -7.6981    241.3742    174.1400   4.7902417604e+01  -8.7462768064e-01    0.1844139    0.1162067 -40.68 0.0009415215    1.730    0.422
       211  -8.4606    224.4787    174.0536   5.0960297285e+01   2.1985202378e+00    0.2013822    0.1296118 -33.95 0.0004966882    1.556    0.357
       212  -9.5677    175.6566    171.9880   6.0342326161e+01   1.2084528223e+01    0.3666695    0.2998095 -62.64 0.0009022613    1.498    0.333
       213  -8.2099    143.0262    172.0722   6.7551052733e+01   1.8505926918e+01    0.2285574    0.1731265  80.09 0.0008060808    1.706    0.414
       214  -8.2899    134.6770    171.5388   6.9351325527e+01   2.0203789175e+01    0.2298959    0.1739879 -84.66  0.000691985    1.667    0.400
       215  -9.0192     45.1124    170.9150   8.9818346782e+01   3.4050228364e+01    0.3405479    0.1749089  82.73  0.001329229    2.274    0.560
       216  -8.4448    205.9436    170.2207   5.3735604442e+01   6.3726183137e+00    0.2378453    0.1969372 -64.03 0.0006089985    1.648    0.393
       217  -9.4779    121.3218    170.1120   7.2173607764e+01   2.2966670522e+01    0.3578356    0.2531707 -77.95 0.0008835403    1.719    0.418
       218  -8.3431    237.2179    169.4656   4.7677202230e+01   5.7548263779e-01     0.205439    0.1778538 -36.76 0.0007570882    1.315    0.239
       219  -9.0626    230.3687    168.8836   4.8796911088e+01   1.9215007289e+00    0.4048232    0.2210703 -43.81  0.001857891    2.067    0.516
       220  -8.5284    198.5137    170.0630   5.5190083059e+01   7.8658591063e+00    0.2212077     0.201279  67.12 0.0009349869    1.345    0.256
       221  -8.6074    149.9175    169.4442   6.5495869778e+01   1.7701869651e+01    0.2615517    0.2060286 -76.40 0.0008977682    1.586    0.370
       222  -8.6497    244.4776    169.1246   4.6322596668e+01  -6.7178633956e-01    0.1914905    0.1852601 -18.41  0.000451825    1.299    0.230
       223  -9.2168    167.2173    168.4101   6.1447668013e+01   1.4461538637e+01    0.3389432    0.2648614  73.91    0.0012097    1.670    0.401
       224  -8.2446     88.9287    168.9236   7.9548017821e+01   2.8653860931e+01    0.2212696    0.1477556  70.69 0.0007065173    1.673    0.402
       225  -8.6148    218.8831    168.1705   5.0793457640e+01   4.2041412377e+00    0.1962918    0.1947842 -38.20 0.0005246513    1.256    0.204
       226  -8.0733    211.2097    168.1557   5.2269103214e+01   5.6923995373e+00    0.1831521     0.170659 -66.73 0.0008174964    1.380    0.276
       227  -8.6829    111.5252    167.1806   7.3955206622e+01   2.5334951421e+01    0.3145011    0.2131904  89.74 0.0009083732    1.948    0.487
       228  -8.8261    191.9011    166.5501   5.5809647416e+01   9.8147730668e+00    0.2597375    0.2079146 -46.29 0.0005793652    1.382    0.277
       229  -8.5010    184.9797    166.4663   5.7234968482e+01   1.1231901972e+01     0.258832    0.2052394 -59.94 0.0007218232    1.568    0.362
       230  -7.9999     13.2994    167.6212   9.6355870046e+01   3.7912401997e+01    0.1242449   0.06663842  72.25 0.0007024431    1.762    0.433
       231  -9.5739    137.4931    164.5872   6.7400803446e+01   2.1122890642e+01    0.7024329    0.2916405  55.99   0.00222814    3.607    0.723
       232  -9.9464     94.8435    162.4077   7.7121371233e+01   2.9180328304e+01     0.822089    0.4426502  78.91  0.002847335    3.828    0.739
       233  -9.0157     20.5514    166.0717   9.4691840224e+01   3.7609183652e+01    0.2955181    0.1258867  55.47  0.001501864    2.374    0.579
       234  -8.3950    234.1153    164.9169   4.7281477091e+01   1.8507458127e+00    0.1954705    0.1822672 -41.49 0.0005733547    1.310    0.237
       235  -8.6501    246.0573    163.0712   4.4782722372e+01  -3.9910326679e-02    0.2304238    0.1771753 -24.90 0.0005180187    1.202    0.168
       236  -8.1609    240.3603    164.1299   4.6000352902e+01   8.2593049366e-01    0.1856468     0.117211 -41.05 0.0004772407    1.684    0.406
       237  -8.8632    212.9179    163.5508   5.0962034500e+01   6.1358336463e+00    0.2641706    0.1994977 -42.38 0.0006045579    1.434    0.303
       238  -8.6194    159.4984    163.9028   6.2243533119e+01   1.6907634056e+01    0.2688978    0.2248357  78.29 0.0007373079    1.452    0.311
       239  -8.5255     56.7976    163.6048   8.6315540162e+01   3.4299559016e+01    0.3709173    0.1809205  16.78  0.001371158    4.602    0.783
       240  -8.7881     61.0360    160.3935   8.4904215729e+01   3.4494934202e+01     0.333018    0.2060056  78.13  0.001617811    1.826    0.452
       241  -9.3970     33.6427    163.2367   9.1555698854e+01   3.6975876429e+01    0.4752918    0.1767536  53.49  0.002102178    2.925    0.658
       242  -8.7289    204.9656    162.5250   5.2305898389e+01   7.8957671156e+00     0.257963    0.1966021 -52.40 0.0005842363    1.588    0.370
       243  -9.1988      3.3754    162.1842   9.8007716196e+01   3.9875004043e+01    0.3334737    0.1388743  59.54  0.001756411    2.429    0.588
       244  -7.7502    222.2594    161.6168   4.8763523499e+01   4.6318171826e+00    0.1344064    0.1106853 -62.16 0.0003502482    1.677    0.404
       245  -9.0298    177.3881    160.3959   5.7575707552e+01   1.3929949761e+01    0.3043655    0.2482586 -66.20  0.000848087    1.533    0.348
       246  -8.8757    151.6876    160.7345   6.3366097679e+01   1.9126263215e+01    0.2834575    0.2260521 -75.92 0.0009590986    1.556    0.357
       247  -8.5878    227.5796    158.9360   4.7196636869e+01   4.0434891565e+00    0.2820782    0.2025933 -53.28 0.0009280673    1.822    0.451
       248  -9.2969    243.6324    159.0567   4.4351643132e+01   1.0122202451e+00     0.492062    0.2058657  28.66  0.001693917    3.753    0.734
       249  -9.7446    250.1891    157.5438   4.2907138006e+01   5.9187959036e-02    0.3319517    0.1742518 -33.37 0.0007915335    1.764    0.433
       250  -8.5240    246.5758    155.4851   4.3081020465e+01   1.0261163384e+00     0.211268    0.1667076  23.06 6.644872e-05    1.245    0.197
       251  -8.4893    237.2415    158.9735   4.5456192512e+01   2.2049986785e+00    0.1962488      0.16669 -15.61 0.0004927244    1.078    0.072
       252  -8.2259    128.3968    159.0906   6.8479199372e+01   2.4033637665e+01    0.2688529    0.1798736  76.23 0.0009415919    2.166    0.538
       253  -9.5060    105.7061    157.6040   7.3671830666e+01   2.8458497819e+01    0.4819952    0.3121971  85.43  0.001348972    2.216    0.549
       254  -8.7609    196.6445    157.7844   5.2961899714e+01   1.0433397425e+01    0.2620743    0.2177817 -74.52   0.00083281    1.658    0.397
       255  -8.3126    188.1110    157.5776   5.4686039542e+01   1.2238340468e+01     0.244961    0.1991308 -50.18 0.0007122967    1.374    0.272
       256  -9.1766    167.6602    157.1936   5.9024101059e+01   1.6571180348e+01     0.339313    0.2580724 -84.18  0.001146687    1.934    0.483
       257  -8.6831    217.9320    156.3190   4.8435426556e+01   6.3681385459e+00    0.2983044    0.1907168 -50.08 0.0008757089    1.915    0.478
       258  -8.7849    157.7771    155.9926   6.0991934576e+01   1.8857402259e+01    0.3148882    0.2033533 -54.62 0.0009010024    1.746    0.427
       259  -9.2451    119.5687    154.8954   6.9793663129e+01   2.6599236541e+01    0.3977565    0.2646531 -82.11   0.00144635    2.111    0.526
       260  -9.1834     49.8843    155.1615   8.6871310674e+01   3.7034364283e+01    0.3964162    0.1911049  62.40  0.001676156    2.599    0.615
       261  -8.9145     23.3925    155.5227   9.3081742797e+01   3.9668479143e+01    0.2220798    0.1462005 -35.26  0.001286021    2.244    0.554
       262  -9.4955    241.4047    154.0718   4.3668005483e+01   2.1999656039e+00    0.4517342    0.2779981  57.34   0.00212235    2.211    0.548
       263  -8.2718    204.9039    155.1561   5.0718682875e+01   9.2054276496e+00    0.2093703    0.2002414 -68.15 0.0005354134    1.258    0.205
       264  -8.6089    144.6117    154.6081   6.3745372260e+01   2.1825890989e+01    0.2885695    0.2285815 -76.88  0.000966556    1.545    0.353
       265  -9.6150     68.1419    153.5373   8.2222731048e+01   3.5132710505e+01    0.4368074    0.2478708  77.92  0.001336196    2.440    0.590
       266  -8.1320    228.4944    154.0291   4.5962573745e+01   4.6693712652e+00    0.2151041    0.1318099 -34.47   0.00102728    1.577    0.366
       267  -9.5563    132.8356    152.7566   6.6161201651e+01   2.4554083245e+01    0.4497251    0.3040871  73.83  0.001074471    2.106    0.525
       268  -9.0444    133.8624    147.9147   6.4911593664e+01   2.5404724953e+01    0.3844714    0.2127824 -47.41  0.001623876    1.849    0.459
       269  -7.9042    232.5589    153.5061   4.5110711545e+01   3.9676159097e+00    0.1390517    0.1264593  -8.25 9.326319e-05    1.052    0.049
       270  -9.3649     29.2781    150.2547   9.1173800464e+01   4.0303397574e+01    0.4495825    0.2072499  77.64  0.001958299    2.938    0.660
       271  -8.0697     20.4653    152.5306   9.3451787050e+01   4.0591945572e+01    0.1202126   0.09305472  88.72 0.0008081095    1.061    0.058
       272  -8.9930    189.6193    150.1577   5.2733463706e+01   1.3310435697e+01    0.3099193    0.2398563 -65.86 0.0007786792    1.719    0.418
       273  -8.1399    182.7463    151.0024   5.4378927598e+01   1.4608056959e+01    0.2350698    0.1750567 -73.60 0.0008317837    1.996    0.499
       274  -8.2757    162.7770    150.6777   5.8712028172e+01   1.8898933249e+01    0.2681933    0.1971085 -76.21  0.001017666    1.958    0.489
       275  -8.6009     98.4567    150.6064   7.4201265768e+01   3.1261984620e+01    0.2982773    0.2022311  82.03 0.0007828737    1.929    0.482
       276  -8.6275      2.8419    150.2237   9.7195462676e+01   4.2490562303e+01    0.2287652    0.1019565  88.97 0.0008302139    2.079    0.519
       277  -9.5933    248.9303    149.0607   4.1296205183e+01   1.5874315972e+00     0.330597    0.1797138 -32.45 0.0006611255    1.693    0.409
       278  -9.2971    247.0816    143.6484   4.0423026532e+01   2.7759499006e+00    0.2702637    0.1864627 -29.21 0.0005559723    1.326    0.246
       279  -9.2280    242.9328    149.1475   4.2332853876e+01   2.6897244613e+00    0.3244318     0.273749 -25.97  0.001895076    1.122    0.109
       280  -8.5521    237.1207    150.1390   4.3561156226e+01   3.6351068788e+00    0.2943181    0.2227055 -89.01 0.0008366993    2.477    0.596
       281  -8.7953    233.5122    147.4441   4.3605948652e+01   4.7696970787e+00    0.3184049    0.1315545 -33.88 0.0009775923    2.336    0.572
       282  -8.3352    213.0754    149.6322   4.7888705388e+01   8.4992118459e+00    0.2373165    0.1913048 -44.06 0.0004788984    1.337    0.252
       283  -8.3719    198.9807    148.8127   5.0498380981e+01   1.1579820437e+01    0.2169455    0.1990236  84.46 0.0006404664    1.345    0.256
       284  -9.9594     89.3887    146.2093   7.5697264263e+01   3.3733727882e+01    0.6639715    0.3705487  89.95  0.002413538    3.355    0.702
       285  -9.7019     39.8130    147.5740   8.8340182876e+01   3.9868095324e+01    0.4504407    0.2280874  67.68  0.001700681    2.506    0.601
       286 -10.3470     55.0513    144.6143   8.4167276868e+01   3.8848971709e+01    0.7486557    0.3898212  77.98  0.003081632    2.976    0.664
       287  -9.6220     56.7859    135.0892   8.2271345308e+01   4.0853587018e+01    0.3319473    0.2242042  -5.24  0.001619427    2.519    0.603
       288  -8.3544    223.1922    146.6655   4.5308211790e+01   6.9489733912e+00    0.2328397    0.1821563 -39.72    0.0003956    1.311    0.237
       289 -10.4822    148.9740    145.0003   6.0659896209e+01   2.2964425228e+01    0.6070165    0.4175543  85.07    0.0016466    2.433    0.589
       290  -8.7756    105.7779    138.2554   6.9953771295e+01   3.2834693320e+01    0.3680992    0.1993261  22.22   0.00133651    3.089    0.676
       291  -9.3828     78.0982    146.6633   7.8648873332e+01   3.5331732675e+01    0.2823716    0.1941414  84.58 0.0009962188    1.704    0.413
       292  -9.3355     13.3255    145.8451   9.4442207747e+01   4.2666988080e+01    0.3163425    0.1742381  71.26  0.001506022    1.871    0.466
       293 -10.0677    241.3534    144.0642   4.1485565437e+01   3.7981750276e+00    0.4799433    0.2932054   4.87  0.002048376    2.446    0.591
       294  -7.7255    206.8519    146.3542   4.8365827467e+01   1.0368842461e+01    0.1965923     0.177619 -42.97 0.0004823867    1.196    0.164
       295  -8.2352    175.7698    146.0706   5.4784554501e+01   1.7056056461e+01    0.2300193    0.2053723 -89.27 0.0008508256    1.351    0.260
       296  -9.9577    139.0258    144.8644   6.3009578786e+01   2.5034365011e+01     0.405329    0.2781182 -73.96  0.001119599    2.024    0.506
       297  -9.8349    125.0161    142.1770   6.5875807358e+01   2.8394779031e+01    0.6581283    0.3765116 -67.43  0.002191022    2.424    0.587
       298  -8.7631    165.5458    143.8441   5.6560529274e+01   1.9698067773e+01    0.2770894     0.233844  80.40 0.0006780062    1.454    0.312
       299  -7.5203    194.2930    143.6652   5.0287840975e+01   1.3528293439e+01    0.1467033    0.1212896 -78.13 0.0007025213    1.640    0.390
       300 -10.7274     69.6237    140.7734   7.9840992185e+01   3.7886249351e+01    0.5036683     0.331124  84.63  0.001638274    1.843    0.457
       301  -9.9846     70.1207    133.7866   7.8512788770e+01   3.9449053210e+01    0.3940393    0.2443984  16.12  0.001823119    2.405    0.584
       302  -9.2088      2.8236    141.8011   9.6490706276e+01   4.4330815785e+01    0.3145483    0.1497383  74.69  0.001304518    2.249    0.555
       303  -8.4992    182.0492    141.5202   5.2376260307e+01   1.6586995943e+01    0.2775522    0.2104399 -57.17  0.000563594    1.551    0.355
       304  -8.1440    250.4935    140.5235   3.9169836847e+01   2.6256531930e+00    0.1372847    0.1210511 -14.13 6.163226e-05    1.015    0.015
       305  -9.7727     23.2364    137.7507   9.1221795293e+01   4.3672118666e+01    0.4624734    0.2268518  70.84  0.001764205    2.591    0.614
       306  -8.6022    172.3126    138.2114   5.3739970346e+01   1.9365603206e+01    0.3100732    0.2218896  85.97 0.0008319929    2.297    0.565
       307  -7.7452    218.5181    138.4862   4.4320385448e+01   9.3116055032e+00    0.1447286    0.1369034 -11.00 0.0006766513    1.049    0.047
       308  -8.4055    207.4518    137.6753   4.6252376615e+01   1.1798447155e+01    0.2711343    0.1377122 -43.32 0.0008533723    2.025    0.506
       309  -8.7928    197.5283    137.3564   4.8159491059e+01   1.4002458090e+01    0.2945021     0.226524 -71.56 0.0007919889    1.835    0.455
       310  -8.9519    150.7758    135.3642   5.8045244131e+01   2.4623047783e+01    0.5405502    0.3326364  -4.80  0.001688748    4.006    0.750
       311 -10.1861    106.7785    144.4348   7.0936247737e+01   3.1249070676e+01    0.7004981    0.4093519  75.28  0.002435817    3.207    0.688
       312 -10.4805     83.4146    133.0682   7.4822187872e+01   3.7704541884e+01    0.6279032    0.3353304 -61.15  0.001498367    1.811    0.448
       313  -8.6709    246.9133    130.0786   3.7425458363e+01   4.9603937183e+00    0.2574604    0.1817869 -32.74 0.0006387379    1.292    0.226
       314  -9.1022    248.6801    134.8900   3.8217285619e+01   3.8543783898e+00    0.3607021     0.205365 -36.84 0.0008061229    1.619    0.382
       315  -8.9856    250.8831    129.8521   3.6734330891e+01   4.2280220948e+00    0.5107532    0.1246526 -33.79  0.001568049    3.893    0.743
       316  -8.0974    162.4324    136.2685   5.5523332102e+01   2.1918472038e+01    0.2489917    0.1895262  70.06 0.0008505189    1.645    0.392
       317  -9.4623     39.0290    135.7994   8.6999432738e+01   4.2651192693e+01    0.2536009    0.1743996  86.06 0.0007417367    1.459    0.315
       318  -8.0616    187.5978    135.4899   4.9778908915e+01   1.6533150328e+01    0.1495669     0.145413  -9.92 6.234239e-05    1.037    0.035
       319  -8.1779    237.5958    133.7380   3.9811206529e+01   6.2081704592e+00    0.1986638    0.1230988 -43.12  0.000560582    1.638    0.390
       320  -7.9253    231.4675    133.9727   4.0928891022e+01   7.4063197259e+00     0.209555     0.132694 -34.95    0.0004423    1.491    0.329
       321  -8.3441    179.3378    133.7911   5.1146513479e+01   1.8691763223e+01    0.2803934    0.2252483 -67.38 0.0008177016    1.549    0.354
       322  -8.9607    112.7530    132.9994   6.7031413057e+01   3.2775070468e+01      0.35076    0.2424977  71.68  0.001072488    1.941    0.485
       323 -10.3881    132.3030    130.7015   6.1493668582e+01   2.9489326475e+01    0.6957993    0.4026429 -64.39  0.001743384    2.367    0.577
       324  -9.1182    143.0445    131.4544   5.8998951715e+01   2.7098507269e+01    0.3392941    0.2380977 -70.82 0.0008315205    1.917    0.478
       325 -10.0284     97.8032    129.2245   7.0181480182e+01   3.6286985447e+01    0.6758195    0.2178578 -50.72  0.002295065    2.917    0.657
       326  -8.2871    204.4492    130.2005   4.5077917693e+01   1.3804063513e+01    0.2080119    0.1389138 -47.99 0.0005717787    1.619    0.382
       327  -8.1255    192.8495    130.1092   4.7395143914e+01   1.6390677962e+01    0.2257236    0.2066225 -64.05  0.000481726    1.236    0.191
       328  -9.1827    168.3353    129.3257   5.2515400158e+01   2.2032309448e+01    0.3079739    0.2502424 -85.22 0.0007376175    1.615    0.381
       329  -8.6700    161.7042    129.9848   5.4195332354e+01   2.3370357512e+01    0.2243772    0.2004518 -42.66 0.0007356068    1.138    0.121
       330  -9.7655    152.9861    128.4969   5.5887011818e+01   2.5593977918e+01     0.594995    0.2730603 -47.94  0.001495522    2.277    0.561
       331  -9.9506     73.1647    129.0552   7.6831531671e+01   4.0135707451e+01    0.4046511     0.255446 -77.78  0.001043869    1.814    0.449
       332  -9.9833     12.7665    128.7992   9.2817375637e+01   4.6521258831e+01    0.4326368    0.2140496  81.79  0.001712863    2.336    0.572
       333  -7.9254    220.4953    129.5482   4.1872671107e+01   1.0445960223e+01    0.1462578    0.1365915  -7.35 5.337194e-05    1.006    0.006
       334  -8.0974    211.7682    128.9726   4.3367757416e+01   1.2424951284e+01    0.2379466     0.166135 -61.52 0.0006949127    1.956    0.489
       335 -10.6924     45.3143    123.8530   8.3557501732e+01   4.4770690958e+01     1.040952    0.5312597  79.76  0.004017917    3.567    0.720
       336  -8.2391     24.6616    129.6966   8.9893779772e+01   4.5383274199e+01    0.1219781   0.07972032 -45.08 0.0005345247    1.671    0.402
       337 -10.5549     60.3409    125.2353   7.9652896440e+01   4.2720866497e+01    0.6799151    0.3917139  81.38  0.002525739    2.754    0.637
       338  -9.9162    117.8416    124.6651   6.3819536070e+01   3.3698209833e+01    0.5724707    0.4245853 -85.93  0.001615032    1.823    0.451
       339  -8.5519    228.4041    125.1882   3.9428311067e+01   9.5195212941e+00    0.2058416    0.1276997 -43.87  0.000611729    1.631    0.387
       340  -8.8325    179.2943    124.5031   4.8897671902e+01   2.0523170094e+01    0.3017356    0.2536105 -79.13 0.0007335969    1.492    0.330
       341 -10.6508     28.1785    120.7369   8.7768204451e+01   4.7134676856e+01    0.9397672    0.4025137 -85.38  0.003735586    3.270    0.694
       342  -8.1768    244.1467    124.1526   3.6528284962e+01   6.4586628445e+00    0.1842016    0.1589117 -53.31 0.0003427501    1.306    0.234
       343  -8.6750     84.7761    122.5972   7.2350150231e+01   3.9933440459e+01    0.4359465    0.2746365  -7.01  0.001659882    3.337    0.700
       344  -7.8859    188.6364    123.8740   4.6749729729e+01   1.8521843640e+01     0.218965    0.1389137 -48.86 0.0006299298    1.706    0.414
       345  -9.4891    158.8692    121.5205   5.2773708588e+01   2.5744996543e+01    0.4097727    0.2832082 -74.37  0.001071259    2.239    0.553
       346  -7.7736    195.2103    121.9279   4.4914542623e+01   1.7396266740e+01    0.2008584    0.1208361 -38.91 0.0004166971    1.643    0.392
       347  -8.5814    171.8952    121.3056   4.9732047357e+01   2.2839643176e+01    0.2534999    0.2119031 -54.02 0.0004257691    1.285    0.222
       348  -9.7423    131.0270    118.5266   5.8894847638e+01   3.2419904698e+01    0.5452153    0.3747939  86.57  0.002025775    2.458    0.593
       349 -10.3567    133.3083    109.3015   5.5948297360e+01   3.3932668177e+01    0.7293727    0.3970172 -41.57  0.002597805    1.845    0.458
       350  -9.8441     70.8234    119.2539   7.5587338032e+01   4.2749256582e+01    0.4176862    0.2667939 -80.61   0.00140491    1.943    0.485
       351  -9.8705    141.6936    118.3402   5.6137906505e+01   3.0200443490e+01    0.4963059     0.345906 -72.56  0.001288892    2.049    0.512
       352  -9.6985      2.9352    117.0760   9.4040609500e+01   4.9797835197e+01    0.4457713    0.2062813  77.02  0.002139853    2.772    0.639
       353  -7.9491    231.5083    117.4872   3.7075327291e+01   1.0161619994e+01    0.1439819      0.13411 -30.22 0.0008099797    1.050    0.048
       354  -8.0413    185.7563    115.7693   4.5323980376e+01   2.0729050346e+01    0.2062242    0.1813428 -73.21 0.0003912965    1.327    0.247
       355  -9.9560    109.4166    114.0438   6.3555312962e+01   3.7683278363e+01    0.4990236    0.3398157 -70.54  0.001353746    1.880    0.468
       356  -9.2989    108.8702    107.4399   6.2058601574e+01   3.9259560940e+01    0.4860428    0.2865781  20.17  0.001851562    2.655    0.623
       357  -8.9732    250.5147    114.5347   3.3319376338e+01   6.7259779539e+00    0.2175199    0.1977147 -22.84 0.0008698693    1.016    0.016
       358 -10.1685    248.7823    107.8681   3.2048294446e+01   8.1337315843e+00    0.4044248    0.2996727 -28.84  0.001576714    1.245    0.197
       359  -9.9270    249.4679    102.4145   3.0681986326e+01   8.8569166376e+00    0.4417493    0.2863946  -9.02  0.002032646    2.070    0.517
       360  -8.2905    193.0423    115.0235   4.3629563438e+01   1.9183350923e+01    0.2392626    0.1875194 -70.97 0.0005135348    1.650    0.394
       361  -7.8926    203.0000    121.9387   4.3363349290e+01   1.5634084352e+01    0.2452206   0.08454758 -37.50 0.0005199861    2.849    0.649
       362 -10.1387     92.8210    112.4674   6.7832662023e+01   4.0976481999e+01    0.5032064    0.3282132 -69.68  0.001240506    1.852    0.460
       363  -9.9864     79.0753    112.5431   7.1807022848e+01   4.3127474145e+01     0.520499    0.3488175  87.12  0.001664883    2.238    0.553
       364  -9.4872     60.6006    114.3858   7.7555289015e+01   4.5219782549e+01    0.3907317    0.2236736  18.31   0.00180577    2.434    0.589
       365  -8.1240    167.5171    114.4510   4.8973332881e+01   2.5212167115e+01    0.1540912    0.1529844  44.95 0.0001456557    1.034    0.033
       366  -9.9371    121.5676    112.0851   5.9764182975e+01   3.5762082499e+01    0.4635808    0.3346997  81.88 0.0009089865    2.073    0.518
       367  -8.5176    174.8260    111.7413   4.6637849565e+01   2.4050589586e+01    0.2779715    0.1972196 -65.50 0.0005220406    1.875    0.467
       368  -8.6918    159.1658    111.6440   5.0172528997e+01   2.7698508122e+01     0.267595    0.2089935 -51.99 0.0005247535    1.356    0.263
       369  -8.0628    142.3476    112.2870   5.4424339081e+01   3.1343136377e+01    0.1590987    0.1234204   8.13 0.0005806671    1.655    0.396
       370  -9.8005     14.2975    111.3037   9.0280249436e+01   5.0360460680e+01    0.3118584    0.1749071  84.56  0.001522564    2.033    0.508
       371 -10.0942     66.4055    110.2630   7.5021668004e+01   4.5432764668e+01    0.3892118    0.2746928 -89.06  0.001311983    1.805    0.446
       372  -8.0443    182.6559    108.8975   4.4210033139e+01   2.2762682343e+01    0.2307218    0.1368376 -48.58 0.0005803559    1.817    0.450
       373  -8.5110     42.9254    109.3041   8.1761745672e+01   4.8391299318e+01     0.292466    0.1263174  13.21  0.001075544    4.456    0.776
       374  -8.2795    189.1225    107.6557   4.2542627301e+01   2.1474158448e+01    0.2778292    0.1980828 -46.13 0.0006910742    1.439    0.305
       375  -9.6593    119.0233    105.6823   5.8797019492e+01   3.7671593797e+01    0.5013107    0.2719665 -58.15  0.001927256    2.256    0.557
       376 -10.7331    108.6453     98.5239   5.9782150643e+01   4.1257627545e+01    0.8575909    0.4751472  63.43  0.001016372    3.240    0.691
       377  -9.0452    107.5910     92.6360   5.8465827556e+01   4.2723185636e+01    0.4804471    0.3269911  13.73   0.00208121    2.055    0.513
       378 -10.5613     46.1169    102.4183   7.9508925328e+01   4.9645388108e+01    0.7576545    0.4144716  70.27  0.003031465    3.538    0.717
       379 -10.7194     22.9637    102.5865   8.6515773015e+01   5.1703063522e+01     0.647225    0.3503033  74.15  0.002157304    2.817    0.645
       380  -9.5371    150.5910    102.9218   4.9893414533e+01   3.1433531935e+01    0.4985586    0.2977701 -60.72  0.001365418    2.347    0.574
       381  -9.3259    139.8192    104.4265   5.2978902203e+01   3.3547956902e+01    0.3586586    0.2904543 -89.02 0.0009666069    1.606    0.377
       382  -8.9132     93.0685    104.7797   6.5906323725e+01   4.2677887763e+01    0.2709991    0.2074555   7.54  0.001335084    1.672    0.402
       383  -8.8982     78.5927    104.7590   7.0177399977e+01   4.4985253364e+01    0.3212916    0.2017132   9.32  0.001376244    2.535    0.605
       384  -8.3522    166.7972    104.1300   4.6417637190e+01   2.7422919505e+01     0.239249    0.2108385 -68.84 0.0005375763    1.279    0.218
       385 -10.1019    128.4554    102.0278   5.5280021423e+01   3.6510802744e+01    0.3664433    0.2981994  88.65 0.0009863086    1.595    0.373
       386  -8.9470      6.6935    102.8547   9.1293638650e+01   5.2744616621e+01    0.2248469    0.1482875  79.73 0.0008145714    1.646    0.393
       387  -7.9717    175.6041    101.8455   4.3854559425e+01   2.5776602577e+01    0.2191404    0.1433278 -49.29 0.0004896999    1.637    0.389
       388  -8.4066    159.8480    100.7599   4.7100056018e+01   2.9719167308e+01    0.2836538    0.1964042 -64.42 0.0006347731    1.918    0.479
       389  -9.2534     82.1131     99.8704   6.7941494516e+01   4.5556772353e+01    0.3667938    0.2375935 -71.01 0.0009457328    1.972    0.493
       390 -10.2397     63.9939     95.9957   7.2584211845e+01   4.9011764570e+01    0.6582602    0.3756395 -72.39  0.001985532    2.333    0.571
       391  -8.8459     64.8532     87.4427   7.0220121356e+01   5.0806652037e+01    0.4005764    0.2327583   1.36  0.001617406    3.143    0.682
       392  -9.4983     95.0137     96.8579   6.3302274347e+01   4.4107102090e+01    0.3689344    0.2572247 -58.47 0.0008072634    1.510    0.338
       393  -7.4392    183.6765     96.3120   4.0661879036e+01   2.4876238722e+01    0.1583113    0.1233344 -76.05 0.0007039587    1.656    0.396
       394  -8.7377    151.5984     94.8739   4.7422804381e+01   3.2809322580e+01    0.3029415    0.2064013  24.95  0.001265668    1.847    0.459
       395  -8.3773    164.9582     93.7890   4.4003214810e+01   2.9858482601e+01    0.2729446    0.1942709 -53.01 0.0004003296    1.554    0.356
       396  -8.9625    247.2959     92.9822   2.8796810742e+01   1.0793223545e+01    0.2965627    0.1633293  30.88  0.001193343    2.819    0.645
       397  -8.3445    176.4690     93.0802   4.1288355918e+01   2.7215433085e+01     0.232886    0.1521405 -38.92 0.0004333153    1.526    0.345
       398  -9.2794    139.1201     92.0774   4.9722088926e+01   3.6227788671e+01    0.3878032    0.2958049 -87.53 0.0008295266    1.888    0.470
       399  -8.9349    120.1708     93.2642   5.5091627473e+01   4.0085637509e+01    0.3169604    0.2263511  22.33  0.001429512    1.690    0.408
       400 -10.1463    124.6076     90.5784   5.3110449281e+01   3.9711495354e+01    0.4839683    0.3304385 -55.42  0.000931692    1.656    0.396
       401  -9.2930     45.7840     92.2595   7.7514380775e+01   5.1988020385e+01    0.3942628    0.2236693   0.86   0.00177818    2.907    0.656
       402  -9.1905     22.1875     90.5634   8.4712853210e+01   5.4466497677e+01    0.4431129    0.1808527 -46.25  0.001928413    2.169    0.539
       403  -7.9241    158.2195     91.9200   4.5021805408e+01   3.1824612909e+01    0.2030252    0.1271949 -40.13 0.0004217848    1.601    0.375
       404  -9.6040     34.8367     89.5535   8.0468518807e+01   5.3658720862e+01    0.4558638    0.2473579 -82.95  0.001715088    2.702    0.630
       405  -9.2533      5.3383     91.9066   9.0163188306e+01   5.5250474744e+01      0.29241     0.153705  55.43  0.001365908    2.588    0.614
       406  -8.1976    151.0193     89.0271   4.5899127380e+01   3.4083958672e+01    0.2473945    0.1934846 -75.81 0.0006208524    1.685    0.407
       407 -10.1662     86.5371     85.9545   6.2913593008e+01   4.7907330942e+01    0.6240308    0.3845783 -61.16  0.001664564    1.938    0.484
       408  -7.5673    188.6691     93.2999   3.8840828426e+01   2.4217813194e+01    0.1570367    0.1221185 -76.40 0.0004623765    1.646    0.393
       409  -8.2295     70.9662     85.9995   6.7869238084e+01   5.0284954259e+01    0.2104967    0.1701515  88.45 0.0007275834    1.657    0.396
       410  -9.6948     48.6053     84.1339   7.4743612204e+01   5.3496831410e+01    0.4757565    0.3094314  79.85   0.00186379    2.724    0.633
       411 -10.1099    104.8794     82.0724   5.6207867862e+01   4.5446074432e+01    0.7388561    0.3478097 -46.69  0.001924156    2.106    0.525
       412  -8.3588    158.0948     83.6953   4.2693306857e+01   3.3406150346e+01     0.265334    0.2054329 -46.36 0.0005182707    1.337    0.252
       413  -9.0941    140.8932     82.6020   4.6506531402e+01   3.7676544573e+01    0.3380208    0.2236797 -48.64 0.0009038217    1.618    0.382
       414  -8.2852     64.1385     82.6919   6.9222466009e+01   5.1939561513e+01    0.2494727    0.1526489 -67.24 0.0007567183    2.026    0.507
       415  -9.1891     10.0643     81.3126   8.6975920578e+01   5.7308259316e+01    0.3717144    0.2063247  81.24  0.001586932    2.719    0.632
       416  -9.5761     24.8527     80.5633   8.1919684500e+01   5.6478770014e+01    0.3898119    0.2475036  87.46  0.001360737    2.220    0.550
       417  -8.4003    150.2927     80.5442   4.3593999000e+01   3.5859526912e+01    0.2771443    0.1827783 -47.87 0.0006676051    1.620    0.383
       418  -8.7185    119.4901     80.1557   5.1434575358e+01   4.2887088007e+01     0.325027    0.2293511 -63.29 0.0009638711    1.879    0.468
       419  -8.8317     74.6003     80.1983   6.5104322839e+01   5.1005569892e+01    0.2943897    0.2188434 -73.30 0.0008172998    1.789    0.441
       420  -8.1714    166.9562     79.2912   3.9436966561e+01   3.2047255289e+01    0.2081988    0.2064926  -8.59 0.0005728516    1.016    0.016
       421  -8.4661    184.3425     78.2199   3.5556254661e+01   2.7931108064e+01    0.2201145     0.135807 -43.72 0.0006691092    1.644    0.392
       422  -8.1014    204.9783     76.5573   3.1328838532e+01   2.3121914074e+01    0.2201095    0.1466389  59.43 0.0006130284    1.534    0.348
       423  -7.8000    157.3633     76.1868   4.0653066176e+01   3.4949003045e+01    0.2173622    0.1398549 -46.43 0.0003973317    1.646    0.393
       424  -8.5821    140.5468     75.3034   4.4389830948e+01   3.9123554385e+01     0.264121    0.2160043 -60.71 0.0006095453    1.425    0.298
       425  -9.2502    128.1577     75.2021   4.7551757171e+01   4.1964225665e+01    0.3557968    0.2447291 -56.38 0.0007677217    1.770    0.435
       426  -9.6974     82.4321     72.3570   6.0239858727e+01   5.1410663467e+01    0.4384785    0.2845916 -65.59 0.0009236356    2.249    0.555
       427 -10.0614     63.1688     73.3185   6.6972847733e+01   5.4065208336e+01    0.4692884    0.2697594 -59.58  0.001384847    1.933    0.483
       428  -8.1678    163.5013     73.0263   3.8351032473e+01   3.3999056152e+01    0.2389406    0.1506097 -38.19  0.001027588    1.600    0.375
       429  -7.8348    151.4668     72.9751   4.1045381823e+01   3.6949828030e+01    0.2178589    0.1270347 -57.85 0.0006479041    2.415    0.586
       430  -8.6802    115.5025     72.5186   5.0189473253e+01   4.5199949948e+01    0.2875489     0.144226 -39.91 0.0006077514    1.967    0.491
       431  -8.5788     42.6776     72.1735   7.3805384986e+01   5.6711396665e+01    0.2807595    0.1508549 -66.38  0.001088736    2.166    0.538
       432  -7.4192    175.5723     72.4768   3.5663685330e+01   3.1092143742e+01     0.152244    0.1472845  21.52 0.0002541859    1.053    0.051
       433  -9.3051    105.6748     71.5649   5.2740359169e+01   4.7376668526e+01    0.2718336    0.2473116 -52.83 0.0006920649    1.211    0.174
       434  -9.3533     95.1558     70.9107   5.5733230369e+01   4.9499196213e+01    0.4113857    0.2348609 -55.16  0.001166429    2.168    0.539
       435  -9.5220     51.5493     69.5621   6.9959201983e+01   5.6295643396e+01    0.4313286    0.2517196 -68.55  0.001413959    2.384    0.581
       436  -9.0140     16.6772     69.6124   8.2451526014e+01   5.9424596991e+01    0.3245795    0.1730545 -77.30   0.00132495    2.277    0.561
       437  -7.6927    157.2556     69.6285   3.8709378491e+01   3.6123254325e+01    0.1563734    0.1178151 -64.05 0.0003978663    1.644    0.392
       438  -8.8352    147.1679     68.2653   4.0610804113e+01   3.8810900035e+01    0.2945459    0.2163315 -43.83 0.0007286958    1.420    0.296
       439  -8.8293    121.6887     65.8958   4.6344266511e+01   4.5099546924e+01    0.3063079    0.2234198 -63.62 0.0008212432    1.876    0.467
       440  -8.6157    138.6240     65.8584   4.1923733818e+01   4.1259220427e+01    0.2819763    0.2170475 -62.09 0.0007240918    1.618    0.382
       441  -7.7465    130.7060     64.3330   4.3439679691e+01   4.3359115904e+01    0.1492169    0.1204092 -72.51 0.0007025479    1.638    0.389
       442  -8.9040    110.2118     63.5468   4.8806574986e+01   4.7959296918e+01    0.2825211    0.2329834 -70.45 0.0005782918    1.625    0.385
       443  -8.4613    102.2629     64.0581   5.1332011584e+01   4.9460022141e+01    0.2043307    0.1814035 -25.59   0.00042047    1.080    0.074
       444  -9.4301     97.2973     61.2235   5.1908534153e+01   5.0934935660e+01    0.4561889    0.2842896 -22.29  0.001679132    1.841    0.457
       445  -8.6995     64.1742     63.0947   6.3561875446e+01   5.6012118174e+01    0.3025843    0.1799605 -15.22  0.001353095    2.362    0.577
       446  -8.9153     37.2898     64.0090   7.3589902103e+01   5.8954367362e+01     0.223006    0.1910596 -65.26  0.001459319    1.300    0.231
       447  -8.2648    158.2053     61.5934   3.6048567772e+01   3.7230171736e+01    0.2066655    0.1378361  45.46 0.0003382402    1.468    0.319
       448  -9.6779     73.4098     59.3347   5.9118227825e+01   5.5395120424e+01    0.3973242    0.2332663 -51.51 0.0009798288    1.851    0.460
       449  -9.2215     28.9529     70.4450   7.8259450244e+01   5.8341458228e+01    0.4881071    0.1988762 -26.91  0.001776021    4.392    0.772
       450  -8.1016    130.7964     57.7348   4.1260788869e+01   4.4458177188e+01    0.1983731    0.1741679 -61.97 0.0005794635    1.340    0.254
       451  -9.7814     23.5072     56.2493   7.6714647087e+01   6.1724945269e+01    0.3921815    0.2628584  88.53  0.001814113    2.617    0.618
       452  -9.5495      7.7050     56.9190   8.2958240167e+01   6.2615166946e+01    0.2924329    0.2015098 -89.31   0.00117917    1.948    0.487
       453  -9.3473    119.2255     55.2432   4.3476303505e+01   4.7478783199e+01    0.4484732    0.2441525 -48.88  0.001386242    2.250    0.555
       454  -8.3833    140.1060     55.9039   3.8362067759e+01   4.2567327868e+01    0.2233042    0.2027542 -64.16 0.0004820685    1.255    0.203
       455  -8.7587     44.1275     55.4204   6.8530136116e+01   5.9993070728e+01    0.2179545    0.1898207 -71.23 0.0008004486    1.484    0.326
       456  -9.4688     62.8771     53.2972   6.0831639474e+01   5.8078349468e+01    0.6075431     0.207709 -48.60  0.001988275    2.939    0.660
       457  -9.1661     54.1475     53.5277   6.4135955534e+01   5.9190333460e+01    0.3995827    0.2120736 -59.86  0.001466806    2.649    0.623
       458  -8.5546    105.8408     53.0596   4.6519361856e+01   5.0683431483e+01    0.2117416    0.1950243 -63.29 0.0005183418    1.336    0.252
       459  -9.4595     92.5425     50.5497   4.9705331959e+01   5.3711016887e+01    0.3720868    0.2473041 -54.51  0.001144152    2.014    0.504
       460  -8.5320     74.2120     51.8500   5.6285617079e+01   5.6654427518e+01    0.1949967    0.1463233 -10.27 0.0006228018    1.361    0.265
       461  -8.2050    144.6521     48.7812   3.4980943867e+01   4.2569815477e+01    0.2080423      0.13286 -40.99 0.0005194346    1.659    0.397
       462  -8.7233    129.8356     49.1131   3.8614437312e+01   4.6056042600e+01    0.2200988    0.2009372 -62.15 0.0006342956    1.278    0.217
       463  -8.3007    120.8644     47.1677   4.0253100676e+01   4.8404647936e+01    0.2068478    0.1985307 -47.78 0.0005902816    1.184    0.155
       464  -8.3926    112.2289     46.7044   4.2440446268e+01   5.0372606241e+01    0.2392939    0.1824542 -39.54 0.0005334105    1.394    0.282
       465  -9.1464     82.2824     46.3100   5.1526890387e+01   5.6277559485e+01    0.2772108     0.217957 -47.83 0.0007560562    1.480    0.325
       466  -8.5118     45.0275     44.4892   6.4603383328e+01   6.1971286160e+01     0.216844    0.1628061 -54.58 0.0006016177    1.531    0.347
       467  -8.6411     16.8205     44.5452   7.6148140746e+01   6.4531687289e+01    0.2044125    0.1415467 -70.91 0.0006739434    1.791    0.442
       468  -8.5230     92.8159     42.7495   4.6774091280e+01   5.4935868026e+01     0.240251    0.1401765   7.27 0.0009509651    2.761    0.638
       469  -9.2620     69.6604     41.2724   5.4052861443e+01   5.9203005277e+01    0.3440355     0.235853 -55.81  0.001150058    2.072    0.517
       470  -8.7883     58.3646     42.2651   5.8614114556e+01   6.0692684176e+01    0.3048714      0.20416 -57.17  0.001251461    2.075    0.518
       471  -9.3661      5.4257     41.8784   8.0168246189e+01   6.5742660314e+01    0.2766595    0.1861038 -85.67  0.001443062    2.250    0.556
       472  -7.7420    140.4647     41.4349   3.3491875498e+01   4.4652367734e+01    0.1439102    0.1381897  57.41 6.931876e-05    1.081    0.075
       473  -8.6244    106.0245     40.8895   4.2099558896e+01   5.2574945612e+01    0.2407425    0.1979961 -28.43 0.0005645946    1.233    0.189
       474  -8.3705     36.9619     40.4700   6.6473883979e+01   6.3578617280e+01    0.2186394    0.1578583 -56.36 0.0007019828    1.615    0.381
       475  -8.0046    150.4125     40.4996   3.1029248916e+01   4.2333155236e+01    0.1466429     0.135752  34.31 0.0001047883    1.049    0.047
       476  -8.2676    132.6077     42.8613   3.5801573517e+01   4.6335053522e+01    0.2019288    0.1313906 -42.49 0.0006423919    1.686    0.407
       477  -7.6027    160.5072     39.5265   2.8699487640e+01   3.9928527006e+01    0.1457928    0.1384232  69.78 -6.009837e-06    1.050    0.048
       478  -8.6313     95.7692     37.9337   4.4044718192e+01   5.5099967785e+01    0.2429263     0.184951 -47.50 0.0008031361    1.599    0.375
       479  -8.3269    133.5174     35.9987   3.3224312713e+01   4.7069634086e+01    0.2106638    0.1413269 -29.53 0.0007984382    1.558    0.358
       480  -8.1400     80.7241     36.1925   4.8227705933e+01   5.8173689483e+01    0.2019272    0.1622177 -43.26 0.0007505907    1.457    0.314
       481  -7.8741    191.5394    249.4968   7.0320577702e+01  -3.0334402098e+00    0.1202193   0.09395406  34.12 4.896923e-05    1.062    0.058
       482  -8.3007    111.8463     34.2134   3.8005356043e+01   5.2281267760e+01    0.2000076    0.1927589 -65.67 0.0005602211    1.268    0.212
       483  -7.7944     88.5831     34.4776   4.4969785114e+01   5.6995556100e+01    0.1357656    0.1191041   2.66 0.0001519976    1.019    0.018
       484  -9.0672    175.7482    247.4708   7.2913147937e+01  -2.3743798456e-01    0.2936391    0.2073184  70.36  0.001120991    2.242    0.554
       485  -8.8337     48.5619     32.9563   5.8938081031e+01   6.3561946616e+01    0.1966139    0.1893733 -39.25 0.0006474137    1.440    0.306
       486  -8.8343     72.2567     30.7595   4.9009565631e+01   6.0440999196e+01    0.2454953    0.1955015 -53.85 0.0006902424    1.786    0.440
       487  -8.9679     12.9090     29.9385   7.3295785328e+01   6.7533403822e+01     0.291551    0.1496608 -62.26  0.001191143    2.378    0.579
       488  -8.6406    101.6429     29.3549   3.9007023233e+01   5.5111915840e+01    0.1900838    0.1646887 -68.86 0.0006944897    1.617    0.382
       489  -8.9639     81.6693     27.3211   4.4371772939e+01   5.9292276007e+01    0.2421723     0.210307 -60.64 0.0007502429    1.688    0.408
       490  -9.0439      3.7402     27.6751   7.6765356615e+01   6.8503806659e+01     0.206233    0.1297702 -59.53 0.0006763253    1.576    0.365
       491  -8.8645     91.9130     26.2951   4.0687429742e+01   5.7486404876e+01    0.2687477    0.1756225 -41.96 0.0008126826    1.809    0.447
       492  -8.1742    104.5640     22.7607   3.5622672028e+01   5.5325010492e+01    0.1774286    0.1243508 -35.72 0.0007583898    1.574    0.365
       493  -8.1902     34.7496     22.9317   6.0769022970e+01   6.6806318363e+01    0.1655295    0.1349959 -60.80 0.0007113594    1.956    0.489
       494  -8.9488     63.6845     20.7552   4.7952462679e+01   6.3255048996e+01    0.2789051    0.1691499 -40.44   0.00104659    1.860    0.463
       495  -8.6742     48.4913     21.5822   5.4301859901e+01   6.5353274086e+01    0.1956014    0.1613042 -38.18 0.0007504886    1.454    0.312
       496  -8.0584    126.0167     35.3383   3.4773417594e+01   4.8927512142e+01    0.1984459    0.1729542  41.35 0.0004209191    1.069    0.065
       497  -8.9377     60.7687     32.2042   5.3831165983e+01   6.2018240039e+01    0.2381517    0.1613665 -42.79 0.0008420055    1.595    0.373
       498  -8.7836     74.1120     19.2817   4.3563736138e+01   6.1707932660e+01     0.228905    0.1712705 -30.21 0.0005730372    1.398    0.284
       499  -7.8303     11.6738     20.2950   7.0440117983e+01   6.9306280684e+01   0.09137914   0.08843689 -75.28 0.0007022177    1.625    0.385
       500  -8.1023     38.9241     17.9933   5.6822934077e+01   6.7089881465e+01    0.1597739     0.142596 -47.11 0.0005090818    1.653    0.395
       501  -7.7405    112.7866     16.9333   3.1228963419e+01   5.4182936432e+01    0.1678441    0.1083701 -18.77 0.0003306247    1.639    0.390
       502  -8.1580     87.9228     17.1868   3.8176885160e+01   5.9397581782e+01    0.1811978    0.1770798 -10.32 0.0006466694    1.298    0.230
       503  -8.0428     30.0478     15.9420   5.9927339481e+01   6.8392804555e+01    0.1529078    0.1413437 -49.66  0.000727215    1.688    0.408
       504  -8.4836     97.0655     15.2173   3.4682727719e+01   5.7773346482e+01    0.1830172    0.1600405  21.30 0.0004913595    1.035    0.034
       505  -7.9370     17.0431     13.9684   6.5287433385e+01   6.9927372474e+01    0.1396534   0.09979258 -27.54 0.0003682726    1.067    0.063
       506  -7.8944      7.3451     14.6598   7.0401227441e+01   7.0545844650e+01   0.09219842    0.0870343 -86.14 0.0003651792    1.783    0.439
       507  -7.6850      1.6588     11.3023   7.1984941031e+01   7.1456004708e+01   0.08699066   0.08512539 -78.56 0.0007038642    1.675    0.403
       508  -8.8891    132.3978    247.8905   8.0924028171e+01   6.6647115334e+00    0.3053638    0.1781072  69.49  0.001043374    2.422    0.587
       509  -8.2951    113.2369    248.5389   8.4472543723e+01   9.5264170404e+00    0.1931602    0.1302622 -84.03  0.001211255    1.839    0.456
       510  -9.2119    103.9358    246.6869   8.5958637492e+01   1.1221096422e+01    0.3724494    0.1917797 -80.56  0.001896031    2.920    0.658
       511  -8.3887     94.1084    249.3678   8.7960423027e+01   1.2216534253e+01    0.2355796    0.1028142  52.99  0.001009751    1.901    0.474
       512  -9.1149    243.0081    246.3529   6.0762425068e+01  -1.0465984287e+01    0.3040119     0.153205 -23.24  0.001579065    2.163    0.538
       513  -8.9627    218.5211    246.9960   6.5121481477e+01  -6.9276731038e+00     0.298467    0.1130483 -34.60  0.001449984    3.118    0.679
       514  -8.4058    202.0099    248.4824   6.8287771483e+01  -4.5558612102e+00    0.1818449   0.08214249  24.91 0.0008102199    2.683    0.627
