#   1 NUMBER                 Running object number                                     
#   2 MAG_AUTO               Kron-like elliptical aperture magnitude                    [mag]
#   3 X_IMAGE                Object position along x                                    [pixel]
#   4 Y_IMAGE                Object position along y                                    [pixel]
#   5 X_WORLD                Barycenter position along world x axis                     [deg]
#   6 Y_WORLD                Barycenter position along world y axis                     [deg]
#   7 A_WORLD                Profile RMS along major axis (world units)                 [deg]
#   8 B_WORLD                Profile RMS along minor axis (world units)                 [deg]
#   9 THETA_WORLD            Position angle (CCW/world-x)                               [deg]
#  10 FWHM_WORLD             FWHM assuming a gaussian core                              [deg]
#  11 ELONGATION             A_IMAGE/B_IMAGE                                           
#  12 ELLIPTICITY            1 - B_IMAGE/A_IMAGE                                       
         1 -14.8197    217.7683     37.4509   6.8462130451e+01   2.5719702921e+01     1.016512    0.8034964 -29.56  0.003188382    1.222    0.182
         2 -16.6026    243.6512     72.4096   7.4675794226e+01   1.5442399676e+01      5.60512    0.5603415 -28.82   0.01365513    5.880    0.830
         3 -19.2725    220.2363     90.5467   8.3153553086e+01   1.8328512077e+01     9.366796     7.561497  12.65   0.04982398    1.161    0.138
         4 -16.1832    214.3240     52.3332   7.3364156940e+01   2.4801234649e+01     3.240786     1.126935 -40.14   0.01074081    3.065    0.674
         5 -16.2126    184.1861     78.9746   8.6632140614e+01   2.8455790414e+01     2.333218     1.532403  86.15  0.008580718    3.078    0.675
         6 -13.0789    225.4140     23.5509   6.3432946952e+01   2.5303791750e+01    0.6087511    0.4847025  64.21  0.001416533    1.307    0.235
         7 -10.9306    247.8042     15.9157   5.9042176396e+01   2.0663607924e+01    0.3531993    0.2139043 -19.97  0.001777409    1.543    0.352
         8 -12.2827    237.8694     10.1282   5.8378324074e+01   2.3543547652e+01    0.4321461    0.2741176  54.01  0.001758865    1.617    0.381
         9 -10.3657    142.7089      8.2400   7.0474137153e+01   4.8614512029e+01    0.2633671    0.2220937  38.72 0.0003754289    1.088    0.081
        10 -10.7063    117.3131      8.0127   7.5978516674e+01   5.5030399526e+01    0.2973696    0.2158679 -23.01 0.0007945367    1.364    0.267
        11 -10.4291    223.0148      8.0037   5.9183706186e+01   2.7387064030e+01    0.1972754    0.1938837  17.37  0.001196893    1.026    0.026
        12  -9.5446    126.8156      8.2083   7.3806872315e+01   5.2679668861e+01    0.2024681    0.1514273  25.96 0.0003466271    1.259    0.206
        13 -10.2199    209.8981      6.1728   5.9985687486e+01   3.0899102333e+01    0.2013389    0.1942603  27.98 0.0005084394    1.028    0.027
        14  -9.6073     66.1840      6.3817   9.1642670903e+01   6.5875505581e+01    0.1661061    0.1270237  46.16 0.0009423097    1.616    0.381
        15  -9.7972    187.6890      4.2747   6.1946897406e+01   3.6933393775e+01    0.2055661    0.1535612  36.63  0.001025378    1.329    0.247
        16 -10.1824    150.9188      3.2369   6.6966719221e+01   4.6916429235e+01    0.3420403    0.2040726 -43.16  0.001149069    1.938    0.484
        17 -10.0943     26.4667      3.9008   1.0951071099e+02   7.1570570359e+01    0.1816822   0.09579488 -43.52 0.0003726828    1.504    0.335
        18 -11.9312    166.4854      2.2170   6.4103285236e+01   4.2826417744e+01     0.327907    0.2449262  53.09 0.0007135735    1.240    0.193
        19 -10.0161    141.2300      3.5835   6.8853496859e+01   4.9442193978e+01    0.3535103   0.09015974  54.40  0.001126967    3.008    0.668
        20  -9.8761    180.1031      1.6176   6.2010976447e+01   3.9198420964e+01     0.201436    0.1806444  44.77 0.0005471148    1.053    0.050
        21  -9.2589    218.2696      1.7013   5.7807775977e+01   2.9131661645e+01    0.1409007   0.09700447 -52.04 0.0006933241    1.523    0.343
        22  -9.4955     57.4799      1.4381   9.2621908523e+01   6.8013208653e+01    0.1315784    0.1073955  -9.97 4.851102e-05    1.049    0.046
        23  -9.8512     97.8688    231.8412   1.3192665820e+02   1.8470312957e+01    0.1417128    0.0902138  57.22 0.0003697008    1.311    0.237
        24 -11.8728    229.8604    249.8311   1.1237367520e+02  -1.7645315971e+00    0.4100536    0.1192884  35.43  0.002105497    2.432    0.589
        25 -10.2100    222.2694    250.4230   1.1361709387e+02  -7.7666441883e-01    0.1387361   0.07359071  41.37 0.0005653614    1.540    0.351
        26 -10.2227    192.0321    250.6091   1.1836896406e+02   3.4002582413e+00    0.1563022     0.071692  39.00            0    1.515    0.340
        27 -10.9917    192.6583    247.4287   1.1789683955e+02   3.6163479975e+00    0.2201696    0.1396155  53.70  0.001491739    1.970    0.492
        28 -10.1170    182.5135    250.0161   1.1981169255e+02   4.7881760238e+00    0.1186412    0.1026643 -20.38  0.001021512    1.560    0.359
        29 -10.9302    165.3523    249.5141   1.2249979968e+02   7.2325495825e+00    0.2465103    0.1707833  57.74 0.0009927338    1.696    0.410
        30 -10.3495    161.8458    246.1636   1.2271129268e+02   8.0815031549e+00    0.1369894    0.1303416  28.56   0.00024326    1.357    0.263
        31 -10.3162    124.9875    250.0361   1.2901553357e+02   1.2630487443e+01    0.1573427    0.1110198  46.43 0.0008109924    1.026    0.026
        32 -10.0412    153.9371    230.9829   1.2237141937e+02   1.0952894127e+01    0.1622483    0.1218586  38.67 0.0003375558    1.021    0.020
        33 -10.5379    113.7249    230.5717   1.2915576958e+02   1.6596231261e+01    0.1832018    0.1450058 -89.45 0.0005628256    1.520    0.342
        34 -10.4464     69.2163    230.2804   1.3654166064e+02   2.2116590116e+01    0.1457371    0.1210969  54.53 0.0002565971    1.207    0.172
        35  -9.9270      6.6156    230.8032   1.4629386956e+02   2.8166329022e+01    0.1183261   0.05794536  76.35 0.0004014875    1.624    0.384
        36 -10.7943    204.1529    226.0305   1.1328851233e+02   4.0676816270e+00    0.2951028     0.142631  43.79  0.001192722    1.742    0.426
        37 -10.5799    149.7993    226.6936   1.2259678919e+02   1.2080822678e+01    0.2220884    0.1539998  30.97  0.000823829    1.285    0.222
        38 -11.0401    128.0273    226.5127   1.2632706309e+02   1.5201113211e+01    0.2069018    0.1510356  51.67 0.0008128893    1.155    0.134
        39 -10.7357    238.3723    224.0692   1.0744410751e+02  -7.9483519876e-01     0.196545    0.1220742  34.50 0.0003772633    1.275    0.215
        40 -10.0317    165.3568    223.8823   1.1958494593e+02   1.0134925226e+01    0.2051063    0.1196511  44.65  0.001310416    1.377    0.274
        41 -10.3089    179.1981    223.3309   1.1713646421e+02   8.1196822871e+00    0.2945994    0.1558043  49.30  0.001037407    1.848    0.459
        42  -9.9285    182.6671    222.7058   1.1646141653e+02   7.6661541282e+00    0.1832041    0.0881005  37.57 0.0002956532    1.563    0.360
        43 -10.2566     93.5035    222.0565   1.3186707764e+02   2.0414706435e+01     0.126794   0.09791531 -79.65 0.0003483242    1.490    0.329
        44 -11.0328     88.8527    219.6690   1.3247270526e+02   2.1349232436e+01    0.2540042    0.1902739 -38.16  0.001855309    2.140    0.533
        45 -11.5475     63.1375    219.9217   1.3687849727e+02   2.4338907530e+01    0.2850098    0.1578051  62.56 0.0007996471    1.543    0.352
        46 -11.2147     58.3184    214.8119   1.3736319758e+02   2.5658698042e+01    0.4041653    0.1424078  43.29  0.001526028    2.107    0.525
        47  -9.9845    234.7405    220.2947   1.0745430887e+02   7.1369946723e-02    0.2411485   0.09421492  26.99  0.001183689    2.447    0.591
        48  -9.3868    230.4514    220.5118   1.0817817380e+02   6.8390631172e-01    0.1152563   0.08005638  23.15 -2.842082e-06    1.023    0.022
        49 -10.5244    178.5743    217.0963   1.1642234461e+02   8.9426285503e+00    0.1973329    0.1412541  20.52 0.0005745878    1.339    0.253
        50 -11.0582    124.6053    215.6208   1.2579893175e+02   1.7182202074e+01    0.2212567    0.1720585  39.42 0.0008899659    1.121    0.108
        51  -9.5144     37.0301    216.4743   1.4101554703e+02   2.7595243082e+01    0.1327655   0.07297082  44.59 -0.0001235015    1.464    0.317
        52 -11.7667    202.7513    211.2559   1.1140932957e+02   5.8492228251e+00    0.3197175    0.2377994 -23.42  0.001089816    1.594    0.373
        53  -9.5364    186.7973    215.3741   1.1475783829e+02   7.8735805778e+00     0.169358   0.08278597  33.65 0.0004891444    1.657    0.397
        54 -10.9904      3.3611    214.2244   1.4629490638e+02   3.0931328796e+01    0.1824778    0.1286479  36.27   0.00022626    1.620    0.383
        55 -10.9950     96.9868    209.2353   1.3012522801e+02   2.1896075823e+01    0.2223727    0.1458461 -71.58 0.0004191819    1.784    0.439
        56  -9.5421     15.4919    212.4756   1.4432659986e+02   3.0198424694e+01   0.09235886   0.06669524  66.54 4.674113e-05    1.045    0.043
        57 -10.6251     90.0110    211.2866   1.3156288013e+02   2.2475928651e+01    0.1631393    0.1285402  57.46 0.0003267181    1.028    0.028
        58 -11.3386     89.1005    206.7314   1.3132460000e+02   2.3303037779e+01    0.2894389    0.1990662  22.38  0.001905111    1.966    0.491
        59  -9.9130    232.5079    209.7189   1.0617250845e+02   1.3971303395e+00     0.184296    0.1025417 -16.90  0.001104011    1.979    0.495
        60 -11.2501    157.7992    209.9326   1.1915895539e+02   1.3047408813e+01    0.2269626    0.1325624  44.44 -0.000430966    1.389    0.280
        61 -10.4839    237.6250    207.7040   1.0501301940e+02   8.1219170855e-01    0.2790498    0.1949861   7.94  0.001931825    1.228    0.186
        62 -11.3215    210.2195    203.5305   1.0893919289e+02   5.5198957766e+00    0.3237904    0.1809555 -32.23  0.001915768    2.135    0.532
        63 -11.3523    191.7473    202.0394   1.1194523739e+02   8.6660655800e+00    0.3168905    0.2323336  60.63  0.001044287    1.966    0.491
        64 -10.3772    250.4289    202.4675   1.0208460627e+02  -6.3211934602e-01    0.1784894    0.1200942 -15.77 0.0006424299    1.526    0.345
        65  -9.8452    244.7988    202.1595   1.0293569661e+02   2.4722071000e-01    0.1677383    0.1030565  16.97   0.00069873    1.326    0.246
        66 -10.0111    156.9331    201.9295   1.1825453715e+02   1.4265230547e+01    0.1789866    0.1299487  61.99  0.001073449    1.671    0.402
        67 -10.2384    205.0307    199.7094   1.0923516680e+02   6.7864937343e+00    0.2851038    0.1995322 -61.38  0.001404487    3.215    0.689
        68 -10.5505    170.4719    200.9441   1.1562594087e+02   1.2242174335e+01    0.2173964    0.1410843  39.65 0.0003538877    1.229    0.186
        69 -10.1588     46.7965    201.5865   1.3852003866e+02   2.9012917703e+01    0.1768889   0.08773863  34.00 0.0009571945    2.034    0.508
        70  -8.8505      6.6717    201.3163   1.4534423761e+02   3.2724054743e+01    0.1021582   0.04560935  61.65 0.0006281569    1.678    0.404
        71  -9.3697    128.4760    200.4297   1.2337056278e+02   1.8848118931e+01     0.115928   0.09315718  44.77 6.452159e-05    1.011    0.011
        72 -10.1248     36.9910    199.5289   1.4012049817e+02   3.0336636838e+01    0.1420976    0.1045682  73.52 0.0001130418    1.086    0.080
        73 -11.4668    214.4120    196.8301   1.0713336935e+02   5.5885330272e+00    0.3230705    0.2731741  58.75   0.00166135    1.796    0.443
        74 -11.2701    149.1136    196.2950   1.1894743635e+02   1.6297232152e+01    0.2391991    0.2123362  -3.49 0.0006350013    1.330    0.248
        75 -10.0209    230.9179    196.1990   1.0421351125e+02   2.9984021520e+00    0.2067477    0.1512776 -20.41 0.0008696305    1.519    0.342
        76 -10.9352    226.4095    189.3738   1.0380238739e+02   4.4522722816e+00    0.3399059    0.2238729 -40.98  0.001998576    2.209    0.547
        77 -12.0664    231.4038    187.5202   1.0262708456e+02   3.8352986219e+00    0.3996861    0.2687806 -13.22    0.0011896    1.496    0.332
        78 -12.0178    201.0609    193.7093   1.0896943210e+02   8.1441041399e+00    0.5053427    0.3436235   7.66  0.002463879    1.562    0.360
        79 -11.6930    207.9584    191.1297   1.0731539767e+02   7.3050159287e+00    0.3192967    0.2216455 -10.80  0.001985241    1.559    0.358
        80 -10.5295     50.0000    195.0076   1.3751608890e+02   2.9785782260e+01    0.2680317    0.1100209 -89.39  0.001381975    3.036    0.671
        81 -11.5288     46.6248    194.7001   1.3810863253e+02   3.0188966679e+01    0.3336875    0.2123342 -49.01 0.0006174993    2.320    0.569
        82 -10.3660    166.1688    195.6408   1.1565163943e+02   1.3653152689e+01    0.1738124    0.1699501  87.83  0.000944266    1.328    0.247
        83 -11.6946    156.4371    194.3710   1.1729541728e+02   1.5406768492e+01    0.3856283    0.2032166  39.92   0.00211923    1.544    0.353
        84 -10.8912    143.6553    195.2085   1.1983472583e+02   1.7315144662e+01    0.2150518    0.1835314 -77.05 0.0009082747    1.504    0.335
        85 -10.5979    140.8206    192.5676   1.2002082142e+02   1.8155065573e+01    0.2016927    0.1675133  82.33 0.0008940272    1.508    0.337
        86 -10.7735     67.4336    195.6802   1.3436018468e+02   2.7746761238e+01    0.1936578   0.08643901 -89.70 0.0009548501    3.232    0.691
        87 -10.0853    249.4445    194.7229   1.0091515667e+02   2.4194107967e-01    0.2189121    0.1219189  35.00 0.0008888118    1.451    0.311
        88 -10.3404     76.2353    195.0392   1.3266258441e+02   2.6810938771e+01    0.1458088    0.1195757  69.22   0.00111735    1.071    0.066
        89 -11.5926    117.8784    190.1624   1.2415395580e+02   2.2022231173e+01    0.3951564    0.2175951 -63.07 0.0007144874    2.251    0.556
        90 -11.0630    106.9654    191.0416   1.2638098956e+02   2.3448863874e+01    0.3063796    0.1797428 -60.07  0.001858808    1.964    0.491
        91 -10.1916    204.9946    249.5181   1.1619532312e+02   1.6915306001e+00    0.1646497   0.07336231  38.39 0.0005655138    1.560    0.359
        92  -9.2591    103.6434    249.3136   1.3234329093e+02   1.5435572044e+01    0.1042849   0.05481865  58.16 0.0007044252    1.741    0.426
        93 -15.8211    191.9603     66.0610   8.1268529851e+01   2.8505039952e+01     2.075952     1.005855  40.28  0.007900788    2.142    0.533
        94 -11.2982    243.1359    247.2616   1.1001028638e+02  -3.3562573472e+00     0.188679    0.1159192  41.33   0.00135844    1.624    0.384
        95 -10.9850    141.0643    172.4163   1.1705399250e+02   2.1301384955e+01    0.2869128    0.2135883  35.95  0.001058208    1.199    0.166
        96 -10.3122    134.1967    172.0310   1.1840594312e+02   2.2493948507e+01    0.1905026    0.1613185  15.50 0.0007708893    1.325    0.245
        97 -10.0013     25.9253    172.1859   1.4055013797e+02   3.6170733962e+01    0.1557534    0.1053121  66.12 0.0003591862    1.188    0.158
        98 -10.4948     75.9896    186.0000   1.3188868151e+02   2.8392519295e+01     0.184605    0.1206546  54.04 0.0007135382    1.292    0.226
        99 -10.7784    132.2175    246.7881   1.2756961747e+02   1.2065361862e+01    0.1944076    0.1149945  45.03  0.000260655    1.217    0.178
       100 -10.0744    114.0095    168.4734   1.2210133537e+02   2.6293969504e+01    0.1760166    0.1598069 -76.89 -0.0001413902    1.194    0.162
       101 -11.4740     83.0993    169.2223   1.2871578104e+02   3.0522600939e+01    0.3287467     0.139641  40.52   0.00167057    2.083    0.520
       102 -11.9521     72.4668    168.2392   1.3083613427e+02   3.2044877981e+01    0.2667636    0.1647575  79.64  0.001580662    1.779    0.438
       103 -11.2950     68.9996    167.2628   1.3146050732e+02   3.2646963356e+01    0.1779856    0.1517978  74.50 0.0005035067    1.030    0.029
       104 -10.7006    102.8029    166.7117   1.2423721598e+02   2.8278044819e+01    0.1858218    0.1497993  24.43  0.001183708    1.432    0.302
       105 -10.4021     96.0112    166.0451   1.2559838905e+02   2.9369268519e+01    0.1765958    0.1547673  60.79 0.0003534502    1.002    0.002
       106 -10.1307    139.8760    165.1978   1.1615337723e+02   2.2707091602e+01    0.1902825    0.1617524  55.37 0.0005159443    1.174    0.148
       107 -10.5997     56.0360    164.4964   1.3390437889e+02   3.4655559608e+01    0.2146398    0.1350401  83.46  0.001186714    1.563    0.360
       108 -10.5317    128.4779    163.7955   1.1833818387e+02   2.4841920114e+01    0.2986427    0.1846516  65.86  0.001191372    2.225    0.550
       109  -9.9336    227.3364    237.3319   1.1109555065e+02  -3.7287323082e-01    0.1139746   0.07734198  26.18  0.000840002    1.005    0.005
       110 -10.6186    205.0546    167.1033   1.0354662339e+02   1.0806887464e+01    0.1984904    0.1621259  22.66 0.0004628813    1.024    0.024
       111 -10.3778    243.2886    160.4247   9.5490220792e+01   4.8131282469e+00    0.2167203    0.2045264 -18.79 0.0008325286    1.536    0.349
       112 -11.0803    121.0478    162.1773   1.1967881297e+02   2.6327160795e+01     0.203097    0.1860081 -60.23  0.001060311    1.206    0.171
       113 -11.8458    145.9925    158.4817   1.1373114338e+02   2.2798692547e+01    0.4961138    0.3225328  -6.90  0.002256858    2.726    0.633
       114 -10.9107    138.5645    159.4593   1.1548135765e+02   2.3915785482e+01    0.2529428    0.1949565  55.94 0.0008104195    1.325    0.245
       115  -9.1349     31.2809    158.6019   1.3857300550e+02   3.8259142208e+01    0.1173133     0.062241  69.40 0.0001193685    1.764    0.433
       116 -10.4170     16.2853    156.4446   1.4150675808e+02   3.9939963997e+01    0.2425009    0.1297925 -67.85  0.001601292    1.750    0.428
       117 -11.4054     77.1454    154.6951   1.2828991672e+02   3.4065065871e+01    0.2773892    0.1742673 -78.20  0.001611451    1.674    0.402
       118 -12.3013    121.1329    150.3707   1.1777353094e+02   2.8481170399e+01    0.4020825    0.3192154  65.31  0.001159658    1.352    0.260
       119 -10.0304    249.8473    153.3837   9.2969304234e+01   4.4605334281e+00    0.1753674    0.1496228  37.63 0.0006139724    1.442    0.306
       120 -11.1058      7.9877    153.0426   1.4299699796e+02   4.1220836242e+01    0.1782712    0.1617868 -15.86            0    1.667    0.400
       121 -11.1014     14.7101    149.7041   1.4141968774e+02   4.1370339779e+01    0.2445046    0.1623574 -57.13 0.0002449016    1.721    0.419
       122 -12.3472     11.1338    146.4237   1.4196972882e+02   4.2281290473e+01    0.3368432    0.1877376  88.11 0.0003711518    1.475    0.322
       123 -11.6671    129.1021    149.8544   1.1590264468e+02   2.7247230399e+01    0.4378443    0.2255458  56.07  0.001599588    2.394    0.582
       124 -11.2427    108.6930    150.3049   1.2056916746e+02   3.0475131676e+01     0.268051    0.1950638 -75.23  0.001243027    1.583    0.368
       125 -11.4658     41.8959    150.7427   1.3567236415e+02   3.8809280476e+01    0.2532365    0.1980705 -75.25   0.00127806    1.214    0.176
       126 -10.5532     73.9935    150.2987   1.2845676538e+02   3.5332944786e+01    0.1650262    0.1409419  55.06 0.0003966638    1.113    0.101
       127  -9.4117     34.4945    150.5115   1.3726399338e+02   3.9554437535e+01     0.109271    0.0891586  81.82 0.0008104641    1.022    0.021
       128 -10.9697     90.9959    147.5300   1.2419695314e+02   3.3629008882e+01    0.2750895    0.1963035  45.76  0.001471325    1.320    0.242
       129 -10.0358     36.6489    147.0287   1.3649777327e+02   4.0052559765e+01    0.2057123    0.1217149  63.58 0.0009315572    1.581    0.367
       130 -10.9552    114.0737    139.8526   1.1759141850e+02   3.1649027537e+01    0.2006646    0.1686661  64.56 0.0005863119    1.223    0.183
       131 -11.6973    143.4149    188.2457   1.1892407646e+02   1.8403209372e+01    0.2817119    0.2065638 -63.18  0.001167455    1.774    0.436
       132 -10.5225     32.4875    135.0470   1.3636617952e+02   4.2876800175e+01    0.2630337    0.1442242 -54.48  0.001228826    1.934    0.483
       133  -9.4257    236.6171    187.2207   1.0169667538e+02   3.0186400694e+00    0.1577638    0.1000966  -7.67 0.0008328757    1.559    0.358
       134 -12.2585    104.4301    132.1324   1.1853245611e+02   3.4731239531e+01    0.7428001    0.2461267  46.85   0.00272753    3.184    0.686
       135 -12.3522     99.9060    117.4543   1.1691711642e+02   3.8478885225e+01    0.4869256    0.3401538  17.11 0.0002986296    1.905    0.475
       136  -9.4346     25.6534    131.2666   1.3762552580e+02   4.4238994359e+01    0.1146312   0.06787606  64.24  0.000223564    1.612    0.380
       137 -10.5591      6.9225    130.9770   1.4192274892e+02   4.5671181861e+01    0.1564204    0.1199976  87.25 0.0002825417    1.011    0.011
       138  -9.2799     54.9763    129.0556   1.3029679899e+02   4.1942643974e+01    0.1432979    0.1196453 -83.60 0.0004452849    1.056    0.053
       139 -10.0801     41.6685    131.0081   1.3378226558e+02   4.2881987986e+01    0.1608464     0.125328 -84.44 0.0008543594    1.099    0.090
       140  -9.9641     19.7585    128.0471   1.3874014468e+02   4.5371167494e+01      0.18017    0.1186409  74.07  0.001209683    1.355    0.262
       141 -10.7406     41.0129    126.3156   1.3342661221e+02   4.3938583768e+01    0.3018321    0.1589613  37.43  0.001352334    1.953    0.488
       142 -10.3038     47.9170    124.9677   1.3154723434e+02   4.3553049666e+01    0.1756043    0.1505569 -89.14 0.0003452317    1.006    0.006
       143  -9.9856     12.1159    123.8421   1.4021640786e+02   4.6796656581e+01     0.143268     0.110844 -65.72 0.0005305617    1.293    0.227
       144  -9.5841     29.3126    118.6781   1.3552704703e+02   4.6605608536e+01    0.1198627   0.07296144  70.02 0.0007038979    1.654    0.395
       145 -10.7110    129.0839    117.5011   1.0952731009e+02   3.3446863864e+01    0.2114383    0.1350188  42.71 0.0006516248    1.528    0.345
       146 -10.6420     90.1241    116.8774   1.1936173391e+02   4.0089890617e+01    0.2002444    0.1693628  85.93 0.0003397082    1.252    0.201
       147 -11.0178    110.6995    185.1135   1.2495161188e+02   2.3902505903e+01    0.3108215    0.2250547 -73.45  0.001686004    1.613    0.380
       148 -10.8811     56.8631    116.3454   1.2808037497e+02   4.4476722699e+01    0.2626912    0.1711909 -67.97  0.000351818    1.377    0.274
       149 -10.1359     54.8811    112.0600   1.2797501237e+02   4.5631780697e+01     0.189462     0.162717 -76.11 0.0004160953    1.026    0.025
       150 -11.6233    101.8806    124.8161   1.1782799079e+02   3.6631971286e+01    0.3649884    0.2475741 -21.72  0.001265745    2.271    0.560
       151 -12.3319    126.1395    109.3591   1.0840113071e+02   3.5615562820e+01      0.59828    0.3146714  38.35  0.002579732    1.928    0.481
       152 -10.0955     54.9891    188.0424   1.3609028729e+02   3.0456629560e+01    0.1809978   0.09766347  65.61  0.001131962    1.736    0.424
       153 -11.0718    135.8033    109.5034   1.0601470157e+02   3.3732707154e+01    0.4029918    0.2744141 -80.03      0.00165    2.701    0.630
       154 -11.7694    112.4023    109.7499   1.1203342176e+02   3.8019878110e+01    0.3392391    0.2543603 -56.88  0.001073254    1.376    0.273
       155 -11.2156    100.3432    106.5338   1.1453293667e+02   4.0719782205e+01    0.3509913    0.2942325  21.54   0.00102631    1.333    0.250
       156  -9.7211     15.5754    107.4706   1.3794510314e+02   5.0047886449e+01    0.1130781    0.0887571 -80.67 7.445861e-05    1.033    0.032
       157 -10.7309     29.1920    106.4935   1.3419864210e+02   4.9265108048e+01    0.2953223     0.174019  57.51  0.001587193    1.814    0.449
       158  -9.5983     64.0032     97.5176   1.2294260666e+02   4.7823432478e+01    0.1771402     0.128779  31.70  0.001016374    1.546    0.353
       159 -10.4091    107.4465     90.1469   1.0865505322e+02   4.2980636672e+01    0.2823378    0.1314179 -42.98  0.001135111    2.109    0.526
       160 -10.5897     92.4220    185.2660   1.2859071241e+02   2.6418525897e+01    0.2000599    0.1036967 -57.82  0.001142118    2.146    0.534
       161 -10.0618     87.2630     88.8242   1.1417635821e+02   4.6593050409e+01    0.2793485    0.1778683 -37.09  0.001358872    1.679    0.404
       162 -11.4515    116.2372     84.8554   1.0476523989e+02   4.2453583754e+01    0.3709269    0.2953887  49.29 0.0007174955    1.346    0.257
       163 -10.6559    223.4489    183.5802   1.0328868742e+02   5.5870824281e+00    0.4811756    0.1798914 -22.65  0.001684117    3.511    0.715
       164  -9.8560     49.0955     84.6866   1.2501492334e+02   5.2354919940e+01     0.232495    0.1012996  37.35  0.001087848    2.508    0.601
       165 -10.0294     58.9182     83.0293   1.2157433615e+02   5.1665681265e+01    0.1995576    0.1719997 -56.26 0.0004966293    1.031    0.030
       166  -9.7091      3.4532     82.4966   1.3883951177e+02   5.6211386169e+01    0.1140672    0.0860666 -74.49 0.0001275512    1.035    0.034
       167 -10.7125     95.0823     78.5473   1.0916377232e+02   4.7556841829e+01    0.4169573    0.2655587 -31.20  0.001679005    1.752    0.429
       168 -12.4066    124.7664     69.0809   9.7685127163e+01   4.3849635615e+01    0.6307363    0.3137867 -29.72  0.001654671    2.251    0.556
       169 -13.0758    126.1795     77.2191   9.9816718254e+01   4.1994633889e+01    0.3894778    0.3423776  29.01 0.0006427144    1.141    0.124
       170 -12.9436    131.1149     72.2834   9.6975936715e+01   4.1895863617e+01    0.8648537    0.5779718  65.60  0.003685038    2.120    0.528
       171 -11.1118    101.7586     78.8049   1.0723164794e+02   4.6357782979e+01    0.2211721    0.2042865  33.31 0.0002711191    1.139    0.122
       172 -10.2931     80.0955     75.4025   1.1297563749e+02   5.0587138032e+01    0.2510353    0.1835713 -57.22 0.0004828806    1.320    0.242
       173 -12.2035    221.1318    177.6731   1.0262237999e+02   6.6610118544e+00    0.5104116    0.2963004  34.76  0.002587089    1.415    0.294
       174 -11.1031    105.1904     73.0714   1.0454346336e+02   4.6924644971e+01    0.2657607    0.1978246 -60.33 0.0007653388    1.566    0.361
       175  -9.8182     21.1652     73.0732   1.3200997530e+02   5.7309940283e+01    0.2133281    0.1263385  56.10  0.001037325    2.064    0.515
       176 -10.7836    119.9507     69.7463   9.9237181818e+01   4.4720462901e+01    0.3538091    0.2632354  66.70   0.00118682    1.823    0.452
       177 -10.7871    101.6401     68.9758   1.0437045467e+02   4.8406856216e+01    0.3081939    0.2229248  32.24 0.0007297149    1.476    0.323
       178 -14.8205    190.0815     73.7283   8.3920566884e+01   2.7835919906e+01     0.742035    0.4766842  51.84  0.002504277    1.573    0.364
       179 -10.9346     93.3773     67.8156   1.0658045563e+02   5.0095953723e+01     0.237353    0.2112685   6.90 0.0003086705    1.181    0.153
       180 -10.9155    107.6225     66.1984   1.0169073789e+02   4.7852216608e+01    0.2116214    0.1308338 -32.35 0.0005669908    1.630    0.387
       181 -14.8037    211.0905     63.8361   7.7249759191e+01   2.4109119956e+01    0.7229884    0.5534013  14.93  0.001705722    1.336    0.252
       182  -9.6740     23.4419     65.4884   1.2993903951e+02   5.8864567857e+01    0.1217614   0.09648582 -64.87 8.630237e-05    1.010    0.010
       183 -10.9209     13.0649     64.5134   1.3340531833e+02   5.9719582985e+01    0.1445581     0.118104  16.95 0.0009609107    1.566    0.362
       184 -11.0852    157.2862    180.9121   1.1512522320e+02   1.7247969021e+01    0.3714447    0.2268477  60.75   0.00188114    2.226    0.551
       185 -10.9658    129.9818    192.3837   1.2208384540e+02   1.9857472143e+01    0.1785902    0.1660295  86.08 0.0003023242    1.231    0.187
       186 -11.6364    100.0729     61.6828   1.0253967963e+02   5.0161473171e+01      0.40115    0.3151399 -73.17  0.001987181    1.776    0.437
       187 -10.9055     18.3311     62.0781   1.3113734467e+02   5.9960182934e+01    0.2709997     0.164108 -73.99 0.0005703851    1.408    0.290
       188  -9.8107    113.9754     61.7174   9.8346748027e+01   4.7475264875e+01    0.2011299    0.1841876  22.79 0.0002488598    1.104    0.094
       189 -10.5214    128.4634    188.1115   1.2182501148e+02   2.0763450049e+01     0.178405     0.150169 -74.75 0.0004649565    1.418    0.295
       190  -9.8522    113.9042    193.4787   1.2531948055e+02   2.2064415905e+01    0.1736225   0.09555829  41.82 0.0003347068    1.511    0.338
       191 -11.1706     46.4401     58.0497   1.1995785799e+02   5.8595127941e+01    0.2502429    0.1970188  22.28 2.466544e-05    1.495    0.331
       192 -11.1880     89.3225     57.5783   1.0464075215e+02   5.2881801298e+01    0.4348729    0.2545659  54.23  0.001890326    2.352    0.575
       193 -10.1748     36.7059     54.6288   1.2274385174e+02   6.0270840740e+01    0.3794839    0.1470211 -37.15  0.001519901    3.169    0.684
       194  -9.9536     36.3589     51.1605   1.2199574623e+02   6.1067043887e+01    0.1864413    0.1647076  79.60 0.0007383967    1.377    0.274
       195 -10.1546    106.3011     51.3357   9.7050364654e+01   5.0964647286e+01    0.2568121     0.212634  -3.90 0.0006678119    1.226    0.184
       196  -9.2503     65.6734     52.7045   1.1129504559e+02   5.7488108370e+01    0.1382457   0.09579864 -21.70 0.0004846576    1.627    0.385
       197 -10.3282     24.5097     51.8124   1.2677542873e+02   6.1851623015e+01    0.2211781    0.1391269  67.71 0.0008597219    2.310    0.567
       198 -10.3238     29.0882     50.5506   1.2469114204e+02   6.1797273178e+01    0.2755092    0.1104766 -49.32  0.001148155    1.965    0.491
       199 -12.0698    123.2392     48.7183   9.1145774048e+01   4.7864367387e+01    0.4144639    0.2918473  54.06  0.001485632    1.580    0.367
       200 -11.5682    140.0650     45.3838   8.5523054913e+01   4.4508312469e+01    0.4743863    0.3116384 -40.33  0.001188459    1.601    0.375
       201  -9.5396     10.5465    192.7737   1.4437201140e+02   3.3832253174e+01    0.1270783   0.06766309  78.13 0.0004397526    1.513    0.339
       202  -9.2748     21.4607    182.4904   1.4196823959e+02   3.4698799322e+01    0.1004756   0.07507165  71.74 0.0004116019    1.004    0.004
       203 -11.9037    129.1947    180.1167   1.2059898354e+02   2.1946814718e+01    0.2336945    0.2288496  50.35  0.001697232    1.151    0.131
       204  -9.5634     33.3075     44.3316   1.2138089790e+02   6.2822983370e+01    0.1332132   0.07616913 -37.11 0.0007040052    1.665    0.399
       205  -9.8268     19.6632     43.3130   1.2674933521e+02   6.4050604037e+01    0.1141794   0.08613198  77.61 0.0005067314    1.690    0.408
       206 -10.9653    125.7564     40.6283   8.7429731743e+01   4.8628966435e+01    0.5254744    0.2634709  26.44  0.001788402    2.992    0.666
       207  -9.7063    101.7817    179.9742   1.2612011767e+02   2.6054360213e+01    0.1981504    0.1215684  74.99  0.001079544    2.132    0.531
       208 -11.2037    117.0419     45.6023   9.1742488697e+01   4.9755907588e+01    0.3747324    0.2976154  88.76  0.001762723    1.958    0.489
       209 -11.1744     33.3638    178.7120   1.3953302758e+02   3.4304286972e+01    0.3050585    0.1305801 -81.05  0.001104184    2.208    0.547
       210 -10.2973    134.9262     37.2769   8.3771555181e+01   4.6980731353e+01    0.2776324    0.2095638 -14.06 0.0001865853    1.309    0.236
       211  -9.1819    105.6950     37.2915   9.1901883077e+01   5.3569513077e+01    0.1376078    0.1181898 -66.12 0.0002145437    1.574    0.365
       212 -11.1754    123.3074     34.3652   8.5646721386e+01   5.0164539118e+01    0.2972317    0.2173853   9.31 0.0007443078    1.475    0.322
       213 -10.5173    152.4071     32.7482   7.8024243347e+01   4.3254984209e+01    0.2665957    0.2212855  -9.47 0.0008700456    1.175    0.149
       214 -10.5010    236.0353    177.3792   9.9999881715e+01   4.1682996562e+00    0.2209932    0.1737252  27.33  0.001000339    1.185    0.156
       215 -10.6735    132.7777     31.2524   8.1965341148e+01   4.8371196155e+01    0.4217353    0.2528625 -20.95  0.001234296    1.671    0.402
       216 -10.1836     71.5513     32.4559   1.0172761615e+02   6.0668553237e+01    0.1398499    0.1174545 -20.79 4.282974e-05    1.028    0.027
       217 -11.4839    140.9080     30.0852   7.9565657113e+01   4.6525742464e+01    0.2663511    0.2289253  20.11  0.001373142    1.094    0.086
       218  -9.5173     91.8093     31.2020   9.3880000971e+01   5.7360704950e+01    0.2040415    0.1554688   1.39   0.00059967    1.354    0.262
       219 -10.3472     21.6242     30.9377   1.2257352132e+02   6.6597735567e+01    0.1839227    0.1400615 -34.55 0.0003191734    1.202    0.168
       220 -10.3555     48.7086     29.3978   1.0985987325e+02   6.4393538411e+01    0.3467083    0.2096573  -1.96  0.001025885    2.301    0.565
       221  -9.2567     15.6525     29.2655   1.2483942211e+02   6.7337612436e+01     0.105403   0.08704493  75.79 0.0003919392    1.612    0.379
       222 -10.5698    250.5240     27.5813   6.1882273590e+01   1.8903332901e+01    0.2258623    0.1676631  -1.84 6.495172e-05    1.377    0.274
       223 -11.6083    250.3996     24.0345   6.0954327212e+01   1.9284417095e+01    0.2545801    0.2053185 -17.94 0.0004783198    1.146    0.128
       224 -10.7411     65.4001     26.5343   1.0166397534e+02   6.2698499670e+01    0.3698212    0.1823492 -52.88   0.00148185    2.693    0.629
       225 -10.9354    223.2209    245.3972   1.1282168167e+02  -4.8673920806e-01    0.1648273    0.1238082   8.81 0.0005542824    1.287    0.223
       226 -10.2028    153.3501     25.5091   7.5119037478e+01   4.3931152746e+01    0.3058184    0.2208757 -62.87 0.0006371478    1.881    0.468
       227 -10.8630    249.1668     33.4494   6.3582959899e+01   1.8614183394e+01    0.2310404    0.1744974 -18.71 0.0004102086    1.211    0.174
       228 -10.2294     99.0616     25.7315   8.9145489088e+01   5.6800319556e+01     0.202566    0.1732769  11.73  0.000349996    1.088    0.081
       229 -11.4311    233.6390    172.3204   9.9453362052e+01   5.1351569946e+00    0.2972918     0.285862  19.35  0.001919849    1.523    0.343
       230 -10.3888     41.8362     20.9557   1.0953248475e+02   6.6821727589e+01    0.3530632    0.2501597 -74.64  0.001352907    2.502    0.600
       231 -11.9450    148.2744    176.9384   1.1629478518e+02   1.9371623108e+01    0.4253728    0.2290087  53.60   0.00210497    2.027    0.507
       232 -11.8774    226.1111    241.5640   1.1186272664e+02  -5.6394742210e-01    0.2924785     0.205272  37.72  0.001418304    1.355    0.262
       233 -11.2993    161.1734    176.5612   1.1366652539e+02   1.7247916578e+01    0.3075924    0.2530664 -45.91  0.001902763    1.461    0.316
       234  -9.9413     19.4781     17.5005   1.1914327923e+02   6.9536908610e+01    0.1214526   0.09383704 -44.41 8.805066e-05    1.043    0.041
       235 -10.6618    122.9439    175.6411   1.2124501461e+02   2.3671075852e+01    0.1760235    0.1370338  48.11  0.000626103    1.119    0.106
       236 -10.7342     91.6780     16.0463   8.7137879439e+01   5.9741690111e+01    0.2022454    0.1655667 -11.97 0.0003362193    1.089    0.081
       237  -9.6569      5.9678     15.2849   1.2542474074e+02   7.0790570710e+01    0.1545789    0.1172889 -44.81 0.0003258974    1.070    0.065
       238 -11.0532     89.4702    190.8945   1.2975234621e+02   2.5845620565e+01      0.22452    0.1392717  27.05  0.001342718    1.957    0.489
       239 -11.1199    247.3800    174.0119   9.7475619113e+01   2.6455319371e+00    0.2121653    0.1539204  24.40 0.0001794859    1.121    0.108
       240 -11.8324    214.8436    244.2440   1.1398470717e+02   7.8378218232e-01    0.2749735    0.1795454  42.45 0.0004484947    1.450    0.310
       241  -9.3798     94.8501     11.3722   8.3875813404e+01   5.9720291901e+01    0.1989628    0.1169955  36.63 0.0005608589    1.661    0.398
       242 -10.0480    142.1140    242.6464   1.2556811800e+02   1.1218671675e+01    0.1577328    0.1319591  66.25  0.001149471    1.396    0.283
       243 -10.3255     65.8717    242.3640   1.3780725213e+02   2.0782687526e+01    0.1466856     0.109782  74.18 0.0002426231    1.243    0.195
       244  -9.5683      2.4715    243.5107   1.4722376185e+02   2.6698920155e+01    0.0847668   0.05636975  62.84 -2.715576e-05    1.045    0.043
       245  -9.6185     56.7982    241.7534   1.3917734150e+02   2.1846742845e+01    0.1249441   0.07614465  62.73 0.0006694209    1.272    0.214
       246 -10.7976     75.1321    189.2364   1.3235354416e+02   2.7934588554e+01      0.22634    0.1672835  82.29 0.0003890059    1.304    0.233
       247  -9.9264     32.4936    242.5101   1.4288058672e+02   2.4183520900e+01   0.08980677   0.06218874  59.96 0.0002028411    1.037    0.036
       248 -10.6806     14.1899    241.9319   1.4552501506e+02   2.5929517771e+01    0.1707466    0.0929817  58.76 0.0009286416    1.226    0.185
       249 -10.7055    126.7970    238.2878   1.2767490768e+02   1.3837811890e+01    0.2402451    0.1363732  38.85  0.001102485    1.362    0.266
       250  -9.6671    192.4554    236.9534   1.1665386484e+02   4.6812246585e+00    0.1155328   0.09515422 -86.11 0.0008077213    2.441    0.590
       251 -10.9748    235.9153    234.9288   1.0941378751e+02  -1.3774507677e+00    0.3021201    0.1365523  34.36  0.001315857    1.565    0.361
       252 -10.0551    217.0382    234.0058   1.1227821306e+02   1.3973504031e+00    0.1518527    0.1167633  46.80  0.000643103    1.633    0.388
       253 -11.4805    198.3575    229.8341   1.1476379242e+02   4.5417855316e+00    0.2668624    0.1658857 -37.95  0.001812657    2.184    0.542
       254  -9.9385     32.0074    233.4717   1.4258654884e+02   2.5518301271e+01    0.1355201   0.06974955  41.38   0.00103276    1.598    0.374
       255 -10.7633    175.7958    232.0181   1.1880367114e+02   7.6438142839e+00    0.3143542    0.1211764  41.72  0.001246841    1.919    0.479
