#   1 NUMBER                 Running object number                                     
#   2 MAG_AUTO               Kron-like elliptical aperture magnitude                    [mag]
#   3 X_IMAGE                Object position along x                                    [pixel]
#   4 Y_IMAGE                Object position along y                                    [pixel]
#   5 X_WORLD                Barycenter position along world x axis                     [deg]
#   6 Y_WORLD                Barycenter position along world y axis                     [deg]
#   7 A_WORLD                Profile RMS along major axis (world units)                 [deg]
#   8 B_WORLD                Profile RMS along minor axis (world units)                 [deg]
#   9 THETA_WORLD            Position angle (CCW/world-x)                               [deg]
#  10 FWHM_WORLD             FWHM assuming a gaussian core                              [deg]
#  11 ELONGATION             A_IMAGE/B_IMAGE                                           
#  12 ELLIPTICITY            1 - B_IMAGE/A_IMAGE                                       
         1 -12.5166    216.1144     23.0672   4.0187887772e+01   2.8283273018e+01     1.339999    0.8789479  36.35  0.006781674    2.141    0.533
         2 -12.3598    203.5782     36.0380   4.4912518537e+01   2.9712894981e+01     1.045889    0.8176494  45.98  0.005112163    1.440    0.306
         3 -10.5707      7.7741     15.0114   9.5109004920e+01   7.1799029678e+01    0.2163437    0.1512459 -29.29  0.001516009    1.062    0.058
         4  -8.9702     55.7481      5.9864   6.7047931188e+01   6.7182685834e+01    0.2184336    0.1640768  72.65  0.001182427    2.689    0.628
         5  -9.6164    241.0821      1.6960   3.3200623177e+01   2.4965126080e+01      0.49797    0.1494907  76.50  0.002045565    3.217    0.689
         6  -9.6397     53.9257    231.1581   1.1943729831e+02   1.9955071429e+01    0.2763624    0.1559764 -81.66  0.001516965    1.761    0.432
         7 -13.7581     85.4810    229.2178   1.1313105321e+02   1.6107888718e+01     3.608057     1.631724  44.66    0.0140312    1.825    0.452
         8 -10.3546     65.5276    178.0220   1.1167522695e+02   2.9737935898e+01     0.415121    0.2730615 -40.21  0.002106426    2.051    0.512
         9 -10.3430     70.5434    172.6687   1.0976641881e+02   3.0300572463e+01    0.3674957     0.314284  -9.27 0.0008696197    1.624    0.384
        10 -11.8080      8.6078    187.6369   1.2520145041e+02   3.3770176154e+01    0.5107563    0.4097187  78.67 0.0006638069    1.084    0.078
        11  -9.5369     42.6460    178.3469   1.1705432629e+02   3.2474105675e+01    0.4113638    0.2845798  -3.32  0.001539252    2.622    0.619
        12  -9.6145    100.5964    170.9281   1.0210854250e+02   2.6132101691e+01    0.3781484    0.2199133  67.38  0.001545825    2.400    0.583
        13 -11.8207     67.0813    159.0768   1.0869919467e+02   3.3996974166e+01    0.5527102    0.4478491 -29.69  0.001332947    1.596    0.373
        14 -12.0685     68.5083    144.5489   1.0602329166e+02   3.7328412998e+01     1.236286    0.6938035  84.70  0.004862147    2.791    0.642
        15 -11.1631     80.0528    163.0331   1.0598411361e+02   3.1214008530e+01    0.6699926    0.4681678  49.05 0.0008074752    1.418    0.295
        16 -10.7397     85.9355    156.9854   1.0347890027e+02   3.1767374950e+01    0.6111446    0.4458094 -15.80  0.001291556    2.115    0.527
        17  -9.4933     32.8364    155.8483   1.1697636446e+02   3.8769848032e+01    0.3006797    0.1491519 -80.62   0.00131338    1.892    0.471
        18  -9.7587     21.9097    149.1086   1.1897808286e+02   4.1381729553e+01    0.1979927    0.1455614  77.20  0.001222956    1.262    0.208
        19  -8.9875     32.5243    143.9586   1.1564984474e+02   4.1646648284e+01    0.2072921    0.1090793 -70.85  0.001037185    1.606    0.377
        20  -7.7203    198.5147    222.5440   8.9326444660e+01  -9.4776018716e-01    0.1289819     0.108282  21.52 0.0002956899    1.055    0.052
        21  -9.3478    101.1303    141.0112   9.6407650621e+01   3.3108539528e+01    0.5289593    0.3217777 -25.90  0.002023423    2.687    0.628
        22 -10.3299     88.1770    141.1765   9.9995539445e+01   3.5234029941e+01     0.285606    0.2541477 -36.05 0.0005080134    1.227    0.185
        23  -8.5508     81.2791    141.3659   1.0193896128e+02   3.6263584190e+01    0.2496668    0.1737463  49.15 0.0007623976    1.502    0.334
        24 -10.8932     58.4360    131.0094   1.0652347241e+02   4.1969084351e+01    0.9104784    0.3534983 -74.64  0.002848354    4.036    0.752
        25  -8.4547     32.1546    138.1677   1.1501033309e+02   4.3080571128e+01    0.1801585    0.1342037  79.92 0.0003962584    1.320    0.242
        26  -7.9456     40.0075    134.2422   1.1230034309e+02   4.3263597041e+01    0.1569012    0.1137708  29.99 0.0006846784    1.600    0.375
        27  -8.4792    110.6245    131.2028   9.1663839315e+01   3.3731223319e+01    0.2897152    0.2230104 -18.30   0.00084289    1.660    0.397
        28  -8.5532    105.8734    130.8025   9.2888909755e+01   3.4704796480e+01    0.2813619    0.2305776 -73.17  0.001206735    1.319    0.242
        29  -8.9380     97.8528    127.3544   9.4371467808e+01   3.6961565626e+01    0.3026967    0.2457893  -6.82  0.001484835    1.559    0.359
        30  -8.0333    107.2099    119.7259   8.9900025924e+01   3.7080109917e+01    0.2027742    0.1749048 -11.92 0.0004447258    1.327    0.247
        31 -13.5401     49.3349    194.9691   1.1722502617e+02   2.7969249561e+01     2.137888     1.325541  70.11   0.01209221    1.529    0.346
        32 -10.4041     17.7724    109.4406   1.1518022344e+02   5.1197385345e+01    0.2851307      0.16948 -55.82  0.001394992    1.395    0.283
        33  -8.7314     33.1790    107.6336   1.1005459603e+02   5.0391090986e+01    0.2629696   0.09023719 -67.45  0.001003787    2.650    0.623
        34  -8.1937    167.6562    112.3212   7.2344910912e+01   2.5720944444e+01    0.1627373    0.1272071 -81.80 0.0007050008    1.728    0.421
        35  -9.1117    128.0041     94.5354   7.7233560465e+01   3.8470892044e+01    0.2620867    0.2061964 -41.81 0.0009235592    1.254    0.202
        36 -13.8509     63.8721    247.3413   1.1884632765e+02   1.5697169583e+01     6.904383     2.044574  30.20  0.005828206    7.558    0.868
        37  -8.8304     41.6913     91.9759   1.0408267442e+02   5.3305343085e+01    0.1882771    0.1592127 -52.68 0.0006997005    1.012    0.012
        38 -14.5557      2.8094    178.2978   1.2579362512e+02   3.6283105958e+01     14.23839    0.4853041 -75.85   0.03028401   12.170    0.918
        39  -8.5760     51.2637     64.1240   9.3050091820e+01   5.8435774684e+01    0.2299543    0.1694091  58.04  0.000843258    2.045    0.511
        40 -14.8432      8.6942    240.3585   1.2801870897e+02   2.3228917534e+01     4.112755     2.061695 -67.46   0.02676932    2.133    0.531
        41 -10.4225     13.4978     59.8424   1.0719306494e+02   6.2824797145e+01    0.2128266    0.1919577 -33.84 0.0006357077    1.172    0.147
        42 -10.7227    189.3009     49.1178   5.0468417215e+01   3.1485177152e+01    0.6049647    0.2749797 -40.35   0.00244911    2.123    0.529
        43 -13.3308      9.3877    207.2992   1.2623767654e+02   2.9563919368e+01     1.455328     1.099984 -21.23  0.004132972    2.511    0.602
        44  -9.0280    140.5906     46.2794   5.8669670759e+01   4.4161369449e+01    0.2915479    0.2388334 -88.97 0.0009012507    1.465    0.317
        45  -7.9667    113.3094    207.3324   1.0468966131e+02   1.6144323149e+01    0.1275818    0.1058033  -7.90 0.0006688277    1.671    0.402
        46 -11.3512    194.2965     42.6013   4.7920644577e+01   3.1140202960e+01    0.5250787    0.4226762  85.99  0.001243289    1.235    0.191
        47  -7.2869     99.6522    180.7256   1.0391025162e+02   2.4056634908e+01    0.1332411    0.1116307  -7.88 0.0002960878    1.630    0.386
        48 -11.9408     39.2894    205.5725   1.2026928184e+02   2.6859863834e+01    0.6053208     0.503704  65.23  0.001280973    1.124    0.110
        49  -7.6689    143.7107     40.7072   5.6131488153e+01   4.4168204845e+01    0.1475273    0.1072176  27.92            0    1.547    0.354
        50 -12.6469     30.4728    247.4125   1.2471928490e+02   1.9682745295e+01    0.9356061    0.8360291  25.31  0.005736273    1.720    0.418
        51 -10.8721    163.1151    227.9261   9.7213011196e+01   4.0556604536e+00    0.4601279    0.3393197 -56.01  0.002696699    1.732    0.423
