#   1 NUMBER                 Running object number                                     
#   2 MAG_AUTO               Kron-like elliptical aperture magnitude                    [mag]
#   3 X_IMAGE                Object position along x                                    [pixel]
#   4 Y_IMAGE                Object position along y                                    [pixel]
#   5 X_WORLD                Barycenter position along world x axis                     [deg]
#   6 Y_WORLD                Barycenter position along world y axis                     [deg]
#   7 A_WORLD                Profile RMS along major axis (world units)                 [deg]
#   8 B_WORLD                Profile RMS along minor axis (world units)                 [deg]
#   9 THETA_WORLD            Position angle (CCW/world-x)                               [deg]
#  10 FWHM_WORLD             FWHM assuming a gaussian core                              [deg]
#  11 ELONGATION             A_IMAGE/B_IMAGE                                           
#  12 ELLIPTICITY            1 - B_IMAGE/A_IMAGE                                       
         1 -11.9125    190.8776     17.7319   3.5741068049e+02   3.4342071865e+01    0.6699304    0.6001062  79.67  0.004296098    1.203    0.168
         2  -8.4036    103.4321      3.5002   3.2231105124e+00   5.8657510278e+01    0.1432683    0.1234017  62.33 2.225882e-05    1.067    0.063
         3  -8.9651      2.0116      2.4759   5.8653309588e+01   7.9684287065e+01    0.1734924    0.1091428   9.54 0.0004829552    1.519    0.342
         4 -10.6582    121.6374    197.6449   5.4079936810e+01   1.7178915220e+01    0.3357502    0.2540161 -78.07  0.001517609    1.874    0.466
         5 -13.6605    245.4063    230.7666   3.4898299790e+01  -3.9111114023e+00     2.240408    0.7372442 -30.93   0.01216132    2.758    0.637
         6 -14.4211    234.4836    189.1846   2.9972338525e+01   2.1461228790e+00     2.888643     1.841818  25.92   0.01897608    1.512    0.339
         7 -14.0739    200.1970    185.3659   3.5153588764e+01   7.2723216345e+00     1.578304    0.9357498  17.00  0.008527534    1.740    0.425
         8 -11.5485    126.0653    230.9390   5.7394572747e+01   1.0656850164e+01    0.4076235    0.2670354 -37.59  0.002416946    1.872    0.466
         9 -12.7905     15.9446    250.2486   8.3032048704e+01   2.0175972266e+01    0.2277603    0.1359021  26.20 0.0009796473    1.514    0.340
        10 -10.7284     96.8533    193.0775   5.9654999829e+01   2.1823483554e+01    0.3563098      0.26229  -6.92   0.00125675    1.788    0.441
        11  -9.9567    155.1039    189.9003   4.5095068545e+01   1.3389646755e+01    0.1926276    0.1740011  41.29 0.0003613162    1.275    0.216
        12 -10.7648     18.9211    187.4768   8.0001637726e+01   3.2565371375e+01    0.2218414    0.1989658  38.09  0.000498354    1.182    0.154
        13 -12.2592    149.3721    178.0565   4.4358870177e+01   1.6454834282e+01    0.7078034    0.4936337 -60.63  0.002260957    1.955    0.488
        14  -9.4984    137.0242    214.7845   5.2906909948e+01   1.1814190994e+01    0.1939077    0.1803972 -18.65 0.0005656102    1.253    0.202
        15 -11.0734     27.3734    184.6339   7.7567576057e+01   3.2427957822e+01    0.2774474    0.2189412  15.68  0.001144842    1.423    0.297
        16  -9.6910     22.7585    183.2802   7.8747767990e+01   3.3180932387e+01    0.2098138    0.1997883  40.18 0.0005734836    1.206    0.171
        17 -12.0869    183.8658    179.6645   3.7256816687e+01   1.0599096676e+01    0.4004325    0.2944764 -44.22  0.002310403    1.583    0.368
        18 -12.0531    180.7562    176.5809   3.7316838165e+01   1.1589228896e+01    0.4598242    0.2657658  19.08  0.001885142    1.930    0.482
        19  -9.6528      3.3410    180.8535   8.3882260151e+01   3.5370462002e+01    0.2930939    0.1543992  37.65 0.0009895645    1.567    0.362
        20  -9.3164    101.6489    177.6685   5.6243934197e+01   2.4383890913e+01    0.2885085    0.2075569 -26.73 0.0009667088    1.791    0.442
        21 -10.0604     98.1812    175.1422   5.6804687059e+01   2.5486704430e+01    0.3140366    0.2113983  48.39  0.000477501    1.426    0.299
        22 -10.9835     11.6362    206.5565   8.2639668586e+01   2.9012129390e+01    0.3703319    0.2302028  28.20  0.001665681    1.469    0.319
        23  -9.8467      9.9987    175.8035   8.1885764596e+01   3.6033743417e+01     0.192471    0.1626711  71.11 0.0003815073    1.081    0.075
        24 -11.1530    185.8367    172.3781   3.5526224219e+01   1.1468837180e+01    0.2594742    0.2132658  -5.72  0.001135269    1.100    0.091
        25 -18.3523     52.9124    224.5366   7.3661143958e+01   2.1151905946e+01     3.798076     3.030144  44.88   0.01510052    1.034    0.033
        26  -9.2429    110.8693    169.1121   5.2412293449e+01   2.4755291973e+01    0.2181183    0.1840382  52.95 0.0003210977    1.205    0.170
        27 -11.1193     59.6603    166.1983   6.6662296571e+01   3.3185036231e+01    0.3572945    0.2663918 -88.77  0.001128834    1.425    0.298
        28  -8.3925      6.3446    168.2369   8.2595586078e+01   3.8115375364e+01    0.1149116   0.09544966 -30.94 0.0002445879    1.558    0.358
        29  -9.9980     23.0939    166.6060   7.7645261317e+01   3.7132054860e+01    0.3520521     0.217722   3.04  0.001450639    2.129    0.530
        30 -10.0670     94.4712    163.5379   5.6044828515e+01   2.8714455756e+01    0.2695985    0.2391368  10.11 0.0006891576    1.216    0.178
        31  -9.7970     96.5192    159.9816   5.4876277404e+01   2.9207153269e+01    0.3521678    0.2387506 -34.28  0.001608454    1.846    0.458
        32 -11.4431     84.6448    161.0478   5.8508716354e+01   3.0859373900e+01    0.6191805    0.3074308  53.49  0.002134192    2.305    0.566
        33 -11.2440     28.6260    152.7425   7.4913921560e+01   4.0086789615e+01    0.3565498     0.265033  83.22  0.001062876    1.281    0.219
        34 -12.0260     24.1991    149.9964   7.6108399644e+01   4.1198683977e+01    0.4636982    0.4025121 -22.85  0.001272504    1.410    0.291
        35 -11.8233     27.2418    159.6399   7.5901232120e+01   3.8474031585e+01    0.5718025    0.3851606  81.40  0.002621403    1.431    0.301
        36 -11.3990     23.2935    156.6407   7.6898186046e+01   3.9591430112e+01    0.4065049    0.3380209   8.61   0.00102976    1.398    0.285
        37 -12.2799     37.7238    156.0028   7.2321718909e+01   3.8337029882e+01    0.5154667    0.4695763  19.95  0.002309514    1.210    0.174
        38 -10.4582     17.9871    161.0131   7.8815232584e+01   3.8959543892e+01    0.2889393    0.2236316 -14.64 0.0004715269    1.684    0.406
        39 -10.3533     13.9845    161.3061   8.0034819951e+01   3.9216075400e+01    0.3014537    0.1806074 -83.93 0.0008961781    1.596    0.373
        40 -10.3625     14.5274    157.5490   7.9658592645e+01   4.0105458935e+01    0.2282891    0.1641776  28.52 0.0007126163    1.374    0.272
        41 -10.3922     62.3021    160.9222   6.5218940633e+01   3.4132873432e+01    0.2517759    0.1990511  28.42 0.0002828372    1.239    0.193
        42 -12.6894     32.9736    141.9163   7.2478392801e+01   4.2460621768e+01    0.9390727    0.4730132  -9.78  0.003260744    3.845    0.740
        43  -9.1845    107.9027    156.8750   5.1103531630e+01   2.7992387262e+01    0.2254049    0.1968073  48.98 0.0005660988    1.112    0.101
        44  -9.0900    101.7892    152.7477   5.2097289079e+01   3.0005287825e+01    0.2166492    0.1966545  13.82 0.0005152083    1.153    0.133
        45 -13.5888     43.2901    147.6821   6.9656895195e+01   3.9855604720e+01     1.245492    0.5689507  23.53  0.005049192    2.233    0.552
        46 -12.6607     54.4104    148.2132   6.6075187706e+01   3.8374216909e+01    0.7269368    0.3847432 -65.46  0.003162079    1.907    0.476
        47 -11.8617     13.1236    135.4303   7.8700431409e+01   4.5867904172e+01    0.4245505    0.3474042  39.11  0.002488886    1.200    0.167
        48 -12.5917      5.0547    141.8305   8.1788737623e+01   4.4760781049e+01    0.7260269    0.5219606  82.84  0.004136935    1.244    0.196
        49 -12.8680      3.3194    128.8123   8.1686003247e+01   4.8224332492e+01     0.887274    0.5405979 -87.28  0.004600434    1.485    0.327
        50  -9.3984    104.9735    148.2203   5.0334489539e+01   3.0504012737e+01    0.2360402    0.2029869   3.10 0.0008349072    1.313    0.238
        51 -10.9241     91.3632    146.1756   5.4002933172e+01   3.3358186905e+01    0.3193682    0.2841209 -22.67 0.0007191194    1.287    0.223
        52  -9.2209    150.9355    141.9445   3.6910959628e+01   2.3178415757e+01    0.3937151    0.2540328 -79.42  0.001387528    3.636    0.725
        53 -11.9760     15.6067    150.8536   7.8915465290e+01   4.1705303747e+01    0.6677654    0.2363117 -51.68  0.002471528    3.390    0.705
        54 -12.1261     22.1164    141.3634   7.6095690770e+01   4.3611915118e+01    0.4332728    0.3001492  -9.69  0.002183597    1.882    0.469
        55 -11.6122     20.5813    138.1371   7.6349745370e+01   4.4583436592e+01    0.3151854    0.2380941   5.75   0.00152383    1.550    0.355
        56  -8.3631    104.6308    141.2346   4.9069557849e+01   3.2206955411e+01    0.1589414    0.1106651  57.72 0.0004417004    1.602    0.376
        57  -9.8824    103.5725    133.7061   4.7832958701e+01   3.4190883615e+01     0.282492    0.2592913  11.37 0.0003796291    1.161    0.138
        58 -12.8159     20.7867    127.7227   7.5360965019e+01   4.7315239671e+01    0.5629067    0.4693216 -23.79  0.003162776    1.419    0.295
        59  -8.4678    107.4365    122.5032   4.4164940586e+01   3.6108857248e+01    0.1562002      0.15122  28.83 0.0002020654    1.042    0.040
        60  -8.6107    160.4245    152.5295   3.6965268354e+01   1.9327318127e+01    0.1413865     0.131332   7.47 0.0001883113    1.022    0.021
        61 -11.6835     33.6475    127.1730   7.0596024191e+01   4.6297065324e+01    0.3480411    0.2433899  78.94  0.001121156    1.453    0.312
        62 -10.3071    107.9776    205.7464   5.8490770715e+01   1.7655540917e+01     0.261865    0.1987655 -76.44 0.0007642518    1.737    0.424
        63  -9.8462    134.6248    240.4886   5.6671027919e+01   8.0292266067e+00    0.2685474    0.1632604 -30.21 0.0008726672    2.091    0.522
        64 -10.5839     61.2424    107.6553   5.6787216325e+01   4.8086948907e+01    0.3630151    0.2054561 -31.88  0.001220084    2.550    0.608
        65 -10.9673     66.6800    106.2944   5.4378874228e+01   4.7599697424e+01    0.4014992    0.2687497 -88.68  0.000912958    1.951    0.487
        66  -9.2111     95.8462     96.6475   4.1266896583e+01   4.4607615994e+01    0.3138554    0.2324343  70.69  0.001359038    1.679    0.404
        67  -8.8906     65.5049     96.4558   5.2501968553e+01   5.0335824826e+01    0.1522782    0.1505148  52.37 2.255229e-05    1.016    0.016
        68 -10.3990    124.0497    202.6801   5.4216050860e+01   1.5864911035e+01    0.2800073    0.2286971 -74.64 0.0004305791    1.651    0.394
        69  -9.1567    157.8410     71.1820   1.7176064475e+01   3.5145889596e+01    0.1959686    0.1776291  15.91 0.0003077732    1.292    0.226
        70  -8.4186    148.6936     69.6972   1.8566583192e+01   3.7666283557e+01    0.1506238    0.1200636  21.80 0.0003111135    1.600    0.375
        71 -10.6455    159.4746     63.5041   1.4603452570e+01   3.6006199553e+01    0.3429504    0.2837617  77.25 0.0009137503    1.218    0.179
        72 -10.4911    166.1404     61.8834   1.2958540190e+01   3.4611320168e+01    0.3360437    0.2341531 -87.74  0.001570482    1.695    0.410
        73 -10.0595    159.6734     57.4680   1.2761397037e+01   3.6907022754e+01    0.2687373    0.2029846 -81.84 0.0007564155    1.445    0.308
        74 -11.9368    172.8161     50.0516   8.4825479153e+00   3.4725091202e+01    0.8339471    0.6955873  19.77  0.004480144    1.559    0.358
        75 -10.5668    178.1246     42.0326   5.4647410054e+00   3.4518712547e+01    0.3544309    0.2933551  26.05 0.0009047898    1.576    0.365
        76  -9.3984    127.5016    248.9925   5.9114460943e+01   7.6702534339e+00    0.1964743    0.1372599  -0.00 0.0009755857    1.613    0.380
        77  -8.4589     89.0210     19.9688   1.4379563336e+01   6.0775883881e+01    0.1710521    0.1573278  56.25 0.0009586147    1.018    0.018
        78 -10.7021    124.6443    247.2139   5.9524730070e+01   8.2968306947e+00     0.257107    0.1950729 -55.98  0.001545583    1.806    0.446
