#   1 NUMBER                 Running object number                                     
#   2 MAG_AUTO               Kron-like elliptical aperture magnitude                    [mag]
#   3 X_IMAGE                Object position along x                                    [pixel]
#   4 Y_IMAGE                Object position along y                                    [pixel]
#   5 X_WORLD                Barycenter position along world x axis                     [deg]
#   6 Y_WORLD                Barycenter position along world y axis                     [deg]
#   7 A_WORLD                Profile RMS along major axis (world units)                 [deg]
#   8 B_WORLD                Profile RMS along minor axis (world units)                 [deg]
#   9 THETA_WORLD            Position angle (CCW/world-x)                               [deg]
#  10 FWHM_WORLD             FWHM assuming a gaussian core                              [deg]
#  11 ELONGATION             A_IMAGE/B_IMAGE                                           
#  12 ELLIPTICITY            1 - B_IMAGE/A_IMAGE                                       
         1 -11.8906     23.8118     46.8964   8.6413171460e+01   6.5378280018e+01    0.7872591     0.420106 -41.57  0.002030574    1.672    0.402
         2 -12.5544    105.0851     20.7312   4.5591543179e+01   5.5781709663e+01     0.316823    0.2807598 -28.00 0.0004098313    1.159    0.137
         3 -12.4361    107.8784     28.8392   4.8233983780e+01   5.4109134610e+01    0.4374503    0.3648935   4.07  0.002416927    1.277    0.217
         4 -10.1889     42.4588     31.1794   7.1818321168e+01   6.6275059533e+01    0.7860659    0.5605215  87.27  0.003589225    3.378    0.704
         5  -9.3551     48.6228     23.6422   6.5619829033e+01   6.6635617133e+01    0.6378683    0.4302727   2.13  0.002550361    1.797    0.443
         6  -9.0690     30.8575     12.2696   6.8227702844e+01   7.0996555010e+01    0.3922896    0.2779617 -19.96  0.001534255    1.275    0.216
         7 -10.3773     36.8405     26.3048   7.2240915097e+01   6.7896594649e+01    0.7234934    0.4626257 -70.78  0.003163432    3.549    0.718
         8  -9.8004     32.1336     25.1956   7.4018173819e+01   6.8696072927e+01    0.4775115    0.2975711 -62.61  0.002330179    2.447    0.591
         9  -9.8270     35.4353     17.1018   6.8463878053e+01   6.9619387983e+01    0.4968858    0.2261343 -43.22  0.001513525    2.100    0.524
        10 -11.1773     42.2530     15.8283   6.4560298902e+01   6.8826804707e+01    0.3895182    0.2165697  27.59 0.0005461661    1.994    0.498
        11  -9.7355     18.8080     22.8759   7.9898083972e+01   7.0608656892e+01    0.6220165    0.4326857  81.93  0.002998619    3.566    0.720
        12 -11.1102      7.9488     15.3817   8.2756008771e+01   7.2968816260e+01     0.440243    0.2674311 -12.36 0.0009043343    1.827    0.453
        13 -11.8175     14.4686     11.2581   7.6812960010e+01   7.3090140880e+01    0.3941741    0.3521995 -55.41 0.0002464554    1.459    0.315
        14  -9.8753     15.1346      4.6382   7.2776058634e+01   7.4093083373e+01    0.2334024    0.1768232 -46.56 0.0007698973    1.494    0.331
        15 -10.3203     18.2233      1.8315   6.9236131787e+01   7.4161735466e+01    0.2634913    0.1689199  15.22 0.0006526968    1.626    0.385
        16 -10.8115     24.9920      6.9492   6.8389966492e+01   7.2569261761e+01    0.2342249    0.2019256   8.94 0.0007244064    1.183    0.155
        17  -9.8489     21.4881      5.5254   6.9533713339e+01   7.3220239435e+01    0.2653469    0.1897178 -14.80  0.001167949    1.252    0.201
        18  -9.6194    144.3387     17.8016   3.6721275395e+01   4.6463169272e+01    0.4874578    0.2234695 -25.05  0.002033521    2.250    0.555
        19 -10.5541    146.0579     12.5328   3.4611761217e+01   4.6569120804e+01    0.7526774    0.3296922  70.94  0.003067053    2.252    0.556
        20  -9.9607    148.6028     16.8010   3.5710879631e+01   4.5485613967e+01    0.3042912     0.222352 -50.82 0.0007415823    1.426    0.299
        21 -10.1206    131.6726     21.7887   4.0349007290e+01   4.9214487186e+01    0.3768462    0.2715139  -6.21  0.001902956    1.602    0.376
        22  -8.8400     69.5564     11.5496   5.1494991605e+01   6.4582141878e+01    0.2071705    0.1757258  16.36 0.0006166735    1.082    0.076
        23  -9.7380     78.9549     11.3507   4.8407803718e+01   6.2681527999e+01    0.2931415    0.2020571 -24.15 0.0006959077    1.440    0.306
        24  -8.5608     75.5615     12.4708   4.9998882151e+01   6.3259192109e+01    0.3759679    0.2115425 -22.03 0.0004732667    1.799    0.444
        25 -11.6642     68.5559     16.7165   5.4411493561e+01   6.4134303554e+01    0.5431821    0.4047992  40.34   0.00315167    1.310    0.236
        26 -11.9336     62.0625     17.0797   5.6942913095e+01   6.5312440220e+01    0.4433358    0.2958618  22.84 0.0003146588    1.614    0.380
        27 -10.3377    219.3223     18.9753   2.8281842282e+01   2.7801335366e+01    0.4756711    0.2996251 -61.42  0.002245937    1.537    0.349
        28  -8.6899    229.4522      9.4815   2.5127370527e+01   2.6503647562e+01    0.2074289    0.1506023 -76.30 0.0009416597    1.303    0.232
        29 -10.7524    236.7268      5.1768   2.3612540146e+01   2.5336624245e+01    0.5379907    0.4053061   5.40  0.003221162    1.844    0.458
        30 -10.6554    230.5388     14.5934   2.6290137675e+01   2.5735417533e+01     0.357584    0.2631239 -59.33  0.001201446    1.204    0.170
        31 -10.7570    166.2868     18.0068   3.3623722767e+01   4.0856683227e+01    0.3214853    0.2963611 -12.38 0.0005129615    1.187    0.158
        32 -11.1458    133.0728     12.5091   3.6653010776e+01   4.9856517828e+01    0.2942969    0.2388153 -30.76 0.0003019658    1.280    0.219
        33  -9.7813    128.3681     11.3016   3.7003970277e+01   5.1154632130e+01    0.4692209    0.2263678 -15.83  0.001288449    2.395    0.582
        34  -9.4734    127.4653      8.0000   3.5897910648e+01   5.1695757349e+01     0.419084     0.169686  64.25  0.001270996    2.230    0.552
        35  -8.7110     52.5778      8.5459   5.6177694788e+01   6.8132889023e+01    0.2879929    0.1888594  10.48  0.001318048    1.704    0.413
        36  -7.9270     49.0435      7.5371   5.7077452561e+01   6.8873252663e+01    0.2881514    0.1826943  39.00   0.00164381    1.548    0.354
        37  -8.9121     51.4647     12.2039   5.8609838807e+01   6.7851882905e+01    0.3268486    0.1766866 -42.87  0.001352709    2.092    0.522
        38  -9.6743    116.8212     15.2661   4.0735773651e+01   5.3598472044e+01    0.3161181    0.2211027  13.39  0.001305202    1.686    0.407
        39  -9.2702    210.8811     14.5986   2.7877541703e+01   3.0229344072e+01    0.2806324    0.1309303 -43.71  0.001126117    1.896    0.473
        40  -9.2831     83.8456     14.2754   4.8358316023e+01   6.1306547179e+01    0.2360736    0.2078045  10.48  0.001176023    1.072    0.067
        41 -10.9119    176.2358     13.1863   3.0914554317e+01   3.8840258384e+01     0.737604    0.3252241  74.95  0.003068577    2.276    0.561
        42  -9.8919    184.2556     12.5656   2.9854974301e+01   3.6896003129e+01    0.2853754     0.216422 -44.93 0.0008395648    1.261    0.207
        43  -9.6836     92.5983      8.2395   4.3190779665e+01   6.0027156947e+01    0.7811222     0.140055  49.85  0.002414399    4.166    0.760
        44 -10.6719     97.0371     12.4772   4.4001912450e+01   5.8576638252e+01    0.4363669    0.3121602  -9.74 0.0005122429    1.481    0.325
        45  -9.4029    101.6606     10.9476   4.2224648033e+01   5.7667505238e+01    0.2865068    0.2134417 -77.93  0.001463454    1.767    0.434
        46  -9.1756    218.6617     11.3248   2.6389701439e+01   2.8757071173e+01    0.2561852    0.1566053 -54.09  0.001187964    1.488    0.328
        47  -9.6692    215.9807      8.3198   2.5833406838e+01   2.9678503948e+01    0.4123412    0.1594555 -82.53  0.001477914    3.760    0.734
        48 -10.4283    218.1875      3.2445   2.4384136960e+01   2.9664313635e+01     0.350789    0.2708834  35.06  0.001812288    1.680    0.405
        49  -9.4862    245.1098     10.3568   2.4279053202e+01   2.3024368286e+01    0.2282435    0.1490655 -40.71 0.0003698139    1.286    0.223
        50  -9.3307    166.6853      9.1962   3.0779106338e+01   4.1645500721e+01    0.5667537    0.2970636  41.08  0.002483893    2.275    0.560
        51 -12.0267    177.6498      3.0461   2.7707987696e+01   3.9452455525e+01    0.4344138    0.2278614  60.99 0.0004748814    1.805    0.446
        52  -9.7566    225.6038     16.6215   2.7170050686e+01   2.6624286407e+01    0.3728919    0.2010836 -20.29  0.001734978    2.044    0.511
        53  -9.4973    202.3614      7.5078   2.6721436513e+01   3.2969259891e+01    0.3378414    0.1799984 -55.55  0.001631818    1.826    0.452
        54 -10.0844    191.6177      8.8632   2.8056430202e+01   3.5443852613e+01    0.3485273    0.3204378 -45.59  0.001656182    1.104    0.095
        55 -10.8365    195.1370      3.7361   2.6305463843e+01   3.5072968345e+01     0.548435    0.2706582  72.04   0.00235721    1.918    0.479
        56  -8.9419    119.9687      9.1823   3.7689918147e+01   5.3442784662e+01    0.2369628    0.1972366 -13.97 0.0007034609    1.269    0.212
        57  -8.5944     56.0197     10.3176   5.5766400393e+01   6.7297628710e+01     0.175035    0.1427432  17.36 0.0004574023    1.133    0.117
        58 -10.8471      6.8765      9.0432   8.0351808827e+01   7.4181387526e+01    0.2540127    0.1822486 -35.63 0.0009032937    1.116    0.104
        59  -9.2547    211.4013      9.2002   2.6421898062e+01   3.0658085980e+01    0.2280541    0.1591205 -65.63  0.001183765    1.346    0.257
        60 -10.7910    209.0627      3.8069   2.5199121725e+01   3.1732814955e+01    0.4359304    0.3409144 -57.09  0.001391237    1.139    0.122
        61  -8.2462     37.9799      9.7862   6.3313540542e+01   7.0351601935e+01    0.1426956   0.09363133  35.24 0.0006626772    1.561    0.359
        62  -8.4217    224.2949      8.6586   2.5295944528e+01   2.7742548067e+01    0.1393698   0.07712854 -55.71 0.0007030617    1.659    0.397
        63  -9.4931     80.6318      3.2701   4.3957028861e+01   6.3164756140e+01    0.3728895    0.1906894  29.76  0.001688823    2.227    0.551
        64 -11.5594     73.9598      4.3512   4.6426183439e+01   6.4476814472e+01    0.5077129    0.3012531 -11.28  0.002008748    1.792    0.442
        65  -8.8499     69.5343      1.5173   4.6309623549e+01   6.5672319629e+01    0.2002551    0.1656382  35.61 0.0007904969    1.106    0.096
        66  -9.5878     63.2131      6.8051   5.1218225428e+01   6.6374863306e+01    0.3132248    0.2665894  89.66 0.0008937322    1.700    0.412
        67  -8.8435    184.1224      6.2608   2.8025601165e+01   3.7543719892e+01    0.3785084    0.1695337  43.99  0.001129155    2.818    0.645
        68 -10.1448    153.0521      5.4024   3.1204988886e+01   4.5462240559e+01    0.3287273    0.2345632  36.87  0.000885207    1.550    0.355
        69 -12.0613    160.9954      2.5773   2.9319154399e+01   4.3693097360e+01    0.4316451    0.3266563  62.08 0.0006087304    1.257    0.205
        70 -10.2523    106.6425      6.2853   3.9116056229e+01   5.6946733934e+01    0.3772114    0.3492089  80.94  0.001325071    1.155    0.134
        71  -9.3931     87.5804      6.5402   4.3679509442e+01   6.1322469614e+01    0.2500792    0.2132127  62.35 0.0009396452    1.233    0.189
        72 -11.5171     91.9392      2.9397   4.0899320566e+01   6.0682465488e+01    0.2953009    0.2417811 -54.75 0.0007166045    1.465    0.317
        73  -9.7246    248.0154      4.7689   2.2833049183e+01   2.2978531875e+01      0.21546    0.1570691 -84.11 0.0002029155    1.333    0.250
        74 -10.8867    249.9716      1.5151   2.1995413785e+01   2.2891985255e+01    0.2089714     0.167687 -58.50 0.0003396489    1.025    0.025
        75 -10.7767    115.7583      2.2314   3.5655400680e+01   5.5102048293e+01    0.2869989    0.2230581 -34.18 0.0003913045    1.369    0.269
        76  -9.9913    126.8471      2.1965   3.3770387206e+01   5.2363410196e+01    0.4930798    0.2184173  43.57  0.002063589    2.321    0.569
        77  -9.2803     38.0511      3.9784   5.9941317762e+01   7.1124800703e+01    0.2135594    0.1521942 -23.56  0.001315758    1.269    0.212
        78 -10.4304     30.5350      2.3527   6.2692815214e+01   7.2464046734e+01    0.2412734    0.1712688 -40.30  0.001512608    1.571    0.363
        79  -8.6972    144.6476      1.9189   3.1094541705e+01   4.7900992514e+01    0.2454842    0.1119941 -65.22 0.0008913552    3.251    0.692
        80  -9.8543    135.4581      1.6227   3.2252819846e+01   5.0250624145e+01    0.2680427    0.1750159  81.20   0.00103687    1.549    0.355
        81  -8.9036    120.1220      1.8528   3.4740588222e+01   5.4061526123e+01    0.1957307    0.1740138 -63.91 0.0004017016    1.222    0.182
        82  -8.8558    186.0940      1.2837   2.6402214637e+01   3.7511923000e+01    0.2625508   0.09390318  66.61  0.001063597    2.491    0.599
        83  -8.4123    108.9372      1.1581   3.6470886244e+01   5.6848051818e+01     0.179668   0.09089685  66.70 0.0003974887    1.883    0.469
        84  -9.1609     51.3763      1.4125   5.2641508309e+01   6.9186486986e+01    0.2682813    0.1132494  50.44 0.0006904926    2.379    0.580
        85  -8.1220     45.3065      1.2435   5.5041240900e+01   7.0271357588e+01     0.120744   0.08097388  17.29 0.0002967694    1.497    0.332
        86  -9.3996    236.8257    121.4859   5.1177670210e+01   1.0262848090e+01    0.2271766    0.1703602  -8.82  0.001289565    1.362    0.266
        87  -9.5327    201.4712    249.5665   8.0089854663e+01  -1.1788471592e+00    0.1921005    0.1394514  24.35 0.0005648204    1.043    0.041
        88 -10.2776    115.7672    248.4752   9.4851500085e+01   1.0869009751e+01    0.2178736    0.1812111  55.67 0.0009937702    1.140    0.123
        89 -10.1965     29.2055    120.6172   9.9841877382e+01   4.7864388939e+01    0.2553724    0.1947325  69.58 0.0007149673    1.295    0.228
        90  -9.8259     32.8122    118.1150   9.8416836403e+01   4.8106178492e+01    0.2525539    0.1635614 -55.22 0.0005231883    1.469    0.319
        91 -11.0940     33.9180    114.1941   9.7497001263e+01   4.8930080777e+01    0.5030549    0.2634889  64.79  0.001834047    2.440    0.590
        92 -10.2129      4.4964    116.6579   1.0666178953e+02   5.0815695378e+01    0.3735991    0.2715216  20.11  0.002416169    1.729    0.421
        93 -10.0016     10.9065    115.9931   1.0469936992e+02   5.0516783468e+01    0.4279431    0.1974444  77.85  0.001936879    2.566    0.610
        94  -9.7140     13.9835    113.4875   1.0348599204e+02   5.0874376500e+01     0.235806    0.1869374 -83.41 0.0004854532    1.047    0.045
        95 -10.7022      4.1145    109.7781   1.0606612336e+02   5.2451261234e+01    0.4597578    0.2340286  57.73  0.002376932    2.127    0.530
        96 -11.5302     21.5350    107.2771   1.0033120701e+02   5.1734395484e+01    0.7666544     0.292038 -70.60   0.00337601    2.223    0.550
        97  -9.8454    221.4220    119.3859   5.3047572720e+01   1.3503437514e+01    0.3154901    0.2369108  31.69 0.0009414823    1.436    0.304
        98  -9.1994     93.7873    119.2681   8.0777005745e+01   3.9458207159e+01    0.2667724    0.2274892 -45.28  0.000979203    1.206    0.171
        99 -10.5660     44.9565    119.4746   9.4992149528e+01   4.6475995979e+01    0.3493944    0.2355628  36.98  0.001181785    1.598    0.374
       100  -8.7524    104.0149    119.2635   7.7984130044e+01   3.7637025563e+01    0.2032914    0.1835554  49.03 0.0003243845    1.125    0.111
       101  -9.8093     55.6187    118.2358   9.1600806395e+01   4.5474210130e+01    0.4107053    0.1938376  53.67  0.001303221    2.581    0.613
       102 -10.5842     47.6529    114.3180   9.3311177727e+01   4.7391183535e+01    0.3704661    0.2830321  71.14  0.001534175    1.379    0.275
       103  -9.3904     70.5000    116.3620   8.6827256008e+01   4.3867844560e+01    0.2345395    0.1805122  88.62 0.0003092892    1.416    0.294
       104 -10.5694     16.1505    107.9518   1.0212159657e+02   5.2015763608e+01       0.3077    0.2141535 -74.53 0.0002713915    1.192    0.161
       105  -9.3750     61.8317    113.1023   8.8767104659e+01   4.5868836125e+01    0.2669665    0.2089759 -52.29  0.001181924    1.242    0.195
       106  -8.3366    162.2710    113.6714   6.2536624012e+01   2.6881951482e+01    0.1469486    0.1162146 -72.48 0.0002505413    1.583    0.368
       107  -8.5487    234.3172    112.3044   4.9480793477e+01   1.2071879906e+01    0.1338347   0.09790006   7.14 0.0007026543    1.626    0.385
       108  -8.1710    171.7051    112.2754   6.0234206720e+01   2.5085626315e+01    0.1416163    0.1162909 -78.50 0.0002119317    1.526    0.345
       109  -8.8645     76.0569    111.9161   8.4252897833e+01   4.4069086163e+01     0.204817    0.1759657  85.89 -0.001320134    1.205    0.170
       110  -9.7725     52.4947    109.2436   9.0887508638e+01   4.8010131472e+01    0.3354707   0.08642189 -53.61  0.001037736    3.283    0.695
       111  -9.1932     78.9522    108.3080   8.2590541796e+01   4.4451566521e+01    0.3986769    0.1723371  34.18 0.0006433732    2.619    0.618
       112  -8.4385     57.9720    108.0005   8.8935094894e+01   4.7598246139e+01     0.160227    0.1426733 -70.96 0.0009480204    1.013    0.013
       113 -10.0410     44.5670     99.9268   9.1613985591e+01   5.1181872845e+01    0.4427061    0.2047026  34.91   0.00136929    2.319    0.569
       114 -10.1050     37.3223    106.4646   9.5174828327e+01   5.0424475794e+01    0.3316537     0.155452 -60.24 0.0009910553    1.809    0.447
       115 -10.3100     40.0758    101.7171   9.3432727451e+01   5.1261200936e+01    0.5047303    0.2397687 -62.93  0.001938782    1.814    0.449
       116  -8.7200     91.8565    106.1945   7.8297978361e+01   4.2765312065e+01    0.1935708    0.1703849 -21.30 0.0003165619    1.311    0.237
       117  -9.3145      8.5895    105.7014   1.0421532834e+02   5.3108193461e+01       0.1988    0.1180734 -49.79  0.001120383    1.688    0.407
       118 -10.8245     69.6753    103.6980   8.4369065006e+01   4.6959613353e+01    0.3818344    0.2538827 -31.47  0.001803068    1.935    0.483
       119  -9.4993    132.1804    103.9983   6.6914866324e+01   3.5307469035e+01    0.2454736    0.2135706  51.97 0.0003786134    1.169    0.145
       120  -9.6852    107.9903    103.8038   7.3150087754e+01   4.0301443535e+01    0.2801415    0.2079691 -57.25 0.0007146985    1.361    0.265
       121 -10.7396    101.5781    102.8534   7.4686136759e+01   4.1738211864e+01    0.4405284    0.2935245  37.40 0.0008789991    1.608    0.378
       122  -9.6382     33.8050    103.0553   9.5721029899e+01   5.1600893735e+01    0.2480521    0.1485124 -51.43 0.0009871208    1.573    0.364
       123 -10.3057    119.5094    102.5958   6.9752699698e+01   3.8255212723e+01    0.4227768    0.2852109  15.48            0    2.358    0.576
       124  -8.4501     95.0493    100.0408   7.5829129381e+01   4.3573371954e+01    0.1926755     0.166666 -85.59 0.0003025845    1.263    0.208
       125  -9.7966     77.0614    102.4380   8.1798848932e+01   4.6110922429e+01    0.3150924    0.1931505 -11.85  0.001096535    3.897    0.743
       126 -10.1012     80.2870     95.4470   7.9079024261e+01   4.7185076346e+01    0.4149164    0.2390791  55.21  0.001793366    2.133    0.531
       127 -10.7747     52.9614    102.8570   8.9473759241e+01   4.9468211217e+01    0.5352314    0.3304584  11.74 0.0004489082    2.450    0.592
       128  -9.1304     51.2741     99.3170   8.9286035545e+01   5.0518849315e+01    0.2130374    0.1871551 -81.47 0.0003950002    1.097    0.089
       129 -11.4983     21.2172    119.3713   1.0204064555e+02   4.8889398104e+01    0.5318489    0.3620943  74.20  0.003116494    1.455    0.312
       130  -8.9217    127.2727    101.9860   6.7600355946e+01   3.6763733505e+01    0.2059905    0.1913896 -43.23 0.0002567043    1.064    0.060
       131  -9.9488    114.2139    101.7809   7.0936345899e+01   3.9505543762e+01    0.3169474    0.2311308  76.60  0.001003328    1.839    0.456
       132 -11.7073    117.6872     97.9087   6.8973002321e+01   3.9617305770e+01    0.3230524     0.284189 -14.10 0.0003586771    1.291    0.226
       133  -9.7673     85.1527    102.0769   7.9262136973e+01   4.4860402107e+01    0.2891458    0.2061128  47.83 0.0006498949    1.476    0.322
       134 -10.6240      2.1098     79.4316   1.0289032046e+02   5.9672023229e+01    0.4285115     0.226211 -85.53  0.002258682    1.848    0.459
       135  -9.4971      6.7895     94.5628   1.0338551187e+02   5.5852545812e+01    0.2669278    0.2147914  61.98  0.001778515    1.331    0.249
       136  -9.8559      8.5422     98.5204   1.0332658189e+02   5.4804389603e+01    0.4517906       0.2072  86.24  0.002026578    2.564    0.610
       137  -9.0006      4.4475     98.0000   1.0460695684e+02   5.5194620815e+01    0.2528318     0.175603  20.95  0.001583844    1.776    0.437
       138  -9.8450      2.1053     92.2962   1.0467357739e+02   5.6674208902e+01     0.224331    0.1689063  75.34 0.0003845809    1.330    0.248
       139 -10.3293      2.1630     87.0649   1.0396461699e+02   5.7893207772e+01    0.4816784    0.1437114 -66.40  0.002100325    2.406    0.584
       140  -8.5341    177.1463    101.3800   5.6377404589e+01   2.5839160485e+01    0.1904078    0.1422352  65.84 0.0002533029    1.536    0.349
       141  -9.8761     16.3849     98.6861   1.0075556470e+02   5.4194470367e+01    0.2927413    0.1947442 -77.75  0.001146246    1.295    0.228
       142  -9.4366     13.1123     95.0930   1.0132440725e+02   5.5291232937e+01    0.2399612    0.2044978 -80.60  0.001612189    1.054    0.051
       143  -8.8586    184.3670     96.8979   5.3851680127e+01   2.4994164724e+01    0.2055186    0.1753002 -32.15 0.0004030401    1.130    0.115
       144  -9.3424    149.9357     97.0555   6.0876649729e+01   3.2777109602e+01    0.2213182     0.219593 -58.54 0.0002960923    1.013    0.013
       145 -10.2651    125.6732     96.7597   6.6587002985e+01   3.8178439736e+01    0.2935938    0.2707373 -32.84 0.0009636996    1.100    0.091
       146  -8.4084    111.6244     96.7672   7.0288400985e+01   4.1096178607e+01    0.2018317    0.1373763 -55.83 0.0005097859    1.523    0.344
       147  -9.1127    154.7755     96.1801   5.9571513979e+01   3.1847984717e+01    0.2038223    0.1772683  16.09 0.0006095334    1.297    0.229
       148  -9.3909     86.5682     96.0719   7.7315254831e+01   4.5974387144e+01    0.2222426    0.1959698  43.19 0.0006176239    1.194    0.162
       149  -8.9194    165.7925     94.8467   5.6892617424e+01   2.9580002223e+01    0.2282009    0.2056412   6.85  0.001209852    1.215    0.177
       150 -10.5440     46.4482     90.9476   8.9098495143e+01   5.3081492394e+01     0.519823    0.3198981  88.43  0.001782557    2.297    0.565
       151  -9.9833     23.0222     94.5677   9.7869173918e+01   5.4627857563e+01    0.2693022    0.1832174 -81.74  0.001252428    1.379    0.275
       152 -11.0735     27.0835     87.0121   9.5082008049e+01   5.6052709488e+01    0.6920155     0.385078 -37.53  0.001710182    2.076    0.518
       153 -10.0711     31.6012     93.9756   9.4825321813e+01   5.3979567802e+01    0.3579404    0.2382998 -87.10  0.001073122    1.599    0.374
       154  -9.4302     34.0009     90.5122   9.3324806080e+01   5.4559728546e+01     0.233045    0.1857059 -11.08  0.001323059    1.580    0.367
       155  -8.9959    114.0215     90.7499   6.7958847815e+01   4.1870843848e+01    0.2107524      0.19448  50.47  0.000630607    1.112    0.101
       156  -9.1053    104.9466     90.9847   7.0537550372e+01   4.3661287459e+01    0.3212491     0.206032  43.38 0.0008747743    1.615    0.381
       157 -10.8743     64.9661     76.0527   7.8832556940e+01   5.3973054036e+01    0.5662885    0.4649763  85.51  0.002885484    1.504    0.335
       158 -10.2059     71.3891     88.7891   8.0181557888e+01   5.0132609592e+01    0.4594488     0.223472 -53.36  0.001134168    1.901    0.474
       159 -11.2598     72.7184     80.0293   7.7333054646e+01   5.1878461988e+01    0.6975885    0.5093848 -42.29  0.002350521    1.314    0.239
       160  -9.8153     39.5690     88.1127   9.0871694656e+01   5.4536203122e+01    0.3320677    0.2705562 -11.59  0.001196184    1.511    0.338
       161 -10.3803     86.3930     88.8901   7.5440546986e+01   4.7603044414e+01     0.374173    0.3299013  -9.66  0.001256869    1.307    0.235
       162 -10.6787     51.4787     82.9838   8.5461253744e+01   5.4306978873e+01     0.496678    0.3851948  84.29  0.002238397    1.559    0.359
       163 -10.8695     44.3096     81.8266   8.7740519163e+01   5.5459717745e+01    0.9147804     0.318768  32.51  0.003629611    3.108    0.678
       164 -13.1204     52.9490     74.5861   8.2713486049e+01   5.6018880042e+01    0.9703594    0.4278605 -65.78  0.001005615    2.978    0.664
       165 -11.4608     45.1843     68.7443   8.3988887301e+01   5.8319807407e+01    0.3107401    0.2178738 -43.12  0.000229325    1.314    0.239
       166  -9.7565      7.1173     89.1474   1.0252041574e+02   5.7103028305e+01    0.2646789     0.160457  42.96 0.0009473731    1.867    0.464
       167 -10.9621    129.5325     84.8793   6.2223450399e+01   3.9713292948e+01    0.7305709    0.4409781  20.07  0.002609097    3.066    0.674
       168 -10.7636    123.7521     86.4122   6.4135233380e+01   4.0684682998e+01    0.4239221    0.3618369 -23.50  0.001491044    1.260    0.207
       169  -9.9672    119.1848     84.4537   6.4745844786e+01   4.2064667843e+01    0.3563561    0.2759186  41.79  0.001763547    1.338    0.253
       170  -8.8559     97.5583     88.4838   7.1960600934e+01   4.5634121936e+01     0.281889    0.1383395 -52.37 0.0007808733    2.067    0.516
       171  -8.7877     95.8054     84.8854   7.1443490377e+01   4.6738586620e+01    0.2266999    0.1959086 -78.74  0.000379921    1.297    0.229
       172  -9.1132     14.1159     87.8837   9.9862315921e+01   5.6917194276e+01    0.2451407    0.1572355 -48.04  0.001417741    1.489    0.329
       173  -8.3665    182.4487     87.4998   5.1706990644e+01   2.7022700844e+01    0.1467935    0.1393006 -43.20 7.195289e-05    1.022    0.021
       174  -9.6331    104.9970     85.4198   6.8921318239e+01   4.4823774416e+01    0.4232943    0.2413264 -57.10  0.001746056    2.011    0.503
       175  -8.9005    105.7236     80.6876   6.7301040140e+01   4.5653848134e+01    0.3415852     0.175479 -40.58   0.00100052    1.930    0.482
       176 -10.4385    155.2343     85.0759   5.6366365981e+01   3.3788776876e+01    0.3221483    0.2810754  -1.98 0.0002948436    1.297    0.229
       177 -10.3897    151.1149     80.5410   5.5933725893e+01   3.5570682646e+01    0.5164124    0.3376959  65.52  0.001384478    1.767    0.434
       178  -9.3657    141.5675     75.2699   5.6469173727e+01   3.8761170489e+01    0.2149296    0.1934084 -20.88 0.0005972772    1.157    0.136
       179 -10.2807    145.7943     74.9601   5.5429089537e+01   3.7821730864e+01    0.4147636    0.2799932 -47.44  0.001900639    1.503    0.335
       180  -9.3862    146.0310     70.4958   5.4010988735e+01   3.8549256495e+01     0.275872    0.2226722 -87.55  0.001003162    1.487    0.327
       181  -9.4038     65.4933     85.5268   8.1275996384e+01   5.1774629354e+01    0.2509138    0.2310734 -56.47   0.00122197    1.006    0.006
       182 -10.5519    142.3864     83.4583   5.8734430011e+01   3.7068629266e+01    0.5891354     0.354656  68.73  0.001393288    2.247    0.555
       183  -9.5644    137.0522     79.0225   5.8653208175e+01   3.9123978159e+01    0.3103358     0.207017  71.15  0.001070529    1.936    0.483
       184  -8.4818     12.8277     78.1080   9.8654362288e+01   5.9296694275e+01    0.5133527    0.1445203 -69.64   0.00194673    3.086    0.676
       185  -8.4917     18.6075     71.7916   9.5175739392e+01   6.0321392535e+01     0.317529     0.215719 -75.68 0.0009857448    1.402    0.287
       186  -9.8641     17.9060     80.7424   9.7235232070e+01   5.8303229558e+01    0.4793975    0.2011387  49.89  0.002042444    3.230    0.690
       187  -9.8118     18.4568     76.9679   9.6298963991e+01   5.9138207026e+01    0.3580697    0.2448468  84.76  0.001858543    1.672    0.402
       188  -9.8466    123.7826     79.6808   6.2113506372e+01   4.2000622865e+01    0.5031022    0.2954983  71.48  0.001851387    2.809    0.644
       189  -9.2243    119.0707     75.5604   6.2061791914e+01   4.3836140187e+01    0.3622178     0.254254  88.87 0.0008475369    2.231    0.552
       190  -9.7652     93.7589     79.0973   7.0335805361e+01   4.8351904918e+01    0.2948533    0.2296827 -21.36 0.0003715191    1.498    0.332
       191 -10.9689    173.5236     68.8747   4.8097956913e+01   3.2188504039e+01    0.2874763    0.2762649 -57.51 0.0003320766    1.019    0.018
       192 -10.4658    168.0641     78.4510   5.1871673368e+01   3.1922585482e+01    0.2730353    0.2594264 -52.69 0.0004240542    1.036    0.035
       193 -10.1561    169.6774     73.5838   5.0165242291e+01   3.2350819519e+01    0.3727857    0.3053988 -25.65  0.001486985    1.251    0.201
       194  -9.4687    159.9516     78.8666   5.3593951396e+01   3.3778802369e+01    0.2384822    0.2043281  24.95  0.001222754    1.306    0.234
       195  -9.2920    111.1651     77.6187   6.4833298009e+01   4.5140310245e+01    0.3363201    0.2577344 -46.00  0.001672685    1.276    0.216
       196  -9.4186     77.4449     62.1655   7.0118361428e+01   5.4839705575e+01    0.2765771    0.2056141  53.35 0.0003618336    1.539    0.350
       197  -9.8763     97.0103     63.5658   6.4333979026e+01   5.0824391215e+01    0.3895968    0.2387233  32.18  0.001366127    1.942    0.485
       198 -10.0039     87.0053     68.0310   6.8937371147e+01   5.1909722413e+01    0.4197583    0.2920039  24.72  0.000344436    1.756    0.430
       199  -9.7191     88.2976     76.8610   7.1337315120e+01   4.9849689844e+01    0.4572895    0.2821915 -64.97  0.001233686    2.142    0.533
       200  -9.1857     83.5213     65.4187   6.9194749491e+01   5.3085336777e+01    0.2393527    0.2341589 -74.20 0.0005619659    1.099    0.090
       201  -9.4422     82.4559     61.7692   6.8303662351e+01   5.4007645066e+01    0.3076414    0.2421615 -19.51 0.0009525328    1.401    0.286
       202 -10.5893    178.9821     75.0050   4.8881531786e+01   2.9895312062e+01    0.3851725    0.3278127  -8.40  0.001658431    1.309    0.236
       203  -9.4321    175.0391     75.0202   4.9590796247e+01   3.0832049558e+01    0.2191522    0.2106621 -43.69  0.000304414    1.006    0.006
       204  -8.5319     82.3322     77.0765   7.3300533852e+01   5.0886214689e+01    0.1976668    0.1264349 -58.11            0    1.661    0.398
       205  -9.6876     29.0285     75.1394   9.1858041984e+01   5.8637086338e+01    0.3988281    0.2122847 -61.10  0.002021258    1.589    0.371
       206 -10.5348     44.7951     47.9552   7.7480931882e+01   6.2776820230e+01    0.9133931    0.5113672  -1.21  0.003512645    3.771    0.735
       207 -10.3713     29.2928     68.5054   9.0166185898e+01   6.0126209771e+01    0.9001697    0.5233335  31.22  0.004812918    1.950    0.487
       208 -10.7195     28.1097     63.4787   8.9354234294e+01   6.1370382966e+01     0.266537    0.2467452 -58.28 9.820476e-05    1.094    0.086
       209 -10.2206     32.2322     59.4910   8.6538461202e+01   6.1836786823e+01     0.516447    0.2714267 -54.35  0.002611624    1.608    0.378
       210 -10.1413     45.0814     54.4883   7.9635720068e+01   6.1403637549e+01    0.5504773    0.2805681  31.47  0.002087843    2.193    0.544
       211  -8.1681     57.0070    248.9890   1.0535081581e+02   1.8328805274e+01    0.1188576   0.08897986  60.55            0    1.049    0.047
       212 -10.0340     16.2481     46.7980   8.9906490888e+01   6.6063986936e+01     0.275395    0.1949957 -20.27 0.0008551376    1.534    0.348
       213  -9.5093     33.7790     42.1169   8.0186084665e+01   6.5311187858e+01    0.3558933    0.2092194  18.14  0.001853261    2.064    0.515
       214 -10.4632     36.5728     48.4265   8.1182393165e+01   6.3707121168e+01     0.809419    0.3195569 -38.23  0.002663576    2.765    0.638
       215  -9.3301     31.9173     47.7363   8.3006183479e+01   6.4376603132e+01    0.1788859    0.1479289 -32.58 0.0006018985    1.103    0.093
       216 -11.5816     24.5185     55.9557   8.8819478196e+01   6.3370338361e+01    0.8070279    0.2926455 -53.45  0.003194451    2.170    0.539
       217 -10.4924     28.9659     52.2158   8.5764159431e+01   6.3745511098e+01    0.3281877    0.2230194  20.69    0.0010136    1.695    0.410
       218  -8.7443     37.8073     75.8277   8.8678356438e+01   5.7579260937e+01    0.1989086    0.1519872 -40.17 0.0004925344    1.280    0.219
       219  -9.5034     86.8035     83.6134   7.3819219647e+01   4.8682489029e+01    0.2556563     0.216722 -65.47  0.000351315    1.226    0.184
       220 -10.2830     12.3150     67.0946   9.6708845317e+01   6.1869019890e+01    0.9797263    0.3757543 -29.53  0.003281161    4.715    0.788
       221  -9.4045     15.5580     60.3080   9.3828418987e+01   6.3163926666e+01    0.5925696    0.2326038 -62.76  0.002735477    2.088    0.521
       222 -12.4530      2.4100     66.2226   1.0058417861e+02   6.2691718056e+01    0.3797602      0.21218 -69.24    0.0002751    1.452    0.311
       223 -11.6918      7.3986     61.2978   9.7534417917e+01   6.3510859991e+01    0.6745609    0.4820367  64.40  0.003188994    1.741    0.426
       224 -10.4400      6.5314     51.9423   9.5798490672e+01   6.5647275236e+01    0.2660104    0.2401344  -0.02 0.0009375928    1.300    0.231
       225 -10.6588     10.7266     50.9856   9.3637285329e+01   6.5577652239e+01    0.5649225    0.3870699 -73.32  0.002854831    1.450    0.310
       226  -9.0961    111.3117     71.2890   6.2788437791e+01   4.6346037441e+01    0.3159926    0.1732089 -30.07  0.001258486    2.132    0.531
       227 -10.1963     89.4338     72.4348   6.9595955751e+01   5.0555562055e+01    0.3812434     0.280035 -56.19  0.001903338    1.421    0.296
       228 -10.2867    145.9940     52.6506   4.8330209590e+01   4.1483805317e+01    0.4862523    0.3275121  73.68  0.001964923    1.717    0.418
       229  -9.8681    159.5184     50.2657   4.4974551525e+01   3.8487179309e+01    0.3106662    0.1906973  64.08 0.0007982008    1.669    0.401
       230 -10.7506    153.6820     47.7513   4.5237398013e+01   4.0309429703e+01    0.4092666    0.3733519  25.52 0.0006193491    1.183    0.155
       231 -10.8767    135.0322     64.9660   5.4731619138e+01   4.2121405639e+01    0.5707217      0.36922  46.86  0.001843457    1.571    0.364
       232  -9.8382    136.9149     55.9760   5.1354596378e+01   4.3175207329e+01    0.4410561    0.2164231 -29.78  0.001724914    2.161    0.537
       233 -10.2770    140.8334     68.1858   5.4438107789e+01   4.0187867304e+01    0.3666193    0.2564029 -44.24 0.0003747496    1.421    0.297
       234 -10.1353    143.7753     65.7834   5.3030423829e+01   3.9897508811e+01    0.3489819    0.2690406 -79.83  0.001191836    1.624    0.384
       235  -9.7349    103.1693     69.6740   6.4560354770e+01   4.8379865608e+01    0.4102404    0.3387724  43.90  0.002155595    1.248    0.199
       236  -8.8389    106.9487     66.3020   6.2365203732e+01   4.8231225161e+01    0.2488404    0.1781356  52.30 0.0004518155    1.460    0.315
       237 -10.7955     79.9761     70.1464   7.1910844944e+01   5.2762607763e+01    0.2423925    0.2342179 -37.23 0.0003024788    1.030    0.029
       238 -10.0153     37.3063     69.4280   8.7235074180e+01   5.9086895297e+01    0.3882652    0.2201604 -50.99  0.001691823    1.513    0.339
       239 -10.9205    142.6974     59.0153   5.1095809854e+01   4.1282681496e+01    0.6555385    0.4005764  46.22  0.002862374    1.683    0.406
       240  -9.9604    157.4765     68.5275   5.1023667791e+01   3.6130678020e+01    0.3756641     0.283329  79.92 0.0009821299    1.568    0.362
       241 -11.5950     80.8716     83.5039   7.5661807794e+01   4.9751636890e+01    0.3490002    0.2954917 -23.95 0.0003981473    1.299    0.230
       242  -9.0757    119.2687     67.1175   5.9300834215e+01   4.5378708958e+01    0.3387809    0.2094027 -18.65  0.001368366    2.241    0.554
       243  -9.2747     75.4693     66.0474   7.2094565047e+01   5.4399104575e+01    0.2303313    0.1983343  62.67 0.0006070998    1.353    0.261
       244  -9.0479    175.2970     62.3499   4.5884981629e+01   3.2778045043e+01    0.2562619     0.221372   6.13  0.000529664    1.338    0.253
       245 -10.2413    152.7741     60.7252   4.9556482728e+01   3.8549818626e+01    0.5653936    0.3406898  32.60   0.00217007    2.187    0.543
       246 -10.4417     94.5585     71.5779   6.7737368058e+01   4.9741761793e+01     0.718224    0.4065056 -58.16  0.001489788    2.187    0.543
       247  -9.4699     49.0093     57.4775   7.9040026135e+01   6.0260991918e+01    0.3536308    0.2240289  17.36  0.001513293    2.003    0.501
       248  -9.8472     53.0000     53.9306   7.6248618771e+01   6.0439062893e+01    0.3636707    0.1904689 -46.43  0.001638273    1.714    0.417
       249 -10.9862     54.1831     61.2091   7.8234036739e+01   5.8761743261e+01    0.3458038     0.280024  89.99  0.001920812    1.639    0.390
       250 -10.9713     56.2655     56.7157   7.5933948321e+01   5.9395901679e+01    0.2594637    0.2429502  21.18 0.0002717273    1.155    0.134
       251  -9.7689    193.5876     60.5860   4.2467840987e+01   2.8623710169e+01    0.4102181    0.2053217 -35.87   0.00127942    1.840    0.457
       252  -9.3899    197.2926     59.9654   4.1754906424e+01   2.7832799626e+01    0.2409625     0.205439  51.60 0.0003271777    1.251    0.201
       253 -10.7768    167.4350     60.7549   4.6787458685e+01   3.4947495727e+01    0.4609952    0.3771015 -16.76   0.00237507    1.333    0.250
       254 -10.2584    167.7428     56.2519   4.5370563621e+01   3.5557842042e+01     0.474062    0.2806103  83.11  0.001903549    2.377    0.579
       255  -8.8174    110.2905     62.6189   6.0192877064e+01   4.8193175423e+01    0.2420894    0.1355466  39.38 0.0005935762    1.962    0.490
       256  -8.9940    114.3442     60.6942   5.8440726950e+01   4.7643464037e+01    0.2457937    0.1898089 -23.52 0.0006055562    1.383    0.277
       257 -10.0365     71.7927     60.2006   7.1399745379e+01   5.6218440679e+01    0.4490072    0.2977393  30.05  0.002188786    1.699    0.412
       258 -10.1667     79.2651     54.3179   6.6722877950e+01   5.6035629609e+01    0.4347692    0.2853052  24.10  0.001714716    1.899    0.473
       259  -9.2414     65.3939     61.8359   7.4246657417e+01   5.6942158210e+01    0.2563522    0.2089424  16.68  0.001105805    1.378    0.274
       260  -8.5112     62.2567     62.3316   7.5560228713e+01   5.7331846793e+01      0.20737      0.17813 -28.85 0.0005091816    1.134    0.119
       261  -9.8994    161.3898     60.2979   4.7756486279e+01   3.6503711142e+01    0.3497031    0.2375903  38.85 0.0006701546    1.661    0.398
       262 -10.1121    131.3131     59.7479   5.3885632506e+01   4.3892872586e+01    0.5092366    0.4096024  89.70  0.002528324    1.509    0.337
       263  -9.4132    124.8548     57.0765   5.4526025001e+01   4.5863290815e+01    0.3974771    0.2717906 -71.74  0.001533681    2.122    0.529
       264  -9.4670    117.5500     52.4493   5.4731732690e+01   4.8332281470e+01    0.4226668     0.216419 -45.85  0.001018927    2.073    0.518
       265 -10.3103    122.4513     50.4713   5.2814371259e+01   4.7513125914e+01    0.5791609    0.4424905  38.33  0.001784814    1.367    0.269
       266 -11.3402    127.2953     46.9604   5.0428630236e+01   4.6913070021e+01    0.6198822    0.3812614 -58.27  0.002631803    2.111    0.526
       267 -10.0714    131.0017     45.9982   4.9253078274e+01   4.6165267483e+01    0.2516624    0.2215113   2.56            0    1.239    0.193
       268  -9.0848     40.0241     58.8111   8.3104084235e+01   6.1114707127e+01    0.2466701    0.1689451 -53.75  0.001370267    1.297    0.229
       269  -8.7550    250.0055     58.3793   3.5017989561e+01   1.6443212218e+01    0.1644074    0.1514159 -54.04  0.001086616    1.099    0.090
       270  -9.4016    181.5560     57.1683   4.3342447879e+01   3.2026787093e+01    0.3967104    0.2262983 -52.27  0.001704611    1.909    0.476
       271  -8.7254     96.9779     48.5345   5.8940442219e+01   5.3550659640e+01     0.418211    0.2319895 -21.83  0.001110789    2.344    0.573
       272 -10.2047     93.1381     55.1553   6.2549782032e+01   5.3181833320e+01    0.5427355    0.3924892  16.58  0.002610291    1.764    0.433
       273  -9.2202     93.3427     51.1347   6.1008592615e+01   5.3859958113e+01    0.2456548    0.2041997 -44.01 0.0005484386    1.208    0.172
       274  -8.8064     64.9816     56.6706   7.2625836086e+01   5.8057677963e+01    0.1827559    0.1712655   4.32 0.0003952671    1.102    0.093
       275  -9.6324    162.1521     54.3578   4.5781922773e+01   3.7225996594e+01    0.2984322    0.2294851 -61.15  0.001481977    1.412    0.292
       276  -9.1618     71.0368     42.9995   6.5258990488e+01   5.9607424541e+01    0.2955928     0.173527 -18.30  0.001011221    2.380    0.580
       277  -9.0745     55.9872     45.4695   7.1950885258e+01   6.1663288685e+01    0.1993698    0.1845471 -73.39 0.0009854147    1.312    0.238
       278 -11.2010     68.7281     48.1224   6.8106799147e+01   5.9083806808e+01    0.5646616    0.3646309 -53.47 0.0004096384    1.718    0.418
       279 -12.4812     62.1833     44.2955   6.9067854944e+01   6.0897829376e+01    0.3732139      0.31752  36.09 0.0005229539    1.259    0.206
       280  -8.8559    106.8165     52.8881   5.7734583805e+01   5.0679838168e+01    0.2149524    0.1904811   8.54 0.0003868662    1.203    0.169
       281  -9.8047     61.3904     52.2550   7.2390365825e+01   5.9508158434e+01    0.2413372     0.231489 -20.10 0.0005559503    1.073    0.068
       282  -8.6739    232.7485     51.5515   3.5163133603e+01   2.0914663757e+01    0.1614836    0.1235117 -83.58 0.0003309095    1.443    0.307
       283  -9.4930    174.9686     50.2262   4.2342138298e+01   3.4648311215e+01    0.3697197    0.2563648   8.24  0.001173706    2.055    0.513
       284  -9.2147     86.1546     49.2857   6.2567564298e+01   5.5638180303e+01    0.4941335    0.2235215  36.95  0.001914574    2.604    0.616
       285 -10.1458    114.7164     46.8770   5.3444009965e+01   4.9889420582e+01    0.3738074    0.2678227 -19.20 0.0008619628    1.543    0.352
       286  -9.6214    113.0471     41.3099   5.1798524718e+01   5.1138013349e+01    0.2506705    0.1999183 -34.48 0.0001980593    1.251    0.200
       287  -9.4891    201.8326     47.1980   3.7632462630e+01   2.8517994485e+01    0.2525767    0.2093508   5.93  0.001378751    1.468    0.319
       288  -8.5650    196.9906     48.4966   3.8623399292e+01   2.9502059310e+01    0.2053022    0.1370914  64.34  0.001013562    1.541    0.351
       289  -9.1208    182.0641     48.3608   4.0693026813e+01   3.3155486887e+01    0.2041744    0.1840505  80.78 0.0009441304    1.120    0.107
       290  -9.0489    234.9384     47.0343   3.3829605496e+01   2.1016475275e+01    0.1947558    0.1657287 -49.16 0.0003668975    1.033    0.032
       291  -9.5129    164.1780     46.6220   4.3012991056e+01   3.7846553389e+01     0.346243    0.1932505  45.42   0.00147806    1.941    0.485
       292 -10.6962     79.7351     43.3954   6.2388596426e+01   5.7919929203e+01    0.4535675     0.384018 -74.03   0.00239581    1.540    0.351
       293  -9.6980    145.9544     45.8535   4.6086682222e+01   4.2510175684e+01    0.3308235    0.2099675 -32.01 0.0006575019    1.573    0.364
       294  -8.7752    144.4987     41.5272   4.4912535520e+01   4.3489959265e+01    0.2592731    0.2227584  79.43 0.0009619633    1.212    0.175
       295 -11.0169     14.3266     39.7101   8.8637666062e+01   6.7708781711e+01    0.4003088    0.3282556  84.86  0.001232525    1.612    0.380
       296  -9.1880    244.8332     44.9697   3.2376217714e+01   1.9178765631e+01    0.2121325    0.1829779  82.46  0.001138876    1.267    0.211
       297 -11.0520    106.7520     43.6533   5.4328691008e+01   5.2214437783e+01    0.5131392    0.3799217  41.33 0.0004406118    1.364    0.267
       298 -10.0281    103.8315     38.3041   5.3052760997e+01   5.3694853637e+01    0.4541986     0.247569 -24.18   0.00110015    2.042    0.510
       299  -9.5905    111.9677     20.0845   4.3721885572e+01   5.4233023949e+01    0.3349214    0.2029501  46.76 0.0008150518    1.581    0.368
       300  -8.7140    163.3063    246.3429   8.6166942426e+01   4.4898619058e+00     0.110465   0.07642378  10.90 0.0007042371    1.689    0.408
       301  -8.2873    219.9884    245.3413   7.6502362663e+01  -3.1760317380e+00     0.184611   0.06503084  24.25 0.0007051436    4.429    0.774
       302  -9.8721    101.0899     26.4674   4.8993625874e+01   5.5983040805e+01    0.3628272    0.2223126  60.20  0.001180428    1.698    0.411
       303  -8.7858    185.6797     43.9871   3.8890846401e+01   3.2857986242e+01    0.1937998    0.1837733 -39.17 0.0005023262    1.064    0.060
       304  -9.2522    177.5105     43.8196   4.0027219625e+01   3.4902547941e+01    0.2384175    0.1586716  60.18  0.000568876    1.501    0.334
       305 -10.1130     91.6571     42.1060   5.8054743638e+01   5.5741596125e+01    0.5580319    0.4067953  74.72  0.002718373    1.914    0.478
       306  -9.5401     94.0588     36.2178   5.4971564788e+01   5.6159413932e+01    0.4650342    0.3376158  20.00  0.002346245    1.600    0.375
       307  -8.9042      2.9589     43.1087   9.5258744957e+01   6.7780511036e+01    0.2939221    0.1658042  64.89  0.001294828    3.068    0.674
       308  -8.7738    202.6855     42.9792   3.6370752311e+01   2.8866545795e+01    0.1949815    0.1670892 -43.95 0.0003992347    1.085    0.078
       309  -9.0329     86.2352     43.5837   6.0331382740e+01   5.6608701990e+01    0.2362362     0.136531  50.21 0.0005143672    1.818    0.450
       310 -10.4461    222.5770     40.5898   3.3489659401e+01   2.4548120417e+01    0.2636909    0.2350579  89.61  0.000231062    1.156    0.135
       311 -11.5321    234.9775     29.7766   2.9622454273e+01   2.3086990907e+01    0.3443706    0.2393604  54.59  0.000545403    1.655    0.396
       312  -9.3045    223.4988     34.0572   3.1736383956e+01   2.5133505008e+01     0.253985    0.2178533 -71.28  0.001096126    1.117    0.105
       313 -10.7629    228.0063     40.2063   3.2839285395e+01   2.3380215825e+01    0.6141068    0.3144328 -20.08  0.001853946    2.233    0.552
       314  -9.6487    227.0652     33.0835   3.1149651530e+01   2.4447481773e+01    0.2006755    0.1778111 -87.08 0.0002885836    1.149    0.130
       315  -9.5747    127.0955     39.6186   4.7843686789e+01   4.8049520092e+01    0.3267105    0.2627274  44.45 0.0008726019    1.241    0.194
       316  -9.3159    131.4155     35.9861   4.5599618063e+01   4.7500167796e+01     0.327255    0.2791509  79.74 0.0003895646    1.250    0.200
       317  -8.5470      1.4658    244.4588   1.1457673666e+02   2.4885616185e+01    0.1016729   0.06641173  62.49 6.800018e-05    1.042    0.040
       318 -10.2905     50.9850     35.9890   7.0172886033e+01   6.4177983666e+01    0.3321158    0.2585778 -86.77  0.001136714    2.209    0.547
       319  -8.7950     50.7187     32.6454   6.8847893497e+01   6.4809048756e+01    0.2179717     0.192197   6.23 0.0006577455    1.119    0.106
       320 -11.5572     40.2527     39.4060   7.6228784087e+01   6.5049198574e+01    0.2731383    0.1962315 -22.33  0.001565894    1.426    0.299
       321  -9.6647     12.0644     32.1677   8.7228227011e+01   6.9426538238e+01    0.1927841    0.1820026 -50.88 0.0004866711    1.216    0.177
       322  99.0000      8.0168     30.7346   8.8878804422e+01   7.0022767404e+01    0.3289031    0.2302179 -20.82  0.002119836    1.445    0.308
       323  -9.5531      7.2509     39.3854   9.2076301958e+01   6.8299493311e+01    0.2606061    0.1859749  15.41   0.00116109    1.635    0.388
       324 -10.7232      4.4746     36.2175   9.2541480041e+01   6.9142713722e+01    0.4240486    0.3171594 -17.61   0.00173687    1.404    0.288
       325  -8.5942    203.1906     39.1394   3.5259647628e+01   2.9234949235e+01    0.1934113    0.1438749 -56.90 0.0003482084    1.305    0.234
       326  -9.6091    158.2146     39.0394   4.1607259577e+01   4.0385410942e+01    0.2459059    0.2071696  75.91 0.0003317297    1.198    0.165
       327  -9.0512    121.1904     38.5199   4.8780061377e+01   4.9629655970e+01    0.4570218    0.2588974 -34.79  0.001992502    1.749    0.428
       328 -10.2776    178.3035     37.1301   3.7903126939e+01   3.5581617412e+01    0.3286828    0.2539358  63.12 0.0003904292    1.292    0.226
       329 -10.4391    138.3036     36.5951   4.4418792988e+01   4.5712362109e+01    0.8006144    0.4322406  26.74  0.001926009    3.000    0.667
       330 -10.2926    146.4245     29.0421   4.0286189707e+01   4.4645327427e+01    0.3416384    0.2826978 -86.25 0.0008904819    1.289    0.224
       331  -9.1400     71.4618     36.9591   6.2620588353e+01   6.0568088382e+01    0.3325828    0.2898349  69.95  0.001513786    1.466    0.318
       332  -9.4342     74.4952     34.5042   6.0506950819e+01   6.0401373553e+01    0.3093265    0.2557983 -11.40  0.001780797    1.197    0.165
       333 -10.7481     79.7243     30.7623   5.7121600598e+01   5.9961607490e+01    0.6452773    0.5154467  89.94  0.002426905    1.849    0.459
       334 -10.5003     71.5789     28.6022   5.8938211746e+01   6.1876809461e+01     0.427053    0.3853534 -36.27  0.001797524    1.180    0.152
       335  -9.4538    249.1006     36.8441   3.0098363782e+01   1.9271740215e+01    0.2083326    0.1460822 -51.76  0.001236544    1.250    0.200
       336  -8.9447    238.9938     37.3047   3.1085635408e+01   2.1337444626e+01    0.1797613    0.1590904 -79.86 0.0007964399    1.153    0.133
       337  -8.9169    186.0893     36.1900   3.6562282316e+01   3.3764739887e+01    0.2959722     0.149382 -52.22  0.001231826    2.137    0.532
       338 -10.2882    115.8974     34.8193   4.8630028298e+01   5.1413019844e+01    0.4825423    0.3895634  45.25  0.001809248    1.215    0.177
       339 -10.2323     87.6319     33.9817   5.5980122568e+01   5.7859843061e+01    0.4614807    0.3152725   8.98  0.002168008    1.906    0.475
       340  -9.8817     56.7767     35.7492   6.7687437137e+01   6.3315240211e+01    0.2282653    0.2076614 -46.88 0.0002368186    1.224    0.183
       341  -8.6486     55.4041     31.4746   6.6382954192e+01   6.4270737369e+01     0.228414    0.1640306 -38.06 0.0007492378    1.308    0.235
       342  -9.1412    208.8488     33.7630   3.3164030217e+01   2.8553819350e+01    0.3469676    0.1375144 -39.96   0.00143365    2.193    0.544
       343  -9.3661     60.8743     34.1400   6.5370481473e+01   6.2914152316e+01    0.2525988     0.180049 -27.80 0.0003807365    1.337    0.252
       344  -9.4950     62.9949     31.0016   6.3170245261e+01   6.3068434755e+01    0.4512668    0.3433369  -1.34  0.002536444    1.428    0.300
       345  -8.6115     18.4564     34.8034   8.4875928927e+01   6.8354017243e+01    0.1742269   0.08991613 -43.40 0.0008238791    1.617    0.382
       346  -9.0223    146.0579     33.9917   4.2051143068e+01   4.4114380543e+01    0.2171275    0.2082186 -83.12 0.0005940815    1.040    0.039
       347  -9.5342    244.9496    241.9901   7.2120373671e+01  -6.0040775807e+00    0.1649765    0.1162562  15.73 0.0006121155    1.051    0.048
       348  -8.6372    127.4698    240.4916   9.1907416084e+01   1.0409877924e+01     0.115448   0.08992595  46.34 0.0003155975    1.068    0.064
       349 -10.0962     34.5761     31.5827   7.5648046760e+01   6.7240848484e+01    0.2460385     0.201556   9.96  0.001420554    1.271    0.214
       350  -9.7573    102.4798    240.0049   9.6447907070e+01   1.3975273731e+01    0.1470739    0.1104805 -68.71  0.001036227    1.602    0.376
       351  -9.9081     40.9320     21.3375   6.7957271084e+01   6.8163999642e+01    0.2807038     0.262245 -82.24 0.0004762925    1.534    0.348
       352 -11.1271     27.8268     31.3873   7.8843721434e+01   6.8072095993e+01    0.4592689    0.3041587  -0.83 0.0003697604    1.821    0.451
       353  -8.9957    188.3124    235.3104   8.0374386249e+01   2.3189112791e+00    0.1144112   0.07529972  11.77 0.0002943027    1.628    0.386
       354  -8.8184    221.9709    233.4983   7.4474684917e+01  -2.1634758110e+00    0.1658345   0.08855727  34.21 0.0006088991    1.559    0.358
       355  -8.9459     31.9248    232.7637   1.0884249563e+02   2.3875951168e+01    0.1467387    0.1229581  62.54 0.0005041219    1.204    0.169
       356  -9.2214    182.9762     26.8288   3.4207288029e+01   3.5668565679e+01    0.3675951     0.163402 -41.54  0.001534846    2.109    0.526
       357  -8.6672    153.0123     31.9835   4.0161495180e+01   4.2613582586e+01    0.2357703    0.1624006 -65.85 0.0004879635    1.695    0.410
       358  -9.5674    248.3436     30.2756   2.8638480623e+01   2.0189153392e+01    0.2046385    0.1849651 -18.76 0.0006162154    1.255    0.203
       359  -9.7384    133.7709     29.3394   4.2718179109e+01   4.7785957269e+01    0.4495513    0.2701972   6.17  0.001833422    2.546    0.607
       360  -8.3922    125.4619     30.4807   4.4830438740e+01   4.9691990185e+01    0.1427436     0.134242  31.93 -4.836901e-05    1.059    0.056
       361  -9.2998     93.8781     29.9930   5.2446574162e+01   5.7110087199e+01    0.2206339    0.1872548  40.84 0.0003479239    1.153    0.132
       362 -10.4151     18.9082     28.5704   8.2249329730e+01   6.9531186550e+01    0.3320814    0.2061998 -59.46 0.0008126242    1.698    0.411
       363  -9.0564    186.7038    230.6531   8.0002085438e+01   3.1389122384e+00    0.1161811   0.07781126   8.18 0.0007033554    1.675    0.403
       364  -8.6239    177.9886    231.0000   8.1584485907e+01   4.3706605356e+00    0.1975317   0.05452912  39.25 0.0008073023    2.976    0.664
       365  -8.3191      3.3437    230.2507   1.1377685603e+02   2.7142589335e+01   0.07926627   0.07732197  82.00 0.0002306957    1.578    0.366
       366  -8.6476    163.3807    226.7924   8.3638617904e+01   7.1211151325e+00    0.1408403     0.108609 -25.48   0.00049802    1.539    0.350
       367  -9.0798    224.0036    225.0550   7.2868125337e+01  -1.4941451171e+00    0.1723151    0.1309723  16.14 0.0005926702    1.028    0.027
       368  -7.9115    143.3161    225.7138   8.7220024475e+01   1.0304577763e+01    0.1159418   0.08184786  58.92  0.000281455    1.586    0.370
       369  -8.7943    132.0283    225.2906   8.9302917268e+01   1.2062940396e+01    0.1689434     0.130634  42.32 0.0004553181    1.065    0.061
       370  -8.7770    189.8509     28.4907   3.3857007903e+01   3.3769766378e+01    0.2007528    0.1330789  73.10 0.0008125253    1.512    0.339
       371  -8.4985    116.1376     27.9253   4.5904775526e+01   5.2278384137e+01    0.1954621    0.1535932  33.89            0    1.307    0.235
       372  -9.3284    222.6671     26.8611   2.9990763862e+01   2.6160968324e+01    0.2157429    0.1756162  62.55 0.0007280046    1.340    0.254
       373  -9.8983    212.9700     25.9942   3.0680020343e+01   2.8495615584e+01    0.2700462    0.2032883  56.19 0.0006905327    1.451    0.311
       374  -8.6354    161.2526     26.8054   3.7153895359e+01   4.1151087426e+01    0.1950603    0.1595876  34.65 0.0006279088    1.355    0.262
       375  -8.2732    141.3057     27.6318   4.0697429240e+01   4.6109107285e+01    0.1534243    0.1029597 -60.54 0.0005001382    1.751    0.429
       376  -8.6606    241.7504     25.9718   2.8153224571e+01   2.2060931159e+01    0.1760251    0.1467772 -51.50 0.0005256871    1.011    0.011
       377  -9.7843    232.7523     23.5203   2.8288960282e+01   2.4281896364e+01    0.4032978    0.2113107 -81.28  0.001714785    2.291    0.564
       378  -7.8217    166.2905     26.6693   3.6376289519e+01   3.9888278007e+01    0.1492131   0.09961011 -59.93  0.000176018    1.625    0.385
       379  -9.4632     88.7906     25.2079   5.1868796545e+01   5.8871087058e+01    0.3750015    0.2195416  -3.51  0.001368287    2.471    0.595
       380 -10.8361      2.0480     25.2889   9.0266145109e+01   7.1516717900e+01    0.2145175    0.1498944 -52.06 0.0003144234    1.171    0.146
       381  -9.2406    204.7624     24.6072   3.1126484733e+01   3.0593806284e+01    0.2392987    0.2038817  25.33 0.0007340004    1.440    0.306
       382  -9.4946    247.4602     23.9869   2.7252513796e+01   2.1079421525e+01    0.1880068    0.1081932 -30.77 0.0005146842    1.554    0.357
       383 -10.0199    173.6286     23.2033   3.4295876036e+01   3.8428792602e+01    0.3983451    0.2858045  55.36   0.00148067    1.402    0.287
       384  -8.6149    169.5228     23.4441   3.4911682631e+01   3.9439708612e+01    0.2122614      0.13569 -27.95 7.218574e-05    1.585    0.369
       385 -10.2481    153.6858     22.8049   3.6978064605e+01   4.3536838612e+01    0.3023859    0.2700105   2.45 0.0003029315    1.243    0.195
       386  -9.4910     89.1410    220.7414   9.7108041109e+01   1.9013049609e+01    0.2300606    0.1817443  36.08 0.0009106851    1.277    0.217
       387  -8.3600    243.6835    219.6861   6.8897602221e+01  -3.5556307938e+00    0.1150061   0.06853024   7.74 0.0002912423    1.645    0.392
       388  -9.7452    151.7776     18.0203   3.5651161424e+01   4.4548339814e+01    0.2582112    0.1978096 -35.59 0.0003894059    1.322    0.243
       389  -8.0384    206.6480    217.7183   7.4623635291e+01   1.8562478811e+00    0.1208979   0.07644213  12.90  0.000701539    1.654    0.395
       390  -8.2342    236.5099    216.4518   6.9501679628e+01  -2.2355381531e+00    0.1139404   0.08666559   9.92 0.0001241943    1.026    0.026
       391  -8.4957    117.5115    212.0142   9.0500426841e+01   1.6437029128e+01    0.1591439    0.1215222 -61.06 0.0005719876    1.516    0.340
       392  -9.0478    242.6763    210.0265   6.7480295894e+01  -2.3526651909e+00    0.1679522    0.1531569  29.38 0.0008908713    1.515    0.340
       393  -8.5085    230.6421    209.6970   6.9337126943e+01  -6.3770112802e-01    0.1220847   0.07400963   9.95  0.000703871    1.717    0.418
       394  -8.5289    194.4883    209.4752   7.5443723265e+01   4.7717193958e+00    0.1219541   0.09951053  17.87 0.0002745154    1.044    0.042
       395 -10.9686     62.1378     22.3924   5.9514868163e+01   6.4549049492e+01     0.315057    0.2514395  37.94 0.0005719133    1.275    0.216
       396  -9.7660    123.9984    205.9948   8.8420676677e+01   1.6486829291e+01    0.1757707    0.1523783  44.51  0.001161693    1.023    0.022
       397  -8.8351    123.2019     23.2350   4.2555373243e+01   5.1143267060e+01    0.2397557    0.1515656 -62.63  0.001065586    2.106    0.525
       398  -9.8449    116.9639     22.2918   4.3504898191e+01   5.2773872399e+01    0.2205401    0.1933805  -7.12 0.0002951714    1.184    0.155
       399  -8.8575     80.0203     22.7134   5.3433833364e+01   6.1050449931e+01    0.2242213    0.2047541   1.54 0.0005624466    1.020    0.020
       400 -10.2216     84.8106     21.2163   5.1273491578e+01   6.0247981336e+01    0.3813297    0.2871481 -60.04 0.0008670673    1.773    0.436
       401  -9.4318     75.0584     22.9866   5.5177913452e+01   6.2015507727e+01    0.1924671    0.1746463  -3.33 0.0003270729    1.026    0.025
       402  -9.0484     26.3862     22.0565   7.5485235420e+01   6.9938966740e+01     0.325358    0.1470311 -39.68  0.001092301    1.928    0.481
       403  -8.7409     11.4537     23.2072   8.4116515566e+01   7.1223954433e+01    0.1567531   0.09585893 -47.47 0.0007632149    1.342    0.255
       404  -9.0341     35.4498    201.5129   1.0623239137e+02   2.9315557888e+01    0.1157013   0.08964969  68.70 0.0008083832    1.008    0.008
       405  -8.7009    221.3271    198.7065   6.9014354646e+01   2.0852608555e+00    0.1027872   0.09598397  63.28 0.0003352712    1.624    0.384
       406  -9.2666      7.2745    194.6010   1.1151496180e+02   3.3475777881e+01    0.3349029    0.2417279  71.16  0.002459105    1.042    0.040
       407  -8.4133     96.2598    195.3835   9.2829819689e+01   2.2676525752e+01    0.1165792   0.09679107 -25.81 0.0006974456    1.678    0.404
       408  -9.0103    199.4863     18.5085   2.9989356019e+01   3.2535391421e+01    0.3570467    0.1283718 -25.30   0.00137762    2.788    0.641
       409  -9.5878    193.1968     20.0422   3.1064830047e+01   3.3901952738e+01    0.2164906    0.1821989  10.26 0.0007305433    1.454    0.312
       410  -8.7269    195.8026     16.3514   2.9756902377e+01   3.3659818372e+01    0.2733878    0.1628896  75.23  0.001353797    1.656    0.396
       411 -10.8848    182.0331     18.5289   3.1858028554e+01   3.6830264656e+01    0.3649009    0.2359946  58.92  0.001174856    1.534    0.348
       412  -8.5430    242.0052    193.7708   6.4803610263e+01  -3.5756695391e-01    0.1443372    0.0860999  35.17 0.0003942265    1.592    0.372
       413  -8.6777    139.9085     19.1073   3.7909996206e+01   4.7444258151e+01     0.207111    0.1804701 -59.61 0.0005568443    1.198    0.165
       414  -8.6450    125.4605     17.6857   3.9976498051e+01   5.1216933002e+01    0.4041276    0.2534955  59.93  0.001979755    1.498    0.333
       415  -8.7106     27.6651    180.3238   1.0632518081e+02   3.4471352258e+01    0.1292304   0.06857129  64.11 0.0007050892    1.712    0.416
       416 -10.0868     18.1601    174.4056   1.0799916354e+02   3.6658123011e+01    0.2255815    0.1885555 -33.50  0.001248745    1.761    0.432
       417  -8.6351      5.6604    174.6886   1.1077546980e+02   3.7706197690e+01     0.104606   0.07919414 -53.00 0.0003443176    1.693    0.409
       418  -9.4591    238.1284     17.1082   2.6331714186e+01   2.3808067012e+01    0.1768038    0.1709718   3.11 0.0005296314    1.277    0.217
       419 -10.0876      8.0315    161.9655   1.0944700449e+02   4.0243418688e+01    0.2696207      0.14492  54.84 0.0003505707    1.652    0.395
       420  -9.3879     24.2120    162.8297   1.0570927621e+02   3.8601020995e+01    0.1867048    0.1350342  71.54 0.0005898839    1.179    0.152
       421  -8.8209     53.1533     16.5707   6.0190977332e+01   6.6961374954e+01    0.1964134    0.1504193  -1.12  0.000120934    1.288    0.223
       422 -10.5003     11.4935    167.0074   1.0899113031e+02   3.8852147114e+01    0.3164996    0.1554418 -85.41   0.00175393    1.762    0.432
       423 -10.1761      7.6785    166.0242   1.0979583210e+02   3.9389938038e+01    0.2134166    0.1775323  18.33 0.0008916192    1.626    0.385
       424 -10.2854     21.2922    160.5931   1.0621725138e+02   3.9375044226e+01    0.2966835    0.2398274 -45.15  0.001980474    1.610    0.379
       425  -8.4928    111.6193     15.0129   4.1724312278e+01   5.4882579127e+01    0.1819183    0.1686457  12.75 0.0004633075    1.080    0.074
       426 -10.0034     15.0566    165.0315   1.0803191607e+02   3.8968374859e+01    0.2407798    0.1661784  34.31  0.000297988    1.588    0.370
       427  -9.0566    242.5455     14.5199   2.5410385123e+01   2.3135367136e+01    0.1258741    0.1027035 -54.39  9.30009e-05    1.021    0.021
       428  -9.0692     19.4875    164.4799   1.0695789817e+02   3.8685387503e+01    0.1935406    0.1166319  25.86 0.0006777504    1.995    0.499
       429 -12.7374     35.4261    158.2424   1.0257213135e+02   3.8486842013e+01     1.471165     0.404048  52.81  0.005115812    4.281    0.766
       430 -10.9111      2.2420    155.9409   1.1040688217e+02   4.2026766752e+01    0.5189282    0.1958455 -74.73  0.002615676    2.169    0.539
       431 -10.0425      9.4506    158.0014   1.0883878340e+02   4.0996907310e+01    0.2567429    0.1605831  27.01  0.001582177    1.888    0.470
       432  -9.3615    248.9548    154.0008   5.6240846913e+01   3.6452288864e+00    0.1997612    0.1320655   3.92 0.0005607277    1.658    0.397
       433  -8.2372     92.2567     13.6655   4.5752634050e+01   5.9529999189e+01    0.1298426    0.1007413 -54.30 0.0005352535    1.569    0.363
       434  -9.3501     45.8942    151.6682   9.9222019011e+01   3.8815864425e+01    0.2179047    0.1601372 -84.05 0.0002760522    1.225    0.184
       435 -10.7473     20.7257    140.6414   1.0454507402e+02   4.3950365691e+01    0.3213334    0.2414571  62.95  0.002064363    1.245    0.197
       436 -10.8062     15.3751    143.2544   1.0618802150e+02   4.3817447152e+01    0.3899204     0.294478 -42.42  0.002490372    1.685    0.406
       437 -10.0663      9.2240    147.5839   1.0811423957e+02   4.3342253271e+01    0.2627499    0.1829555 -42.44  0.001229452    1.887    0.470
       438 -10.3777     19.6669    150.8873   1.0578029517e+02   4.1701959211e+01    0.3693376    0.1546138 -66.08  0.001433105    2.071    0.517
       439 -11.5326     14.2153    150.6551   1.0711829214e+02   4.2235015055e+01    0.4540378    0.2677281  16.79 0.0004961268    2.338    0.572
       440  -9.6721    183.8377     31.6109   3.5511926725e+01   3.4887293467e+01    0.3065451    0.2088057  81.50  0.001190259    1.539    0.350
       441  -9.5314     35.8292    149.1613   1.0151041607e+02   4.0507834361e+01    0.1902214    0.1455422  76.11 0.0002650619    1.165    0.142
       442 -10.4282      2.5498    146.7634   1.0971354392e+02   4.4042868814e+01    0.2960382    0.2035635 -58.22 0.0006113008    1.558    0.358
       443  -9.0333     56.7760    145.5156   9.5601286640e+01   3.8908771464e+01    0.2323255    0.1325937  28.16  0.001135509    2.058    0.514
       444  -8.6011    241.2818    144.3311   5.5417600645e+01   6.2222035647e+00    0.1295987     0.088757   0.63 0.0003669599    1.609    0.378
       445  -9.2715     38.2704    143.0757   1.0017265372e+02   4.1651523318e+01    0.1769881    0.1426594 -88.82 0.0003074124    1.069    0.065
       446 -10.3963      2.4755    130.0336   1.0844978346e+02   4.7851172886e+01    0.4917578    0.2883999  -4.82  0.002320099    2.849    0.649
       447  -9.6316      1.5286    139.2169   1.0942354611e+02   4.5819361021e+01    0.3409722    0.0904524 -75.78  0.001267486    2.970    0.663
       448  -9.9606      3.0477    134.0319   1.0862452210e+02   4.6893195073e+01    0.3210456    0.2140113  35.44   0.00124795    1.653    0.395
       449 -10.4371      8.2689    133.1735   1.0715769864e+02   4.6707146394e+01    0.3291717     0.194502 -65.15  0.001938015    1.504    0.335
       450 -10.2326     41.5233    138.6875   9.8753617981e+01   4.2317933505e+01    0.3920062    0.2377657  69.15  0.001679411    1.761    0.432
       451 -10.6072     41.3961    132.5614   9.7971739600e+01   4.3771491625e+01    0.5079536    0.2119804 -69.62   0.00172309    2.171    0.539
       452 -10.1787     12.0000    136.4648   1.0645684986e+02   4.5656646815e+01     0.386764    0.1320612 -78.30  0.001524263    2.565    0.610
       453 -10.0078     15.2392    135.5599   1.0550607501e+02   4.5600778102e+01    0.2149027    0.2084632 -61.29 0.0007924992    1.290    0.225
       454  -9.2489    230.7958    136.8802   5.5454408095e+01   9.1183072334e+00    0.2017981    0.1635968  -0.49 0.0006817772    1.203    0.169
       455 -10.2576     34.6558    135.8656   1.0026709939e+02   4.3716862957e+01    0.3452869    0.2472149 -40.97   0.00108613    1.735    0.424
       456  -8.7389    235.9799    136.7625   5.4629028831e+01   8.2101465147e+00    0.1589277    0.1070435  43.63 0.0005434665    1.599    0.374
       457  -9.0100     58.2934    135.5893   9.3729661506e+01   4.1025918642e+01    0.2429561     0.191024 -26.73 0.0007519649    1.727    0.421
       458 -10.3612     60.5601    130.9806   9.2363309293e+01   4.1811572128e+01    0.4451787    0.2879654  48.70    0.0013218    1.569    0.363
       459  -8.7999    248.7992    134.0102   5.2154888209e+01   6.3722031275e+00    0.1754579   0.08762577 -31.21 0.0005455814    1.746    0.427
       460  -9.3000     47.4381    133.2784   9.6387588016e+01   4.2912025285e+01    0.3274862    0.1479655  56.88  0.001361561    2.695    0.629
       461  -9.7765     21.0762    132.2576   1.0357921183e+02   4.5867704197e+01    0.3740717    0.2119417  69.70  0.001321292    1.821    0.451
       462  -9.6574     18.1855    127.2059   1.0383288878e+02   4.7301587012e+01    0.4354508    0.1496743 -56.96  0.001347321    2.606    0.616
       463 -10.0429     34.5338    127.5498   9.9229553312e+01   4.5689518818e+01    0.2931523    0.1788047  81.48  0.001120751    1.744    0.427
       464 -10.3171     38.6666    123.4120   9.7455327761e+01   4.6237310520e+01     0.301939    0.2195141 -36.97  0.001698874    1.704    0.413
       465  -9.3479     50.8685    126.8151   9.4438670851e+01   4.4029912404e+01     0.189235    0.1705879 -54.76 0.0005385894    1.196    0.164
       466  -8.9216     12.3793    126.8249   1.0542534062e+02   4.7864105184e+01     0.199563    0.1296297  83.67 0.0007236383    1.384    0.277
       467  -9.7973     45.5218    125.7734   9.5816371357e+01   4.4911729130e+01    0.2915753     0.214739  50.59 0.0007260633    1.390    0.280
       468  -8.9535    241.4883    124.0718   5.1069336582e+01   9.0416699321e+00    0.2073581    0.1133896 -32.32  0.001036749    1.606    0.377
       469 -10.4201     71.9218    123.1661   8.7751606996e+01   4.2060375848e+01    0.2228739    0.1934743 -66.36  0.000246475    1.082    0.076
       470  -8.8312     59.6748    124.7067   9.1553438688e+01   4.3410064812e+01      0.13205    0.1022141 -32.67 0.0003438518    1.620    0.383
       471 -10.1904     61.8595    120.8409   9.0229153334e+01   4.4032280267e+01    0.2675826    0.2038599 -66.24 0.0003965824    1.205    0.170
       472 -10.5534      7.2263    122.7870   1.0647810594e+02   4.9194272026e+01    0.2906872    0.2527465 -31.39 0.0009926575    1.474    0.322
       473  -9.0618     84.5924    121.8992   8.3904788110e+01   4.0395206197e+01    0.3471115    0.1432618 -46.22  0.001302806    2.593    0.614
