#   1 NUMBER                 Running object number                                     
#   2 MAG_AUTO               Kron-like elliptical aperture magnitude                    [mag]
#   3 X_IMAGE                Object position along x                                    [pixel]
#   4 Y_IMAGE                Object position along y                                    [pixel]
#   5 X_WORLD                Barycenter position along world x axis                     [deg]
#   6 Y_WORLD                Barycenter position along world y axis                     [deg]
#   7 A_WORLD                Profile RMS along major axis (world units)                 [deg]
#   8 B_WORLD                Profile RMS along minor axis (world units)                 [deg]
#   9 THETA_WORLD            Position angle (CCW/world-x)                               [deg]
#  10 FWHM_WORLD             FWHM assuming a gaussian core                              [deg]
#  11 ELONGATION             A_IMAGE/B_IMAGE                                           
#  12 ELLIPTICITY            1 - B_IMAGE/A_IMAGE                                       
         1 -12.8486      2.0143     83.4614   1.4095515533e+02   5.8300152527e+01     2.161637   0.02936159 -70.42  0.004639492   11.109    0.910
         2 -14.2700      4.1080     19.0313   1.2515404513e+02   7.1362901523e+01     3.795961    0.4068245 -53.20   0.01394415    4.317    0.768
         3 -13.9645    189.3564     22.3489   6.9466251435e+01   3.5100498534e+01     2.100173     1.239324  -0.79  0.008110188    2.610    0.617
         4 -14.3108    196.8159     17.0079   6.6978866889e+01   3.3747097088e+01     2.097077     1.598766  45.68  0.008403879    1.433    0.302
         5 -13.8522    201.8885      9.7975   6.4383892388e+01   3.3200624144e+01     1.468491    0.7595196  46.80   0.00169443    2.201    0.546
         6 -11.9285     47.6411    143.6648   1.3633701596e+02   4.0785910595e+01    0.3699442    0.3248952  46.61  0.001772128    1.305    0.234
         7 -10.6565    204.9215    249.6831   1.1860410716e+02  -3.8385096989e+00    0.1789881     0.138696   9.49 0.0006278662    1.322    0.244
         8  -9.2336    184.2274    249.9735   1.2219748752e+02  -6.1912112087e-01    0.1271662   0.09797928 -38.49  0.000886476    1.688    0.407
         9 -11.9521    145.8311    241.2762   1.2789443992e+02   6.7603497135e+00     0.416459    0.3426034  29.21  0.001306064    1.323    0.244
        10 -11.3842    143.3263    249.2216   1.2925815210e+02   6.0133045112e+00    0.4256438    0.2624707  79.45  0.002304545    2.687    0.628
        11 -11.1900    150.2164    248.0687   1.2791337693e+02   5.0785345564e+00    0.4204925    0.2189796  44.91  0.002029713    1.461    0.315
        12 -10.7255    152.6375    243.8382   1.2698237399e+02   5.2859154284e+00    0.2416221    0.2064693 -77.40    0.0015172    1.496    0.332
        13 -11.0649    133.7820    249.4372   1.3095748918e+02   7.4870020482e+00    0.4691969     0.175102  49.44  0.002288845    2.165    0.538
        14 -10.4142    122.6981    250.0927   1.3296394315e+02   9.1104246323e+00    0.2933975     0.166229  39.24  0.001769574    1.546    0.353
        15  -9.9155    126.5149    249.0009   1.3218535834e+02   8.6841361186e+00    0.2256041    0.1255804  58.66  0.001086666    1.674    0.403
        16 -11.4522    121.9175    245.1088   1.3259212871e+02   9.9853519679e+00    0.3824369    0.1578151  55.65  0.001843993    2.375    0.579
        17 -12.6539    126.2541    240.8882   1.3137129407e+02   9.9574831721e+00    0.4114348    0.3382728  61.57  0.001856686    1.113    0.102
        18 -11.7872    111.7363    248.5757   1.3472497223e+02   1.1008884715e+01    0.7763503     0.219206  48.40  0.003424554    2.710    0.631
        19 -11.5808     96.5312    239.0705   1.3650598845e+02   1.4794986839e+01      0.44667    0.3032988 -87.80   0.00297242    1.591    0.371
        20 -11.1257    101.4787    241.5532   1.3585994748e+02   1.3656229817e+01    0.6936342    0.2794994 -72.28  0.003232617    3.646    0.726
        21  -9.7522    100.7019    250.3168   1.3679339133e+02   1.2375820456e+01    0.2032905    0.1342273  52.28 0.0007423207    1.126    0.112
        22 -10.5746     98.0159    246.5206   1.3692039004e+02   1.3366660303e+01    0.2975657    0.1531292  61.92   0.00142282    1.805    0.446
        23 -10.7904    107.9745    240.2240   1.3457777009e+02   1.2895886635e+01    0.2909398    0.1764794 -72.25            0    1.972    0.493
        24 -10.5392    104.3413    238.2807   1.3503719697e+02   1.3761912693e+01    0.2094632    0.1634539  37.38 0.0008455829    1.428    0.300
        25 -11.7742     81.3710    246.9309   1.3981694798e+02   1.5666462511e+01    0.4937749    0.2817331 -86.35   0.00239123    1.945    0.486
        26 -10.5689     87.8554    250.5578   1.3900546039e+02   1.4178983060e+01    0.4549943    0.1694442  38.59  0.001705537    2.547    0.607
        27 -10.3684     88.0615    246.9869   1.3867787957e+02   1.4721868099e+01    0.2620825    0.1612278  34.49  0.001565325    1.884    0.469
        28 -10.1090     83.6070    242.1808   1.3904842520e+02   1.6136113920e+01    0.2498789    0.2084266  -4.37  0.001136077    2.429    0.588
        29 -11.4538     90.0384    236.1940   1.3739964881e+02   1.6223722151e+01    0.3167492    0.1998035  67.47  0.001889846    1.406    0.289
        30  -9.8844     83.2801    238.3699   1.3878659406e+02   1.6820182592e+01    0.2584771    0.1380568  50.99  0.001392212    1.429    0.300
        31 -11.0594     86.2532    237.0195   1.3814580398e+02   1.6627455304e+01    0.3239644    0.1686978 -79.11  0.001646395    2.247    0.555
        32  -9.7629     74.7163    250.5408   1.4121369258e+02   1.5988569107e+01    0.2262766   0.08475824  42.11  0.001205745    2.166    0.538
        33 -13.7642     45.8267    246.0431   1.4567366537e+02   2.0407781987e+01    0.6998477    0.5942717  45.03  0.005721094    1.582    0.368
        34 -13.4924     48.0396    228.5313   1.4420161617e+02   2.3177352184e+01    0.8765036    0.5621597  25.21  0.005305568    2.600    0.615
        35 -15.6235     56.9933    217.0769   1.4176607799e+02   2.4165778616e+01     4.450056     2.372913  66.13   0.02644136    1.632    0.387
        36 -10.6803    173.3886    240.0923   1.2279992442e+02   2.4129061717e+00      0.24696    0.2074753 -83.20  0.001022097    1.683    0.406
        37 -10.6252    117.3846    224.4556   1.3117053241e+02   1.4048380128e+01    0.2336442    0.1885863  49.45  0.000564854    1.116    0.104
        38 -11.2027     98.7178    231.5281   1.3539360374e+02   1.5738687080e+01    0.3697328    0.2704058  85.53 0.0009542608    1.384    0.277
        39 -12.3751    110.1612    229.8920   1.3312222595e+02   1.4267038805e+01    0.7150343    0.3787106  42.24  0.002353624    1.603    0.376
        40 -10.8833    121.5320    232.9798   1.3136060133e+02   1.1963164184e+01    0.2399656    0.2129116  70.02 0.0005892311    1.173    0.147
        41  -9.9635    166.5750    241.5138   1.2420339316e+02   3.3378526561e+00    0.2521012    0.1447571  29.90  0.001136619    1.793    0.442
        42 -10.6820     79.5059    229.1280   1.3866471656e+02   1.8947303983e+01     0.344259    0.1595694 -54.78  0.001825477    2.815    0.645
        43 -14.8235     11.2152    206.5001   1.4931700599e+02   3.1289683634e+01     1.839777     1.315184 -82.54   0.01418894    1.325    0.245
        44 -10.7043    156.6858    231.5751   1.2470304595e+02   6.4052215812e+00    0.2200469    0.1813038  42.98 0.0005696848    1.047    0.045
        45  -9.5815     92.4866    231.6389   1.3653926537e+02   1.6644586799e+01    0.2481352     0.107694 -61.92  0.001306923    2.610    0.617
        46 -10.0251     91.4348    225.9175   1.3618446642e+02   1.7797904520e+01    0.5962079    0.1617514  53.07  0.002236685    3.689    0.729
        47 -11.4299    142.2103    229.1771   1.2707762682e+02   9.1984634999e+00    0.3787847    0.2475355 -49.68  0.001858876    1.910    0.476
        48  -9.1436    158.1262    241.8609   1.2575879314e+02   4.6726924088e+00    0.1543395    0.1229574  27.87 0.0003897101    1.299    0.230
        49 -10.3204    180.9530    229.4951   1.1996613784e+02   2.6050070826e+00    0.2324789    0.1298459  37.62  0.001006333    1.475    0.322
        50 -10.3289    190.8513    228.1500   1.1797333003e+02   1.1175827203e+00    0.1961441    0.1579121  37.03 0.0002948497    1.048    0.046
        51 -11.0245    165.2148    227.1917   1.2253280350e+02   5.6132043627e+00    0.2801024     0.214058 -77.33  0.001275396    1.880    0.468
        52 -12.3068    136.1776    228.6158   1.2813352066e+02   1.0290062453e+01    0.4183351    0.2526552 -48.50  0.002414968    2.094    0.522
        53  -9.3406    195.3176    228.3285   1.1719560622e+02   3.4309400775e-01     0.124281   0.08342553  16.26 0.0007046408    1.681    0.405
        54  -8.7733    175.2448    228.2258   1.2082750099e+02   3.7523772790e+00    0.1939664    0.1324947  68.63  0.001061455    2.108    0.526
        55 -10.7454    110.7061    222.2915   1.3218944094e+02   1.5487200386e+01    0.2654988    0.2429416 -51.96 0.0009288621    1.461    0.315
        56  -9.8313     93.9184    217.1049   1.3482728575e+02   1.9013516137e+01    0.2555632    0.1517414  88.95  0.001402877    1.977    0.494
        57 -11.4261     98.8080    223.1460   1.3452998405e+02   1.7184014572e+01    0.3772033    0.2508264  58.17 0.0002919675    1.224    0.183
        58  -9.9993    105.1053    222.8577   1.3331244193e+02   1.6266502206e+01    0.2362747    0.1664708  32.84 0.0007811807    1.650    0.394
        59 -11.4826    105.0224    218.9245   1.3289735791e+02   1.6977234444e+01    0.2353746    0.1804958  67.87            0    1.138    0.121
        60  -8.9711    219.9774    223.4850   1.1206851452e+02  -3.1199910293e+00     0.170108   0.09937481  38.44 2.409094e-05    1.422    0.297
        61 -10.5641    149.9910    222.4359   1.2473555251e+02   8.9513877231e+00    0.1898116    0.1842005 -60.04 0.0001503303    1.265    0.209
        62  -9.6365    149.5507    218.5480   1.2428827277e+02   9.6524477227e+00    0.2098642    0.1670383  61.31 9.160557e-05    1.229    0.186
        63 -10.3036    141.6613    212.7789   1.2501742706e+02   1.1980881234e+01    0.3567593    0.2153307  46.64   0.00146938    1.380    0.275
        64 -10.3157    137.5558    214.7711   1.2609054906e+02   1.2350428061e+01    0.3640397    0.2301226  86.17  0.001530677    2.508    0.601
        65 -11.6375    142.0014    221.9632   1.2619026529e+02   1.0390755533e+01    0.2610117    0.1834735  50.89 0.0003344435    1.181    0.153
        66 -11.6456    142.3162    218.7006   1.2569742103e+02   1.0873348700e+01      0.31442    0.2140805  59.71 0.0002987605    1.429    0.300
        67  -9.8617    164.1454    220.9176   1.2184645475e+02   6.7448811208e+00    0.2471705    0.1696112 -20.85  0.001353086    2.200    0.546
        68 -10.0472    245.5300    218.9619   1.0696222766e+02  -6.6340604268e+00    0.1665986   0.08852577  -4.07 0.0008098552    2.596    0.615
        69 -10.3221    177.0227    218.3245   1.1904106831e+02   4.8892351968e+00    0.3183077    0.2415525 -79.14  0.001600204    2.063    0.515
        70 -10.2025     89.3782    218.8426   1.3587053591e+02   1.9373590482e+01    0.2167841    0.1676407  70.85 0.0005296113    1.090    0.082
        71  -9.9516    233.3463    217.1923   1.0871648866e+02  -4.5140728697e+00    0.1951776    0.1496401 -32.87 0.0007545276    1.555    0.357
        72  -9.4364    134.0725    217.8339   1.2717095972e+02   1.2423077972e+01    0.2035015     0.145008  59.63 0.0007345555    1.292    0.226
        73 -10.3078    183.4767    214.2691   1.1720366863e+02   4.3560214222e+00    0.3003639    0.1848194  55.21 0.0007880206    1.781    0.439
        74 -10.8977    101.9800    212.2645   1.3273769207e+02   1.8665350713e+01    0.3906868    0.2268205  50.35  0.001989107    1.426    0.299
        75 -10.6514     88.2346    213.1881   1.3551237564e+02   2.0588860758e+01    0.2396449    0.1869062  81.14 0.0004129961    1.169    0.144
        76 -11.0951    132.7393    224.4449   1.2826519776e+02   1.1539637387e+01    0.2340768    0.1916876  39.40 0.0007657925    1.210    0.174
        77 -12.0183    132.0496    211.4569   1.2672368462e+02   1.3868160672e+01    0.3638134    0.2972957  -5.88 0.0005695372    1.884    0.469
        78  -9.4986    152.1413    211.9285   1.2285067985e+02   1.0286792273e+01    0.1943447    0.1551969  63.61 0.0005393015    1.274    0.215
        79 -12.4639    135.1420    236.4808   1.2926580434e+02   9.2187254937e+00    0.4072094    0.3137041  80.09  0.002709141    1.481    0.325
        80  -9.2024    197.7938    208.1886   1.1354015968e+02   2.7072919276e+00    0.1674814    0.1300063  19.28  0.000266234    1.252    0.201
        81 -10.7572    174.7390    206.1117   1.1756903599e+02   7.1747599333e+00    0.3190123    0.2279374 -21.18  0.001165304    1.848    0.459
        82 -11.8467     93.2081    205.2147   1.3367133516e+02   2.1353748843e+01    0.6612016    0.2915045  49.17  0.001704231    1.919    0.479
        83 -11.7080    246.8838    205.9231   1.0446364082e+02  -5.3176229467e+00    0.5522547    0.2779924  26.04  0.002823727    1.999    0.500
        84  -8.6691    183.3190    206.3070   1.1595327891e+02   5.5871562234e+00    0.1308199   0.09380044  15.79 0.0002577457    1.635    0.388
        85 -10.2643    125.8787    205.6708   1.2717192503e+02   1.5959446646e+01     0.218973     0.180707 -87.84 0.0004305274    1.300    0.231
        86  -8.7677    114.4298    206.5488   1.2958369921e+02   1.7722386329e+01    0.1268992    0.1074029  58.63 1.812381e-05    1.046    0.044
        87  -9.6830    149.4023    204.4668   1.2228926599e+02   1.2040035413e+01    0.2471589    0.1973266  -3.15  0.001054977    1.793    0.442
        88 -10.0707    103.6887    203.2804   1.3133766041e+02   2.0085328115e+01    0.2270128    0.2213598   3.64 0.0009047851    1.416    0.294
        89  -9.7324     75.3360    203.7637   1.3707078929e+02   2.4263020569e+01    0.3331899    0.1765461  33.21  0.001709355    2.257    0.557
        90  -9.6428    224.9043    202.6647   1.0766035596e+02  -1.2705565869e+00    0.1753498    0.1374889  30.78 0.0004715411    1.112    0.101
        91 -10.1216    166.9364    203.2421   1.1862842308e+02   9.0625854924e+00    0.2247203    0.1607696  41.15 0.0002913787    1.201    0.167
        92  -9.9620    169.7695    200.3815   1.1760789206e+02   9.0140524041e+00     0.215828    0.1979906  31.64 0.0003062253    1.087    0.080
        93  -9.9832    133.0648    202.9899   1.2535270171e+02   1.5203623825e+01    0.1947226    0.1668249  58.92 0.0003318433    1.033    0.032
        94 -11.1094    134.1700    197.7353   1.2436684196e+02   1.5971331322e+01    0.3073535    0.2506554 -70.57 0.0002446495    1.369    0.270
        95 -10.8794    197.4126    200.8495   1.1235946630e+02   3.8555825223e+00     0.410749    0.2173898  44.92  0.001319217    1.688    0.407
        96 -14.6817     27.4781    248.3006   1.4870909998e+02   2.2139294307e+01     1.001851    0.5877959  43.29  0.004786839    1.633    0.388
        97  -9.1330    122.6970    200.6864   1.2713641571e+02   1.7425317984e+01    0.1190634    0.1030937   7.66 0.0002077775    1.615    0.381
        98  -8.8972    115.2585    200.6561   1.2865153865e+02   1.8691346631e+01    0.1301369   0.08915859  74.88  0.000696422    1.591    0.372
        99 -10.3815    108.3884    203.8487   1.3045851635e+02   1.9219146567e+01    0.4145461    0.1849793 -55.16  0.001444751    2.511    0.602
       100  -8.7625    158.5311    199.5125   1.1969890178e+02   1.1234281411e+01    0.1343345     0.115825  46.37 5.263614e-05    1.005    0.005
       101 -10.3084    100.6800    198.1616   1.3131954040e+02   2.1557017317e+01    0.2165706    0.2123913 -87.65 0.0003608253    1.314    0.239
       102  -9.9859     86.1283    198.4400   1.3433266965e+02   2.3748556190e+01    0.3898232    0.1663864 -65.54    0.0009786    2.446    0.591
       103 -10.1312     83.6512    193.3800   1.3426329289e+02   2.5132343768e+01    0.3681633    0.2284567  21.07  0.001095714    2.875    0.652
       104 -10.1498    115.7521    240.5320   1.3321790952e+02   1.1655072082e+01    0.2211303    0.1268692  58.95  0.001228346    1.555    0.357
       105 -15.7085      7.2780    247.2905   1.5174859365e+02   2.4417729457e+01     1.967386    0.9451926 -75.73   0.01406711    2.026    0.506
       106  -9.7312    192.0255    198.0165   1.1288706074e+02   5.2734717490e+00    0.1935798    0.1691226  33.41            0    1.031    0.030
       107  -8.6002    149.6925    198.7325   1.2135450055e+02   1.2991090252e+01    0.1258365   0.09962209  19.26 0.0001774558    1.536    0.349
       108  -9.2385    141.8522    198.1357   1.2285531770e+02   1.4521567845e+01    0.1674345    0.1489895  24.76 0.0002901861    1.278    0.218
       109  -9.2681     95.3144    197.0016   1.3228117088e+02   2.2631618955e+01    0.1763354    0.1505699  75.27 0.0005709853    1.064    0.060
       110 -11.9648     76.6264    187.8605   1.3509738940e+02   2.7287986993e+01    0.2782758    0.2515851 -56.62 0.0009198813    1.429    0.300
       111 -11.9489     71.9450    194.8301   1.3683277260e+02   2.6520079551e+01    0.3895199    0.3102734 -43.16  0.001481629    1.844    0.458
       112 -10.7283     70.7953    190.1963   1.3657689300e+02   2.7626898579e+01    0.1989768    0.1706189  59.55 0.0002416173    1.187    0.157
       113  -9.6887    113.5117    196.0016   1.2838713371e+02   1.9877682110e+01    0.2990155    0.1230425  53.33  0.001240868    2.417    0.586
       114  -9.3128    107.5228    195.9756   1.2962650412e+02   2.0877820839e+01    0.1799749    0.1242392 -68.00 0.0007620266    1.547    0.353
       115  -9.8314    177.2989    194.3682   1.1511169865e+02   8.6044304012e+00    0.2595116    0.1884192  13.62  0.001364938    1.719    0.418
       116 -10.5824    159.3445    194.1138   1.1865955868e+02   1.2021178925e+01    0.3751096    0.2342113  54.11 0.0009732072    1.567    0.362
       117 -10.3594    120.8371    194.5629   1.2666422408e+02   1.8908137424e+01    0.3992511     0.174649  51.76  0.001361785    2.156    0.536
       118 -14.0061     13.0265    239.0026   1.5054090673e+02   2.5234172685e+01    0.8182724    0.2235985  37.92  0.002505783    3.300    0.697
       119 -10.3008    173.0267    192.5383   1.1564297640e+02   9.7165233840e+00     0.322468    0.2280882 -20.88 0.0009798534    1.881    0.468
       120  -9.5908     47.2389    192.9489   1.4164039777e+02   3.0102660628e+01    0.1623278    0.1352612 -75.56 0.0005281507    1.331    0.249
       121 -10.5430    191.4187    191.4226   1.1183474288e+02   6.4207468788e+00    0.2591305    0.2190018  21.13 0.0005847991    1.134    0.118
       122  -9.7218    113.1059    192.1302   1.2794061153e+02   2.0702587225e+01    0.1836329    0.1692266  46.98 0.0002522973    1.209    0.173
       123  -9.2745    101.9204    192.3031   1.3031499159e+02   2.2517621833e+01    0.1815265    0.1474236  56.76 0.0004477186    1.084    0.078
       124  -9.6480    135.3470    190.4178   1.2301472156e+02   1.7130713582e+01    0.2140135    0.1663636 -64.90 0.0004567465    1.432    0.302
       125  -8.8391    197.7565    190.0050   1.1036005006e+02   5.4510419573e+00    0.1514748    0.1137883 -34.67 0.0008446379    1.467    0.318
       126 -11.7964    249.7659    187.7852   1.0062853229e+02  -3.5233782289e+00    0.4051064    0.2395056 -22.51  0.002229386    1.672    0.402
       127 -10.4321     44.2405    188.5755   1.4186387414e+02   3.1355030073e+01    0.3390116    0.2218687  19.59  0.001918066    2.557    0.609
       128 -13.2386     42.3446    237.1360   1.4571687334e+02   2.2340410976e+01    0.5767703    0.3465135  43.27 0.0009230035    1.583    0.368
       129 -10.1048    175.8666    186.9653   1.1409538376e+02   1.0122084693e+01    0.2039887    0.1835754  37.15 0.0003830057    1.017    0.016
       130  -9.2467     67.4583    186.7996   1.3690789254e+02   2.8788760356e+01    0.1762913    0.1356582  45.63 0.0004488522    1.340    0.254
       131  -8.8076    123.9624    185.9877   1.2474246758e+02   2.0033397084e+01    0.1603539    0.1375988  58.53  0.000349089    1.021    0.021
       132  -9.7944    143.3014    184.7051   1.2042272074e+02   1.6748690102e+01    0.2156274    0.1641981  46.01 0.0005299662    1.175    0.149
       133 -10.0703     87.1933    183.6010   1.3232894912e+02   2.6612588127e+01    0.4386334    0.1897465  42.73  0.002012412    2.106    0.525
       134  -9.2192     38.3408    184.0435   1.4267243490e+02   3.2970196774e+01    0.1689433    0.1386525 -83.72 0.0009930978    1.215    0.177
       135  -9.5865     37.1881    180.1796   1.4257952720e+02   3.3907559517e+01    0.2064906    0.1362919  81.34 0.0005036127    1.256    0.204
       136  -9.7439    217.4324    183.2327   1.0540194278e+02   2.8040915022e+00    0.2241052    0.1670374  38.70 0.0003470683    1.239    0.193
       137 -10.4423     17.3332    181.1929   1.4667348928e+02   3.5727980001e+01    0.3368909    0.1215068 -56.40  0.001580315    3.398    0.706
       138 -10.0764    115.6478    181.1378   1.2580010538e+02   2.2468960358e+01    0.3169715    0.1923345 -85.96  0.001429516    2.334    0.572
       139 -11.7075    104.3467    180.9248   1.2823725946e+02   2.4436619569e+01    0.2353501     0.198275  68.05 0.0002624186    1.036    0.034
       140  -9.3039     65.9506    182.0294   1.3670745039e+02   2.9994508076e+01    0.1604897     0.147881 -44.40 0.0003686363    1.521    0.343
       141 -10.0105    140.0516    183.3225   1.2088310640e+02   1.7620813990e+01    0.2334859    0.1977795 -77.75 0.0003652934    1.298    0.230
       142 -10.7779    135.2119    179.9855   1.2136772648e+02   1.9172280480e+01    0.3341829    0.2634487 -83.22  0.001837683    1.447    0.309
       143 -10.4492    129.0221    179.4258   1.2261712597e+02   2.0425302786e+01    0.2334257    0.1944331 -76.57 0.0003275034    1.277    0.217
       144  -9.8270     48.2122    179.8951   1.4025266300e+02   3.2701815488e+01    0.1871723    0.1418868  62.29 0.0004130615    1.161    0.139
       145 -10.7487     11.5723    178.9592   1.4766260258e+02   3.6719160118e+01    0.3204086    0.1222112  39.11  0.001770115    2.461    0.594
       146 -10.7281    181.2834    176.4460   1.1105758085e+02   1.0879907651e+01     0.453786    0.2986833  63.59  0.002124017    1.964    0.491
       147 -11.0513     80.5652    163.4952   1.3111729523e+02   3.1945114874e+01    0.2939805     0.234264  78.71  0.000134133    1.138    0.122
       148 -12.0300     85.4962    175.8486   1.3169242383e+02   2.8510499818e+01    0.4401073    0.3390496  62.36  0.001286641    1.152    0.132
       149 -12.8452     90.7973    167.1719   1.2927950543e+02   2.9566013847e+01     0.708729    0.5405144 -65.18  0.004081323    1.308    0.236
       150  -9.7368    109.1270    176.4147   1.2651787549e+02   2.4568785501e+01    0.2191738     0.166183  84.43 0.0006334473    1.374    0.272
       151 -10.6974     85.0009    166.0480   1.3045232733e+02   3.0712746002e+01    0.3868392    0.1826847 -62.41  0.001078319    2.067    0.516
       152 -11.0899     68.9714    167.9938   1.3438684301e+02   3.2611634242e+01    0.3599522    0.2243989 -63.75 0.0007293561    1.547    0.354
       153 -10.7837     77.1356    175.4921   1.3350116466e+02   2.9827457819e+01    0.2309702    0.1858589  76.11 0.0003853225    1.067    0.063
       154 -12.1765     71.7978    174.5022   1.3456065172e+02   3.0800864058e+01    0.3217828     0.267866 -51.72  0.000649919    1.494    0.331
       155 -13.1863     18.3014    169.8773   1.4566704609e+02   3.8003436291e+01    0.8770959    0.3491687 -82.39  0.004475353    2.173    0.540
       156 -12.2863    248.2543    171.8165   9.7746433812e+01  -1.1376951353e+00    0.5324749     0.357415  27.61  0.002994364    1.430    0.300
       157 -10.3416    154.7167    172.7356   1.1589246913e+02   1.6838725989e+01    0.3025736    0.2504026   4.90 0.0009496726    1.543    0.352
       158  -9.9098     48.3917    169.7505   1.3919707692e+02   3.4861095083e+01    0.2203782     0.100184 -71.64  0.001096918    1.970    0.492
       159 -11.1108     43.8293    169.3951   1.4016297750e+02   3.5469818738e+01    0.3193959    0.2744313 -45.41 0.0009157974    1.605    0.377
       160 -11.1318     12.5108    161.3616   1.4624790058e+02   4.0335167419e+01    0.2286636    0.1492431  69.66  0.001530319    1.298    0.230
       161  -9.4326    100.6197    170.7784   1.2757299525e+02   2.7194956936e+01    0.1847169    0.1220616 -76.01 0.0009385176    1.616    0.381
       162  -9.1488     36.8889    170.5213   1.4178001382e+02   3.5999010418e+01    0.1655753    0.1095387  41.72  0.001030317    1.586    0.369
       163 -10.0673    107.4115    168.2873   1.2563914190e+02   2.6581934901e+01    0.2410376    0.1730813  45.99 0.0004875047    1.324    0.245
       164  -9.5980     58.5087    167.8913   1.3673969111e+02   3.4022132062e+01     0.181739    0.1498775  68.28  0.000496781    1.100    0.091
       165 -11.3192    249.3540    149.7401   9.2967215926e+01   1.7979431842e+00    0.5753246    0.3579786 -29.95  0.002721737    1.502    0.334
       166 -11.9386    240.6909    150.5128   9.4566102554e+01   3.3198981835e+00    0.5780095    0.3751833  14.29  0.002811036    1.890    0.471
       167 -12.4732    245.0169    162.2186   9.6321898694e+01   7.8987887576e-01    0.5677095    0.3712345 -30.88  0.003077176    1.473    0.321
       168 -10.6729    249.4926    160.5040   9.5222724953e+01   2.2300694257e-01    0.2774492    0.1966478 -12.97  0.001548913    1.377    0.274
       169  -9.4535    175.9264    166.2834   1.1016820516e+02   1.3776011402e+01    0.2001651    0.1720621  42.33 0.0002640856    1.077    0.072
       170  -8.9069    124.3014    165.3177   1.2128382101e+02   2.4189887726e+01     0.133509    0.1142382  -5.51 0.0001781907    1.620    0.383
       171 -10.5917     47.1046    163.3368   1.3880049106e+02   3.6419211985e+01    0.2287386    0.1517513 -84.69 0.0006417343    1.308    0.236
       172 -10.0161     37.0607    162.7557   1.4099804441e+02   3.7670854725e+01    0.1871219    0.1306784  70.09 0.0006819347    1.255    0.203
       173 -11.2760     37.1414    143.8361   1.3894268623e+02   4.1891443350e+01    0.5134647    0.1271889 -66.82  0.001968767    3.175    0.685
       174 -11.6227     23.9302    149.0393   1.4264751584e+02   4.2013013385e+01    0.3527145    0.2008092 -56.76  0.001794919    1.799    0.444
       175 -11.7479     34.9866    148.9563   1.4004024113e+02   4.0956585119e+01    0.4382413    0.2508292  53.69  0.002041557    1.713    0.416
       176 -12.9895     32.7120    141.3266   1.3973726952e+02   4.2908838849e+01    0.7866918    0.2817907 -64.63  0.003636418    2.259    0.557
       177 -13.3532     23.3771    155.3214   1.4336213157e+02   4.0675855836e+01     1.039482    0.4157891  46.78  0.005359047    2.360    0.576
       178 -11.1797     96.3588    158.9342   1.2671044478e+02   3.0482555057e+01    0.3870457     0.226288 -59.39   0.00179698    1.695    0.410
       179  -9.0366     73.7075    160.2894   1.3227295564e+02   3.3657443274e+01    0.1715064    0.1055312  40.96 0.0002216583    1.653    0.395
       180 -11.1309     73.3636    156.6152   1.3183779011e+02   3.4531173665e+01    0.4276395    0.2677214  40.92  0.002266366    1.637    0.389
       181  -9.3257    119.9424    159.2277   1.2120631824e+02   2.6291748874e+01    0.1932634    0.1699909  57.69  0.000301285    1.066    0.062
       182  -9.9848     79.1184    159.1817   1.3083820960e+02   3.3120488701e+01    0.1856546    0.1371326  70.47 0.0003669284    1.295    0.228
       183  -9.4512     52.4260    158.3433   1.3700988736e+02   3.6897152266e+01    0.1821931    0.1514672  31.24 0.0005841174    1.515    0.340
       184  -9.2721     67.7354    174.9963   1.3551753508e+02   3.1255567251e+01    0.1819964    0.1194974 -75.14 0.0004515203    1.417    0.294
       185 -10.0187     88.9985    157.0233   1.2815918887e+02   3.2094440435e+01    0.2066488    0.1811751  79.32 0.0003232652    1.012    0.012
       186  -9.8722    134.6387    155.7317   1.1713996426e+02   2.4231433106e+01    0.2532196    0.2316035 -48.22 0.0006127321    1.187    0.158
       187 -11.9711    245.6713    156.5577   9.5025556588e+01   1.4877350709e+00    0.7822699    0.4330543  59.00  0.003477923    2.654    0.623
       188  -9.7681     62.1961    153.1187   1.3403133795e+02   3.6845278988e+01     0.321699    0.1581918 -74.86  0.001024262    2.024    0.506
       189 -13.0780     31.5907    154.8757   1.4145173221e+02   3.9978959919e+01    0.5961682    0.5012749 -77.63  0.002716745    1.188    0.158
       190 -10.4453    113.0320    152.4866   1.2161584415e+02   2.9023978046e+01    0.3558118    0.2815822  54.57  0.001007435    1.203    0.168
       191 -10.9678    102.7155    151.1905   1.2387412162e+02   3.1136611856e+01    0.3400934    0.3258342  32.17  0.001142859    1.234    0.189
       192 -10.2660    105.5637    146.2009   1.2227143569e+02   3.1758244555e+01     0.331549    0.3013938  73.27  0.001916262    1.031    0.030
       193  -9.9164     95.4211    153.1541   1.2598357492e+02   3.1925997247e+01    0.2468437    0.1870262  46.93 0.0006699404    1.303    0.233
       194 -10.5955     53.0162    146.4783   1.3537783620e+02   3.9510826404e+01    0.2168458    0.1887691 -89.13 0.0008126133    1.068    0.064
       195 -11.1073     56.3101    150.1014   1.3505182190e+02   3.8281191856e+01    0.3451798     0.278775  87.17  0.001145728    1.061    0.057
       196 -11.1265     46.8088    150.8431   1.3743738850e+02   3.9247694764e+01    0.2783487    0.2239722  48.62   0.00133758    1.324    0.245
       197  -9.1633     91.4242    150.5374   1.2651874851e+02   3.3166773728e+01    0.1391804    0.1220381  84.58 0.0001005268    1.031    0.030
       198 -12.5668     66.4289    128.5614   1.2920054937e+02   4.1950003361e+01    0.7631232    0.5123218  68.38  0.003981472    1.664    0.399
       199 -10.7507     61.0690    137.3289   1.3204058417e+02   4.0615388588e+01    0.2610773    0.2036172  51.82 0.0004724631    1.314    0.239
       200 -13.4735     67.3596    143.9355   1.3144473946e+02   3.8256469338e+01     1.053559    0.6241987  81.31  0.005003246    2.058    0.514
       201 -10.7137    219.1715    247.8320   1.1593262276e+02  -5.8196384283e+00     0.164862    0.1081096  21.18 0.0008459388    1.348    0.258
       202  -8.8927    106.2446    249.6509   1.3577850003e+02   1.1663628574e+01    0.1116915    0.0694167  68.68 0.0002617021    1.578    0.366
       203 -10.7968    242.2173    130.6606   8.9907641858e+01   6.0561779368e+00     0.634913    0.3299195  28.20  0.002529344    2.751    0.636
       204 -11.6203    248.6992    141.2804   9.1234830318e+01   3.1692430649e+00     0.965318    0.2977347  40.73  0.003326407    3.688    0.729
       205 -12.2714    248.3424    134.4415   8.9776365307e+01   4.2635404941e+00    0.8276702    0.5581065 -12.41  0.004214192    1.609    0.379
       206 -11.3513     27.5038    142.4773   1.4113357966e+02   4.3149553354e+01    0.2319817    0.1806545 -71.98 0.0009289072    1.173    0.148
       207 -10.9460     26.4912    139.4926   1.4105894285e+02   4.3916877693e+01    0.1991116    0.1694398 -50.52 0.0009749628    1.424    0.298
       208 -10.3689    164.1596    139.5989   1.0701637731e+02   2.1399173118e+01    0.2524494    0.2315698 -54.53 0.0003464215    1.136    0.120
       209 -11.1606    112.9470    136.3970   1.1850764260e+02   3.2622954420e+01     0.447915     0.308323  46.95  0.001430558    1.436    0.304
       210 -13.2245     46.0715    131.0479   1.3501970347e+02   4.3869599427e+01    0.7227574    0.4856949  75.54   0.00285073    1.541    0.351
       211 -12.9545      2.0928    126.9044   1.4582957306e+02   4.8651282960e+01     1.218407    0.2180423 -76.41  0.004150991    4.581    0.782
       212 -10.3891     87.7122    133.2826   1.2439217563e+02   3.7713946606e+01    0.2761208    0.2041508 -48.59 0.0001929377    1.417    0.294
       213 -10.0220    119.8414    137.6506   1.1704239396e+02   3.1035805326e+01    0.4066222    0.2915719 -15.15  0.001761151    2.342    0.573
       214  -9.4149    106.9836    129.9923   1.1869735014e+02   3.5170630882e+01    0.3842924    0.1605345  58.52  0.001143479    4.188    0.761
       215 -10.0496    117.8685    128.9577   1.1567142207e+02   3.3355505262e+01    0.2416487    0.1680621 -27.90  0.000920748    1.983    0.496
       216 -10.9687     65.0629    134.0324   1.3047962441e+02   4.0858067064e+01    0.3005454    0.2555762  53.97 0.0003895883    1.225    0.183
       217 -11.8953     32.7468    126.9643   1.3797336253e+02   4.6188101417e+01    0.3025805    0.2237284  78.80 0.0008937632    1.283    0.221
       218 -11.0215      9.5951    127.7670   1.4403890045e+02   4.7942775747e+01    0.2199928   0.09122115 -87.39 0.0008762086    2.308    0.567
       219  -9.8373     86.0102    126.7405   1.2358308828e+02   3.9500727717e+01     0.253344    0.2040124 -19.06  0.001155498    1.726    0.421
       220 -12.1499    248.4078    101.5347   8.2169261059e+01   9.2806529502e+00     0.977457    0.4218201 -32.29  0.003992822    2.134    0.531
       221 -10.6875    250.2562    125.0254   8.7353673254e+01   5.3114362601e+00    0.5895732    0.3133089 -51.71   0.00248019    2.526    0.604
       222 -10.8949    243.4306    120.2323   8.7316378090e+01   7.4291153937e+00    0.5552803    0.2799774 -53.27  0.002137624    2.892    0.654
       223 -10.1740    249.6006    117.7530   8.5788284635e+01   6.5497587004e+00    0.2837495    0.1963428 -36.83 0.0007123345    1.338    0.253
       224 -11.8238    248.3945    113.0336   8.4876027139e+01   7.5189752551e+00    0.6839039    0.4740009 -21.63  0.003521975    1.431    0.301
       225 -10.3933    209.8672    125.7689   9.4389294971e+01   1.3758440667e+01    0.2579961    0.2252382 -36.18 0.0004833424    1.138    0.121
       226  -9.5340    159.6959    126.3477   1.0491843643e+02   2.5068163205e+01    0.1584574    0.1222071 -84.06 0.0005552301    1.695    0.410
       227 -10.0653     53.8180    140.1276   1.3430913719e+02   4.0872246515e+01    0.2079263    0.1755572  62.94 0.0009565727    1.183    0.155
       228  -9.1151    124.5670    125.5124   1.1319007708e+02   3.2796707925e+01    0.1496855    0.1423772 -88.17 8.009175e-05    1.017    0.016
       229 -11.5428    133.5039    143.1620   1.1487082420e+02   2.7134531247e+01    0.9695228    0.3085897 -53.53  0.003013386    3.583    0.721
       230  -8.8087    114.6808    123.2667   1.1521772037e+02   3.5248101072e+01    0.1485305    0.1132299  78.47 0.0002081944    1.557    0.358
       231 -11.4718     48.1645    138.2603   1.3548666737e+02   4.1967131736e+01    0.4563703    0.2673542  16.09  0.002214842    2.786    0.641
       232  -9.7161    238.6800    121.9216   8.8467938158e+01   8.1499285407e+00    0.2313664    0.1679696 -11.63  0.001164598    1.506    0.336
       233 -12.5010     74.5957    139.0650   1.2882893073e+02   3.8367988736e+01    0.9172217     0.539722 -81.96  0.002386974    1.951    0.488
       234  -9.2592    143.3530    120.9308   1.0743704716e+02   2.9830895596e+01    0.3141025    0.1395142 -52.47   0.00109729    2.517    0.603
       235 -11.0098     20.6472    120.8987   1.4042316275e+02   4.8645565967e+01    0.1794311    0.1630728 -42.41 0.0007043182    1.367    0.268
       236  -9.2364     57.3031    120.3173   1.3027563258e+02   4.5054487989e+01    0.1307279    0.0946942 -39.75 0.0002459834    1.623    0.384
       237  -8.6766    130.6914    119.2823   1.1016538069e+02   3.2904114131e+01     0.152102    0.1188073  84.84 0.0001970559    1.564    0.361
       238 -12.7543     29.8767    116.0566   1.3727010656e+02   4.8965264501e+01    0.5206351    0.3249241  59.84  0.001123589    1.766    0.434
       239 -10.8576    168.1338    113.4482   9.9794868540e+01   2.5718474258e+01    0.3700143    0.3027607 -89.31 0.0009651963    1.489    0.328
       240 -10.4201     72.8157    115.0527   1.2490244205e+02   4.4217049212e+01    0.2115362    0.2016364  33.92            0    1.209    0.173
       241  -8.7529     82.2690    114.6097   1.2212340758e+02   4.2905512284e+01    0.1464036    0.1041648  88.71 0.0006986586    1.715    0.417
       242 -11.6594     57.0586    110.9838   1.2865197769e+02   4.7263560439e+01    0.4730419    0.2977587  26.40  0.001451361    1.963    0.491
       243 -10.6094     69.5875    110.9620   1.2499594990e+02   4.5626200862e+01    0.3414594    0.1574616  52.09  0.001375044    2.712    0.631
       244 -11.6173     15.3944    122.8360   1.4203646913e+02   4.8619885743e+01    0.1989636    0.1359857 -59.32  0.001279866    1.366    0.268
       245 -10.4174     62.6453    107.4835   1.2632079812e+02   4.7371448477e+01    0.2394301    0.1142535 -59.98 0.0008373237    1.853    0.460
       246 -10.4074    134.5064    105.0045   1.0555893906e+02   3.5157356916e+01    0.4132825    0.1513636 -43.98  0.001361216    2.726    0.633
       247 -10.2615    236.3522    145.9329   9.4302528496e+01   4.8610821667e+00    0.2955497    0.1641529  32.28  0.001328548    2.012    0.503
       248  -9.3082    112.4874    104.4781   1.1124237692e+02   3.9871359982e+01    0.1486227    0.1436429 -65.39 0.0001595105    1.009    0.009
       249  -8.8997     42.6938    103.6968   1.3156307711e+02   5.0582995107e+01    0.1280032   0.08713797 -40.96 0.0002798563    1.600    0.375
       250  -9.8179     63.0315     99.4363   1.2449938740e+02   4.9182050033e+01    0.2774671    0.1640633 -46.34   0.00136786    1.629    0.386
       251  -8.9294    136.7106     94.2942   1.0205177538e+02   3.6899456311e+01    0.1531127    0.1225248 -82.90  0.000316895    1.550    0.355
       252 -12.6287      2.1765    109.1223   1.4407494255e+02   5.2596541278e+01     1.156967    0.1685241 -73.13  0.003770892    4.843    0.794
       253  -9.3849     44.8349     90.3630   1.2827665406e+02   5.3418575919e+01    0.1553828    0.1232512   3.48 0.0002310532    1.611    0.379
       254  -9.3590    101.9916     88.0301   1.0975742609e+02   4.5488221677e+01    0.2105258     0.199386 -50.50  0.001177535    1.015    0.014
       255  -8.7877     64.3240     76.7280   1.1846715714e+02   5.4101082386e+01    0.1274823    0.1038347  80.79 0.0004707148    1.575    0.365
       256  -8.7768    199.6739    245.7097   1.1895013452e+02  -2.5526899975e+00    0.1174946    0.0747804  20.75 0.0002961516    1.615    0.381
       257  -9.2244     93.1172    244.8428   1.3762311283e+02   1.4346842141e+01    0.1759036    0.1150267  63.02 0.0004718553    1.245    0.197
       258 -12.7849    248.1456    240.2159   1.0999848586e+02  -9.3046993873e+00    0.6140503    0.4261183  11.37  0.004343081    1.213    0.175
       259 -13.4354      2.7644    140.7956   1.4683048563e+02   4.5552420990e+01    0.8095629    0.5664415  87.59  0.005695618    1.100    0.091
