#   1 NUMBER                 Running object number                                     
#   2 MAG_AUTO               Kron-like elliptical aperture magnitude                    [mag]
#   3 X_IMAGE                Object position along x                                    [pixel]
#   4 Y_IMAGE                Object position along y                                    [pixel]
#   5 X_WORLD                Barycenter position along world x axis                     [deg]
#   6 Y_WORLD                Barycenter position along world y axis                     [deg]
#   7 A_WORLD                Profile RMS along major axis (world units)                 [deg]
#   8 B_WORLD                Profile RMS along minor axis (world units)                 [deg]
#   9 THETA_WORLD            Position angle (CCW/world-x)                               [deg]
#  10 FWHM_WORLD             FWHM assuming a gaussian core                              [deg]
#  11 ELONGATION             A_IMAGE/B_IMAGE                                           
#  12 ELLIPTICITY            1 - B_IMAGE/A_IMAGE                                       
         1 -14.7457    146.3710     61.3299   9.1621850003e+01   4.0221984597e+01       1.5071     1.267543  16.21  0.003817402    1.275    0.216
         2 -14.6561    157.0336     46.1692   8.4380756533e+01   3.9922815505e+01     1.250714     1.037305 -24.19  0.003646107    1.218    0.179
         3 -14.6717    168.0355     15.0248   7.2218414389e+01   4.0893228926e+01    0.9982566    0.9525253  52.14  0.003538987    1.022    0.022
         4 -13.6196    188.3856     13.5705   6.8999662294e+01   3.5798145552e+01    0.6130097    0.4244243 -83.21  0.002439507    1.594    0.373
         5 -12.9716    230.2209    167.9523   1.0248615031e+02   3.4099170077e+00    0.4658821    0.2589055 -34.06  0.002303118    1.815    0.449
         6 -13.4580    187.7869    250.3945   1.2383134034e+02  -1.2114364675e-01    0.5757624    0.2270238  33.83  0.002380516    2.425    0.588
         7 -13.2265    181.8210    249.0956   1.2465421894e+02   9.6197277765e-01    0.4405708    0.2170852  41.09 0.0005502659    1.556    0.357
         8 -11.4930    151.6399    250.4628   1.2986781536e+02   5.4912219399e+00    0.2515669    0.1068203  41.71  0.001354949    1.837    0.456
         9 -20.0705     94.5367    226.5999   1.3710761189e+02   1.7693822014e+01     7.843057     6.037013  69.33   0.05247467    1.110    0.099
        10  -9.8217      8.4751    169.5368   1.4809152586e+02   3.8605254902e+01    0.1073595   0.08169907 -88.35 6.117187e-05    1.090    0.083
        11 -11.6832    151.9951    237.3983   1.2824592158e+02   7.2137109851e+00    0.2953515    0.1755639  38.39 0.0008874967    1.433    0.302
        12 -12.0119    192.5548    157.8427   1.0731242819e+02   1.2358716007e+01    0.3676188     0.296817  -4.48  0.001454419    1.350    0.259
        13 -11.2176    192.4137    153.2365   1.0635297011e+02   1.3168490499e+01    0.2788988    0.2257894 -45.43  0.001068016    1.356    0.262
        14 -11.1140    218.4784    220.5590   1.1425334470e+02  -1.4864064962e+00    0.2815375    0.1121164 -39.50  0.001334878    3.038    0.671
        15 -10.6066     23.0349    156.0260   1.4401866778e+02   4.0113350720e+01    0.1731529    0.1354776 -89.62 0.0004367135    1.018    0.018
        16 -11.5948     18.2236    151.1750   1.4459371831e+02   4.1572139416e+01    0.4476646    0.1361578 -68.63  0.002106285    2.520    0.603
        17 -13.5683    174.0346    149.3388   1.0920495755e+02   1.7667865310e+01    0.5697668    0.4150578 -56.17  0.002722654    1.621    0.383
        18 -19.0707     78.9900     93.2405   1.1929472662e+02   4.7461186227e+01     17.34738     0.731661 -51.93   0.02314001   20.441    0.951
        19 -10.9429     24.4600    215.9822   1.4827950801e+02   2.8227194721e+01    0.1359973    0.1005591  68.07 0.0003149153    1.099    0.090
        20 -12.3983    174.5299    141.1769   1.0729203975e+02   1.9062945754e+01    0.2685833    0.2045877  44.54 0.0003932591    1.276    0.216
        21 -11.9098     28.2543    235.5280   1.4879832961e+02   2.4456761502e+01    0.1837644    0.1097281 -87.78  0.001382471    1.445    0.308
        22 -11.6218     36.0380    136.0389   1.3887027153e+02   4.3187881451e+01    0.1842963    0.1486038 -85.28 0.0003252148    1.036    0.034
        23 -12.0751    148.0274    133.6951   1.1133962109e+02   2.6094273906e+01    0.2099894    0.1877347  46.57 0.0004018715    1.104    0.094
        24 -13.0674     11.5685    205.8630   1.4983397437e+02   3.1325749629e+01    0.3558468    0.2602928  30.19  0.002215303    1.939    0.484
        25 -10.8237     24.8160    202.8374   1.4738634892e+02   3.0591899257e+01    0.1424529     0.110118  84.63 0.0002636868    1.120    0.107
        26 -12.2893     26.7579    194.7079   1.4647888537e+02   3.1932975043e+01    0.1974395     0.158858  70.86 0.0005948457    1.153    0.133
        27 -13.7557    160.5585    128.2371   1.0726902515e+02   2.4517711601e+01    0.5356361    0.4893503  28.54  0.002019092    1.105    0.095
        28 -10.6619     21.0839    194.6977   1.4749788061e+02   3.2502253024e+01    0.1343064    0.1041931  75.28 0.0002942765    1.093    0.085
        29 -12.5179    142.0640    121.4625   1.0982881631e+02   2.9812188974e+01    0.5106106    0.2963578  70.60  0.001788982    3.192    0.687
        30 -12.1167     36.1898    117.0640   1.3617012366e+02   4.7397299275e+01    0.2361231    0.1704436 -56.26 0.0008799817    1.265    0.209
        31 -11.0501    167.7207    112.7208   1.0184110371e+02   2.5910247350e+01    0.3127791    0.2273307 -80.25  0.001334364    2.096    0.523
        32 -11.4671      3.6992    112.3780   1.4401076070e+02   5.1047949189e+01    0.2729747    0.1735281   6.21  0.001740769    2.399    0.583
        33 -10.9164    205.4438    110.1791   9.3655450678e+01   1.7698071120e+01    0.3220877    0.2089314  41.49 0.0009904484    1.582    0.368
        34 -13.5678    196.4965    233.9388   1.2008515663e+02   4.6646921288e-01     0.352531    0.2005504 -46.14  0.002039952    2.375    0.579
        35 -11.9828     32.9020    104.1103   1.3497816933e+02   5.0608379584e+01     0.375529    0.2363149  -1.71  0.002000272    2.633    0.620
        36 -11.0542    242.0840    184.6839   1.0380763901e+02  -9.7848805942e-01    0.1781991    0.1423932  21.61 0.0004317769    1.089    0.081
        37 -11.4097     13.4270    239.9075   1.5126175607e+02   2.5253151954e+01    0.1270155   0.08347085  83.18 0.0005043246    1.189    0.159
        38 -12.2721     96.8708     96.3025   1.1499062778e+02   4.3888735930e+01    0.3239711    0.2466734  53.12 0.0008421814    1.467    0.318
        39 -11.4301     21.7279    233.4886   1.4969660584e+02   2.5478805294e+01    0.1255987   0.08788194  78.49  0.000336088    1.093    0.085
        40 -12.5904    165.0737    171.7090   1.1559441607e+02   1.5426613115e+01    0.3044205      0.23248  63.98  0.001441802    1.498    0.332
        41 -11.2202     41.9718     92.1245   1.3008218039e+02   5.2397267474e+01    0.2250528     0.168547 -72.49 0.0008428493    1.260    0.206
        42 -10.6357     23.3614     83.1649   1.3401831028e+02   5.6059163390e+01    0.1864279    0.1537572 -29.48  0.000646599    1.364    0.267
        43 -11.2428    142.0663     81.0513   9.8815535927e+01   3.7778375667e+01    0.2368364    0.2245674  -8.52 0.0005423517    1.044    0.042
        44 -11.0334    155.8869    247.3656   1.2879220584e+02   5.2405736450e+00    0.1612097    0.1483716  37.31 0.0003205093    1.204    0.170
        45 -11.8679    162.5137    244.9475   1.2737744219e+02   4.5183857100e+00    0.2577349    0.2371154 -17.19 0.0006494405    1.379    0.275
        46 -13.2667    160.7251     37.2879   8.0740061024e+01   4.0199578369e+01    0.4551398    0.4225793  35.93 0.0008154539    1.051    0.048
        47 -11.2685     13.3671     59.7699   1.3241323788e+02   6.1779267080e+01    0.1847662    0.1537203 -71.48 0.0004886847    1.237    0.192
        48 -10.9366      4.9895    232.5274   1.5218745925e+02   2.7280826797e+01    0.1129114   0.07791538  51.79 0.0004288341    1.395    0.283
