#   1 NUMBER                 Running object number                                     
#   2 MAG_AUTO               Kron-like elliptical aperture magnitude                    [mag]
#   3 X_IMAGE                Object position along x                                    [pixel]
#   4 Y_IMAGE                Object position along y                                    [pixel]
#   5 X_WORLD                Barycenter position along world x axis                     [deg]
#   6 Y_WORLD                Barycenter position along world y axis                     [deg]
#   7 A_WORLD                Profile RMS along major axis (world units)                 [deg]
#   8 B_WORLD                Profile RMS along minor axis (world units)                 [deg]
#   9 THETA_WORLD            Position angle (CCW/world-x)                               [deg]
#  10 FWHM_WORLD             FWHM assuming a gaussian core                              [deg]
#  11 ELONGATION             A_IMAGE/B_IMAGE                                           
#  12 ELLIPTICITY            1 - B_IMAGE/A_IMAGE                                       
         1 -10.5998     84.9982     48.0014   5.5613964074e+01   5.6959956576e+01     1.198579    0.3490182 -44.56  0.003627068    3.502    0.714
         2 -12.0902     90.9378     42.9165   5.1498991051e+01   5.6542892524e+01     0.680943    0.3771093 -41.83  0.001118813    1.769    0.435
         3 -11.9686    126.6395     34.8088   3.9152306512e+01   4.9081030042e+01     1.087743    0.5733293 -40.39  0.004616494    1.825    0.452
         4 -12.4897    140.6687     38.2443   3.7829974973e+01   4.5080444561e+01    0.6917405    0.5660233 -70.91 0.0006523959    1.306    0.235
         5 -12.2193    164.0143     42.8959   3.5689725102e+01   3.8695568921e+01    0.8325593    0.4692042 -68.00  0.003412608    2.436    0.589
         6 -10.4260      1.7800     21.4715   8.9319801929e+01   7.5273706390e+01    0.4131536    0.1582576 -59.95  0.001577599    2.073    0.518
         7 -11.9061      7.5654     22.3897   8.4952512257e+01   7.4657585474e+01     1.326711     0.554414  40.34  0.005692095    3.024    0.669
         8 -11.2509     39.1094     16.5983   5.9372692595e+01   7.1706062451e+01     1.007505    0.7678111  15.78  0.005015296    1.416    0.294
         9 -11.3126     15.3249      3.7511   6.6769816438e+01   7.7618729985e+01    0.9276541    0.4782558  41.82  0.004609269    2.246    0.555
        10 -12.1707     45.9730      9.1561   5.0660294694e+01   7.1555701407e+01    0.3135897    0.2619931  -7.83 0.0003435854    1.146    0.127
        11  -9.8446     48.0514      2.6976   4.5035017437e+01   7.1946347200e+01    0.2306622    0.1789064 -11.98 0.0009802025    1.257    0.204
        12 -12.6734     14.9786     13.9490   7.4358955619e+01   7.5746115761e+01    0.8511475    0.4105316  12.63  0.001101624    3.106    0.678
        13 -10.2293     24.3787     12.7281   6.6292725420e+01   7.4755915879e+01    0.3373978    0.2344877 -33.24 0.0007529004    1.318    0.241
        14 -11.5440     36.5597      2.4695   5.0642821203e+01   7.4299052856e+01     1.051359    0.4293492  43.08  0.004516558    2.425    0.588
        15 -10.8134     37.0585     10.1264   5.6153650952e+01   7.3116134550e+01    0.6051198    0.3382096  36.28  0.002597296    1.867    0.464
        16 -11.1710      8.2244      8.7654   7.6902522169e+01   7.7512913003e+01    0.3147824    0.2132736 -42.46 0.0003071281    1.270    0.213
        17 -11.8317      3.5414      3.9006   7.8149999276e+01   7.8935077498e+01    0.4675169     0.451805  62.97  0.003287559    1.354    0.262
        18 -12.7013     30.6171     31.1175   7.2807800489e+01   7.0243006515e+01    0.4842445    0.2840946 -51.94 0.0003861294    1.597    0.374
        19 -10.2748    231.2468     15.2508   2.1479399914e+01   2.6782615439e+01    0.3478514    0.1681533 -37.09  0.001667503    1.573    0.364
        20 -11.5218    236.4707     29.2878   2.4582791975e+01   2.4371445343e+01    0.4555471    0.3189937  -5.87   0.00273567    1.657    0.396
        21 -11.9458    239.6768     19.3636   2.1999510930e+01   2.4747822534e+01    0.7053115    0.6157839  -1.13  0.004004397    1.365    0.268
        22 -10.3821    223.7080     22.0699   2.3646863872e+01   2.7633449294e+01    0.4684543    0.2346589 -45.05  0.001549284    1.648    0.393
        23 -10.3519    226.9125     17.7974   2.2364725745e+01   2.7404873026e+01     0.305981    0.2141119  15.07  0.001610322    1.982    0.496
        24 -11.0327     66.4669     22.4364   4.9979952761e+01   6.5348306163e+01    0.4708043    0.3915904  20.79 -9.90976e-05    1.250    0.200
        25  -9.6815     76.0845     13.0278   4.1346595540e+01   6.4418594343e+01    0.4666214    0.2534153  -7.79  0.001925241    2.399    0.583
        26  -9.0267     71.9007      8.1216   3.9787326662e+01   6.5969412679e+01    0.4567379    0.2644019 -87.56  0.001806205    3.011    0.668
        27 -11.1170     82.3799     27.1586   4.6881605589e+01   6.1050556042e+01    0.5305272     0.441748  54.03  0.001889409    1.218    0.179
        28  -9.4712    176.1943     13.8532   2.4980045281e+01   3.9049303208e+01    0.5084913    0.3204795 -16.77  0.002224834    1.650    0.394
        29 -10.2556    189.0382      7.9792   2.2180601710e+01   3.6559662384e+01      0.56121    0.4224461 -81.62  0.003312767    1.329    0.247
        30 -10.6438    179.9303     21.5072   2.7008213338e+01   3.7385567466e+01    0.4790356    0.3407642 -74.19  0.002590089    1.464    0.317
        31 -12.5317    187.1108     13.6823   2.4010103725e+01   3.6477262929e+01    0.3133273    0.2738983 -82.85 0.0003831564    1.157    0.135
        32 -11.8220    182.5052     12.5413   2.4038766306e+01   3.7668440661e+01     0.421089    0.2955498 -18.41  0.001211846    1.447    0.309
        33 -10.4245    164.2627     22.4773   2.8966093589e+01   4.1082664196e+01    0.4128892    0.3384243  10.15   0.00228547    1.437    0.304
        34 -11.8537     56.0293     19.0160   5.2327883901e+01   6.8079015854e+01    0.7221946    0.4009798  26.50  0.002363103    2.492    0.599
        35 -11.6214     58.0636     12.7933   4.7621611794e+01   6.8544400324e+01    0.7123583      0.36936  53.27  0.002528887    1.935    0.483
        36 -12.1561    111.1905     19.3321   3.5802807601e+01   5.4961359173e+01    0.5872917     0.403205  -1.02  0.002643479    1.743    0.426
        37 -10.0818    131.3020     13.2096   2.9806442312e+01   5.0416280406e+01    0.4357173    0.2395513  62.49  0.001233415    1.749    0.428
        38 -10.1977    138.8001      2.1638   2.4560718910e+01   4.9462637983e+01    0.7713124    0.2451348  78.30  0.002669306    3.271    0.694
        39 -11.9864    122.4150     11.5913   3.0465601654e+01   5.2880006675e+01    0.7089699    0.4113697  44.28  0.001679605    1.843    0.457
        40 -12.1559    127.7974      4.6997   2.6844551782e+01   5.2105374652e+01    0.4777579    0.3940325 -86.23  0.001229292    1.204    0.169
        41 -10.5288    193.0385     17.2606   2.4585276294e+01   3.4757991486e+01    0.3619049    0.2456578  42.42   0.00194469    1.814    0.449
        42  -9.0368    153.4680      3.0605   2.3448463441e+01   4.5640255763e+01    0.4873479     0.376869  68.17  0.002747274    1.301    0.231
        43 -11.1946    151.6680     17.7402   2.8827820984e+01   4.4733885111e+01    0.6497924    0.4975581  42.25  0.003473998    1.454    0.312
        44 -10.6310    156.6113      9.7809   2.5490425758e+01   4.4260392881e+01    0.4273642    0.2519685 -16.15  0.002042491    1.792    0.442
        45 -11.1948    152.8833      9.7012   2.5845565347e+01   4.5208966843e+01    0.4644065    0.2974569  58.93  0.002342391    1.590    0.371
        46 -11.2665    100.8771     15.5940   3.6247413645e+01   5.8012271403e+01     1.103667    0.4765382  57.48  0.004453313    2.143    0.533
        47  -9.6958     85.1823     13.8069   3.9159840194e+01   6.2132108604e+01     0.598114    0.3378479 -66.32  0.002033368    2.871    0.652
        48 -10.6158     91.5114      9.8410   3.5502718757e+01   6.0990475292e+01    0.4628246    0.3583014  35.15  0.002213857    1.322    0.244
        49 -11.6989     90.0061      3.1183   3.2314554129e+01   6.2005923307e+01    0.4719395    0.3408476  85.02 0.0008469211    1.509    0.337
        50 -10.0921    221.7809     15.3819   2.2065804927e+01   2.8684072297e+01    0.2865265    0.2353648  61.96  0.001889162    1.454    0.312
        51  -9.0868    143.4152     12.2761   2.7849329240e+01   4.7382234092e+01    0.4253559    0.2772924 -28.12  0.002128103    1.482    0.325
        52  -9.7879    200.7173     11.7626   2.2454595763e+01   3.3551892186e+01    0.4059571    0.1369144 -30.03  0.001407786    2.324    0.570
        53 -10.6830    198.6947      3.7593   2.0346666716e+01   3.4727289545e+01    0.7072694    0.2653903 -66.39  0.002801667    3.139    0.681
        54  -9.7730    204.9048      3.2258   1.9844355684e+01   3.3393003011e+01    0.3181018     0.172012  37.69  0.001336269    2.706    0.630
        55 -11.1797    208.6381     10.3844   2.1562435047e+01   3.1936394083e+01    0.6633824    0.4077749  23.56  0.002575475    2.447    0.591
        56 -11.0403    216.6387      7.0735   2.0223215728e+01   3.0527318059e+01    0.3430526    0.3077684   4.16 0.0009863921    1.343    0.255
        57 -10.3402    218.2323      3.0261   1.9096432070e+01   3.0550175145e+01    0.2427899    0.2138645 -48.47  0.001012642    1.086    0.079
        58 -10.5586     81.0094     18.7819   4.2993559527e+01   6.2533837257e+01     0.525291    0.2210134 -29.58  0.001233692    2.313    0.568
        59  -9.9333    116.7303      8.6581   3.0098946315e+01   5.4634861662e+01    0.2583928     0.207304 -64.59  0.000557885    1.299    0.230
        60 -10.1086    238.4763      7.0948   1.9141398041e+01   2.6121323866e+01    0.3299402     0.149144 -50.01  0.001166155    1.817    0.449
        61  -8.6437    137.5643      8.3091   2.7060399259e+01   4.9257794737e+01    0.1956194    0.1144001 -38.74 0.0007495559    1.623    0.384
        62  -9.2748    103.9877      7.9533   3.1970929050e+01   5.7998428710e+01    0.2746826    0.1835657  57.00 0.0009893936    1.428    0.300
        63 -10.5134    105.5030      2.9633   2.9329709783e+01   5.8048113193e+01    0.7060049    0.3600504 -68.72  0.002792176    2.686    0.628
        64 -10.6382    167.9952      5.4544   2.3000531251e+01   4.1814203997e+01    0.4254311     0.307135  -8.83  0.002079444    1.532    0.347
        65  -9.5777     98.0655      7.5378   3.2919031814e+01   5.9555982058e+01    0.2841041    0.1999271  49.16  0.001450765    1.382    0.277
        66  -9.4618     78.0232      6.0298   3.6792594142e+01   6.4715268874e+01    0.3272176    0.2392674 -60.02   0.00168248    1.642    0.391
        67  -9.1231    248.4881      5.9824   1.8447335350e+01   2.4331939451e+01     0.178584   0.04808024 -42.53 0.0008090475    2.431    0.589
        68  -9.1652    176.7626      4.3473   2.1966602135e+01   3.9779458851e+01    0.4688759    0.1635739 -47.39  0.001867418    2.574    0.612
        69  -8.9106    120.2546      5.0464   2.8004580325e+01   5.4039312942e+01    0.2082624    0.1682219 -52.12 0.0003823113    1.246    0.197
        70 -10.2266    118.1740      1.3807   2.6707432031e+01   5.4882417703e+01    0.3425217    0.1492872  80.27 0.0008117195    2.427    0.588
        71 -10.5434    245.7167      1.7542   1.7590585737e+01   2.5216197413e+01    0.4185098    0.1597828  82.28  0.002096658    3.024    0.669
        72  -9.2992     63.5600      1.8668   3.8520554592e+01   6.8575465499e+01    0.3382076    0.2074224  71.16  0.001638082    1.841    0.457
        73  -9.4506    230.1526      2.1345   1.8319978674e+01   2.8190665533e+01    0.2015934    0.1400772 -55.88 0.0004515167    1.241    0.194
        74 -12.2837     29.0240     16.3598   6.5478813706e+01   7.3403600400e+01     1.766294    0.8084265 -24.53  0.006012226    4.045    0.753
        75  -9.7233     25.5697    106.8326   9.5644294606e+01   5.1870483911e+01      0.26316    0.1884945  63.38 0.0004154502    1.410    0.291
        76 -11.0312      8.3695    108.8250   1.0223384845e+02   5.2670410625e+01    0.4946403    0.2920723 -15.89  0.002403258    2.362    0.577
        77  -8.3889    139.0003    107.9581   6.0108817006e+01   3.3417454623e+01    0.1743172    0.1622951 -31.35 0.0009583305    1.030    0.029
        78 -10.0339    120.4401    107.8088   6.4682539917e+01   3.7178396933e+01    0.3365265    0.2359168  43.29 0.0008869392    1.462    0.316
        79 -10.4375     16.0089    105.0954   9.9011578939e+01   5.3108838253e+01    0.5419387    0.2479485 -85.89  0.001778218    2.140    0.533
        80  -9.7375     58.1908    106.7127   8.3711868774e+01   4.8194191854e+01    0.3974351    0.1956285  52.17  0.001558738    2.425    0.588
        81  -8.4654    152.4602    106.4439   5.6688431451e+01   3.0959297726e+01    0.1440554    0.1366204 -31.12 9.358757e-05    1.041    0.039
        82  -9.5639    127.0464    105.9806   6.2502516010e+01   3.6238232322e+01    0.2218195    0.2094912 -44.10  0.001220372    1.043    0.041
        83 -11.5135    108.0235    103.1230   6.6844710990e+01   4.0629151544e+01    0.3102924    0.2771425  57.32 -0.0009232552    1.180    0.152
        84 -10.0878    112.4377    101.2667   6.5109556476e+01   4.0165542831e+01    0.2563625    0.2522742 -51.80 0.0002864984    1.019    0.018
        85 -11.6410     80.9127    103.1223   7.5143152799e+01   4.5588517689e+01    0.3004821    0.2737592  18.09 0.0003592203    1.207    0.172
        86  -8.4826     72.3186    107.3316   7.8985192962e+01   4.5962303431e+01    0.1513732    0.1126346 -26.19 0.0004830886    1.691    0.409
        87  -9.5868    132.1272    104.3401   6.0804247766e+01   3.5538120576e+01    0.3035803     0.133153  38.24  0.001094926    2.605    0.616
        88  -8.1156      1.4553    104.5693   1.0442671628e+02   5.4181594925e+01    0.1310438    0.1109171  87.26  0.000165055    1.013    0.013
        89 -10.5249     61.4601    102.0383   8.1553546019e+01   4.8913520059e+01    0.3090557    0.2470002  64.93 0.0009766573    1.353    0.261
        90 -10.2074     68.8272     98.2107   7.8048277177e+01   4.8758441029e+01     0.510092    0.2932432 -44.01  0.001724063    1.817    0.450
        91 -10.8177    117.1938     97.8060   6.2859789236e+01   3.9945122584e+01    0.4313114    0.2938864 -53.02   0.00136803    1.509    0.337
        92  -9.6410    121.1418     95.0827   6.1043352809e+01   3.9698079561e+01    0.3327604    0.2515604  28.54  0.001593535    1.506    0.336
        93 -12.4864    101.3961     97.7340   6.7317066560e+01   4.3112849272e+01     0.439096     0.347389  49.24 0.0003749007    1.317    0.241
        94 -10.1117    109.4148     96.4687   6.4636672091e+01   4.1808398770e+01    0.3098933    0.2651381  70.16 0.0007715412    1.326    0.246
        95  -9.3766     38.9606     98.5248   8.9212963246e+01   5.2699837962e+01    0.3393659    0.1641142  30.79  0.001017917    2.144    0.534
        96  -9.2283     35.3501     95.6496   9.0094281225e+01   5.3841434169e+01    0.3044789    0.1855789  68.72  0.001373857    1.972    0.493
        97  -8.7147     17.2945     98.2882   9.7679203837e+01   5.4794116962e+01    0.1954804    0.1420715  74.78 0.0002055363    1.350    0.259
        98  -8.9697     16.4967     95.4433   9.7622376500e+01   5.5601696348e+01    0.2289579    0.1913012 -52.32 0.0005206272    1.218    0.179
        99  -9.2166     51.1644     97.1760   8.4268587713e+01   5.1568124828e+01    0.2055442    0.1816317 -50.63 0.0003882676    1.129    0.114
       100  -8.9311    144.1864     96.0234   5.5707076244e+01   3.4634341843e+01    0.2539704    0.1740299  -6.82  0.001082922    2.100    0.524
       101  -9.6922     77.7130     94.3781   7.3982618534e+01   4.8234625603e+01    0.3790028    0.2714121  36.80  0.001298296    1.465    0.317
       102  -9.9389     61.3629     95.9028   8.0176641550e+01   5.0469220404e+01    0.2397407    0.2263783  61.89 0.0003330752    1.092    0.085
       103 -10.3285    137.2908     94.2238   5.6785263340e+01   3.6450407891e+01    0.3235407    0.2571021 -27.22 0.0004737462    1.282    0.220
       104 -10.0907     27.0267     96.8480   9.3607589213e+01   5.4352508353e+01    0.3004622    0.2187051  40.20 0.0004502162    1.440    0.305
       105  -8.6286      4.9317     94.0188   1.0213269888e+02   5.6735618827e+01    0.1486875    0.1402682  75.86 0.0005170099    1.126    0.112
       106  -8.5088      1.3713     94.2777   1.0359387555e+02   5.6859632420e+01    0.1751645    0.1079525  88.45 0.0002917928    1.439    0.305
       107 -10.5286    138.9946     87.2533   5.4379285096e+01   3.7408130790e+01    0.5228698    0.3528029 -69.52 0.0003855952    2.181    0.541
       108 -10.5010    126.5084     91.3195   5.8578519409e+01   3.9329573691e+01     0.444215    0.3259717 -32.06  0.001227373    1.389    0.280
       109 -11.7062    131.3149     86.0186   5.5824018205e+01   3.9330491157e+01    0.2907431    0.2745152  -7.88 0.0002322852    1.091    0.084
       110 -10.2368    120.6362     87.7234   5.9031161008e+01   4.1311887090e+01    0.3875546    0.3055013 -54.21 0.0006617752    1.304    0.233
       111 -10.0368    124.1608     85.8123   5.7543075364e+01   4.0934381565e+01    0.3332344    0.2925774 -64.89 0.0006635125    1.225    0.184
       112 -10.5504    120.8986     82.3856   5.7337184914e+01   4.2327312254e+01    0.3093491    0.2750344 -27.24 0.0003412042    1.134    0.118
       113  -9.4847     87.8379     92.2085   7.0004715093e+01   4.6943131004e+01    0.3676887     0.245837 -51.00  0.001690579    1.440    0.305
       114  -9.7246     42.2083     90.9464   8.6419792458e+01   5.4292280264e+01    0.3315539    0.2401695   9.28  0.001107012    1.715    0.417
       115 -12.5009     34.8526     89.4453   8.9106384143e+01   5.5512514344e+01    0.3860172    0.2929412 -81.90  0.002050252    1.278    0.218
       116 -10.8671     28.9784     84.9553   9.0695453708e+01   5.7284313527e+01    0.2890513    0.2539338 -89.69 0.0003033745    1.100    0.091
       117  -8.5136     66.8585     89.9957   7.6673297095e+01   5.1093981628e+01     0.251697    0.1564017 -34.44  0.001069526    1.964    0.491
       118  -9.7439     55.8167     89.0286   8.0595181418e+01   5.3001616985e+01    0.4506692    0.2723011  45.34  0.001114499    1.769    0.435
       119  -9.9282     11.6363     88.5408   9.8715272870e+01   5.7760834907e+01     0.410354    0.2726847  -1.60  0.001137874    1.897    0.473
       120 -10.1156    110.3114     87.9694   6.1921293903e+01   4.3445789329e+01    0.2760402    0.2598583 -25.06  0.000345205    1.077    0.072
       121 -10.1574    120.3526     77.7007   5.6004149643e+01   4.3371613027e+01    0.4761701    0.2714397  62.79  0.001214122    2.273    0.560
       122 -11.3040    112.6814     81.7489   5.9350914923e+01   4.4239820612e+01    0.8687078     0.432437  34.94  0.002344996    2.589    0.614
       123 -10.6479    102.6915     84.1646   6.2982228575e+01   4.5836523040e+01    0.5602837    0.3089114 -44.73  0.001849662    1.750    0.428
       124 -11.6920    103.6841     78.7443   6.0980370126e+01   4.6781971574e+01    0.7700691    0.6616487 -38.40  0.003981761    1.136    0.120
       125  -9.5568     48.5050     89.1899   8.3507617044e+01   5.3958735770e+01    0.3623943    0.1831093  38.10 0.0009905953    2.044    0.511
       126 -10.0944     86.1034     86.6392   6.8975719147e+01   4.8552589721e+01    0.4512518    0.2942011  31.39  0.001628909    1.741    0.426
       127 -10.7530    156.8789     85.0497   4.9909675653e+01   3.3862343020e+01    0.3492102     0.300697   9.64  0.001414072    1.293    0.227
       128  -9.1240     72.0432     83.7781   7.3048338767e+01   5.1745983964e+01    0.3024216    0.1886105  32.62 0.0006667975    1.761    0.432
       129  -9.7654     75.6754     84.1327   7.1838781726e+01   5.1031963585e+01    0.6068707    0.2116896 -54.68  0.001989773    2.889    0.654
       130 -10.6902     79.9121     81.0688   6.9418671654e+01   5.0986784569e+01    0.3637756    0.2855264  -2.32            0    1.683    0.406
       131  -8.9520     59.0000     83.9288   7.8030868738e+01   5.3809466459e+01    0.3034531      0.19996  46.84  0.001418245    1.637    0.389
       132 -11.0624     53.9988     80.9000   7.9204347732e+01   5.5299740245e+01    0.2712483    0.2477821 -57.52 0.0002713265    1.023    0.023
       133  -9.3506     46.3849     81.4068   8.2481065156e+01   5.6217691131e+01    0.4210704    0.2149161 -49.91  0.001794805    1.837    0.456
       134  -9.2637     19.9724     83.0352   9.4268932208e+01   5.8592703792e+01    0.2051027    0.1819414 -71.25 0.0004516798    1.022    0.021
       135  -9.1582      1.8240     83.0979   1.0229437356e+02   5.9758802979e+01    0.1962641    0.1549044  78.81 0.0004251359    1.189    0.159
       136  -9.0048     91.9283     79.8802   6.4992369568e+01   4.8951722084e+01    0.2374629    0.2098714 -12.30 0.0008145456    1.269    0.212
       137 -10.9890    163.9046     77.8083   4.6468981807e+01   3.3521526703e+01    0.4755807    0.3079126 -11.95  0.002089416    1.992    0.498
       138  -8.5313     40.7566     78.5484   8.4164368905e+01   5.7654171600e+01    0.1873764    0.1301535  45.70 0.0008973274    1.562    0.360
       139  -9.5584    187.9217     76.2795   4.2029294691e+01   2.8509030256e+01    0.2448363    0.1872645 -26.83 0.0003526187    1.195    0.163
       140 -11.4602     46.5032     73.2973   8.0255197260e+01   5.8242482375e+01    0.6067116    0.4117101  72.99 0.0008922463    2.010    0.502
       141  -8.8969     36.4838     76.9639   8.5655241642e+01   5.8562753756e+01    0.2231102    0.1279116 -62.18  0.001020231    1.561    0.359
       142 -11.9299    152.2619     71.9412   4.6926912417e+01   3.7133741082e+01     1.099242    0.3555653 -31.04   0.00129561    3.299    0.697
       143 -12.0484    161.6036     70.5412   4.4737829012e+01   3.5216768299e+01     3.054892     1.265927  71.37  0.008492994    5.398    0.815
       144 -10.3313    161.3011     64.6553   4.3000808588e+01   3.6212744962e+01    0.3255682    0.2763377 -51.19 0.0004690007    1.162    0.140
       145 -12.0030    136.2499     73.1912   5.0697918458e+01   4.0610714652e+01     1.683346    0.3914626 -39.69  0.004341572    3.872    0.742
       146 -11.5643    140.0222     72.5183   4.9645787330e+01   3.9860324631e+01    0.5784985    0.4411072 -29.95  0.001929874    1.290    0.225
       147 -10.7093    147.0243     61.7075   4.4714563221e+01   4.0037622617e+01    0.2932023    0.2880611  31.82   0.00036446    1.077    0.072
       148 -12.8989    150.7694     57.6019   4.2662315613e+01   3.9789908313e+01    0.5193034    0.3776619 -45.01 0.0004177112    1.321    0.243
       149 -10.6691     76.3235     75.1335   6.8833321714e+01   5.3013023828e+01    0.5897163    0.3921093  33.01  0.001732137    1.663    0.399
       150 -10.0797     83.1872     74.0561   6.6037203850e+01   5.1961018961e+01    0.3258974    0.2934366  -1.34  0.000798745    1.245    0.197
       151  -8.6858     61.1036     76.3309   7.5028482433e+01   5.5344761053e+01    0.2022119    0.1299485  47.48            0    1.705    0.413
       152 -11.0473      8.7245     74.3726   9.8001746176e+01   6.1665090391e+01    0.3594915    0.2696187  47.61  0.002045848    1.445    0.308
       153  -8.7022      4.6957     75.7193   1.0009667472e+02   6.1542724132e+01    0.1872385    0.1545765 -86.01 0.0001915223    1.084    0.077
       154  -8.9986      3.6597     72.7314   1.0018229218e+02   6.2377803975e+01    0.2017083    0.1513848 -64.64 0.0004963497    1.155    0.134
       155  -9.6490    130.9848     74.7232   5.2406487672e+01   4.1539221878e+01      0.21009    0.1984003  51.22 0.0004489862    1.107    0.097
       156 -10.2706    121.8209     73.2866   5.4194870603e+01   4.3893312283e+01    0.5284484    0.2660548  50.77  0.001808347    2.063    0.515
       157  -9.0350     92.2264     74.1560   6.3033411079e+01   5.0139610331e+01    0.3000748    0.2156868   6.38  0.001280712    2.096    0.523
       158  -8.7358     88.5064     74.5328   6.4383318070e+01   5.0809193325e+01    0.2590543    0.1433204  54.96 0.0007743467    2.168    0.539
       159  -8.5155     18.7110     74.3215   9.3255973696e+01   6.0975026372e+01    0.1922519    0.1385962  27.45 0.0002670006    1.539    0.350
       160 -10.3157     17.5616     70.7764   9.3110605268e+01   6.1989077852e+01    0.3077877    0.2866429 -64.97 0.0009645323    1.066    0.062
       161  -9.6607     14.6805     66.3946   9.3657836326e+01   6.3344287632e+01    0.2450102    0.2221702 -48.88  0.000275712    1.108    0.097
       162  -9.7470     56.8779     72.3965   7.5553360068e+01   5.6959338541e+01    0.2966915    0.2062552 -41.19 0.0005674657    1.445    0.308
       163 -10.1543     50.8982     70.0142   7.7365887070e+01   5.8435807421e+01    0.4348434    0.3088041 -83.21  0.001819661    1.763    0.433
       164  -8.3313    183.2702     72.3236   4.1645188209e+01   3.0096019297e+01    0.1381592    0.1061352   5.10 0.0002140675    1.571    0.364
       165  -9.2132     96.8751     71.3110   6.0589651815e+01   4.9776567989e+01     0.271157    0.2065358 -55.04  0.001085838    1.350    0.259
       166 -10.3291     64.4548     70.2316   7.1766866796e+01   5.6246570671e+01    0.4621026    0.2941488  36.83 0.0007248843    1.672    0.402
       167  -9.9790     59.5040     66.4347   7.2529668464e+01   5.7961028764e+01    0.4621537    0.3120477  25.84  0.001441726    1.719    0.418
       168 -10.8355    104.2495     58.5896   5.3804376471e+01   5.0673507178e+01    0.4170245    0.3367373  -5.95 7.497395e-05    1.485    0.327
       169 -10.9162    106.2202     68.5929   5.6841853784e+01   4.8305038649e+01    0.8187416    0.3664239  42.26  0.002821722    2.454    0.593
       170 -12.2306    110.7350     65.3642   5.4438347809e+01   4.7918811824e+01     0.547829    0.3439799 -52.83  0.002361796    1.731    0.422
       171  -9.5856    115.4432     60.9067   5.1588675532e+01   4.7663168119e+01    0.3225223    0.2641919 -25.42  0.001115587    1.257    0.204
       172  -9.2282     30.5286     71.1864   8.6972180411e+01   6.0695238154e+01    0.2234078    0.1934569  25.86 -1.219294e-05    1.282    0.220
       173 -10.1623      9.5602     66.2288   9.6229529395e+01   6.3736002529e+01    0.3660928    0.2058857  57.61  0.001320532    2.094    0.523
       174 -11.2610     30.3270     53.2430   8.1949683088e+01   6.5207428578e+01    0.6049342    0.3770253 -83.29  0.001429688    2.149    0.535
       175 -11.1643     34.5313     67.3023   8.4056816165e+01   6.1243259134e+01    0.3656225    0.2846016  78.89 0.0007647696    1.494    0.331
       176 -10.3800     33.8366     63.1671   8.3222798010e+01   6.2360025350e+01    0.3823632     0.257764 -26.21 0.0003957157    1.778    0.438
       177  -8.8602     26.9070     66.7612   8.7618228444e+01   6.2195732359e+01     0.403358    0.1759334 -79.99  0.001410166    3.196    0.687
       178 -10.2191    180.7283     64.0026   3.9665176226e+01   3.1872787518e+01    0.4963917    0.2637658 -23.29  0.001697381    1.945    0.486
       179 -10.4106    176.9877     63.9915   4.0226585199e+01   3.2714912979e+01    0.3138416    0.2051094 -41.24 -0.007547014    1.398    0.285
       180  -9.5457     71.3572     66.3718   6.7741481323e+01   5.5914110616e+01    0.4703556    0.2602092  35.40    0.0019707    1.995    0.499
       181 -10.9127     43.0660     62.6259   7.8596818978e+01   6.1335517248e+01    0.5263446    0.4330634 -64.37  0.001977259    1.174    0.148
       182 -10.9497    211.6678     49.3830   3.1763339826e+01   2.7100320522e+01    0.3203166    0.2505697 -79.77 0.0006620723    1.468    0.319
       183  -9.4136    206.0983     52.7609   3.3257371228e+01   2.7851507234e+01    0.3336327    0.2237902  14.02  0.001656091    2.104    0.525
       184  -9.8073    201.4844     49.8702   3.2986356540e+01   2.9197045095e+01    0.2824924     0.254575  79.88   0.00144887    1.248    0.199
       185 -11.3857    198.7647     56.6833   3.5173916525e+01   2.8913396319e+01     1.107153    0.5842154   0.77  0.003844273    4.062    0.754
       186  -9.1442    191.1223     61.5074   3.7487605151e+01   2.9925062778e+01    0.4133592    0.1468166  55.43  0.001597042    2.954    0.662
       187  -9.0583    118.8172     66.3887   5.2643806675e+01   4.5875721161e+01    0.2320171    0.1962064  80.55 0.0005692272    1.363    0.266
       188 -10.1604     88.8699     62.8961   6.0186960380e+01   5.3205682884e+01    0.7119321    0.2365495 -45.76  0.002292484    2.945    0.660
       189 -10.0779     93.7839     57.2785   5.6467866074e+01   5.3269501958e+01    0.5244684     0.459171  58.24  0.002759163    1.210    0.173
       190 -11.0980     81.5341     64.8213   6.3419588507e+01   5.4304137190e+01    0.4911343    0.3723323  -6.79  0.002003559    1.774    0.436
       191  -9.3811      2.4736     64.3789   9.9561742943e+01   6.4609974012e+01    0.2250509    0.2031028  40.74  0.001431388    1.261    0.207
       192  -8.3791    212.2726     64.2910   3.5595334707e+01   2.5107333729e+01     0.124367   0.09687889   5.57  0.000210281    1.514    0.340
       193 -10.3705    203.7915     63.0288   3.6276823338e+01   2.7013692538e+01    0.2070906    0.1959051 -81.70 0.0003039989    1.191    0.160
       194  -9.4970    171.9894     62.6974   4.0623555309e+01   3.4041143898e+01    0.2842799    0.1928162 -40.59 0.0009320471    1.349    0.259
       195 -11.3085     21.8747     61.0975   8.8735703984e+01   6.4114859628e+01    0.3433458     0.243512 -19.98 0.0003806291    1.659    0.397
       196  -9.8224    167.9040     61.1358   4.0808698440e+01   3.5213140113e+01    0.3299865    0.2041993 -20.32 0.0009606039    1.743    0.426
       197  -8.7800     99.8869     62.1192   5.6399947875e+01   5.0980719341e+01    0.2070764    0.1783759  -9.82 0.0004806719    1.300    0.231
       198 -10.4413    218.9500     59.3440   3.3584340611e+01   2.4397525624e+01    0.3326426    0.2339936 -24.81 0.0005059594    1.257    0.204
       199  -9.6996    222.4258     55.6166   3.2281368209e+01   2.4166777601e+01    0.2905752    0.1767264 -33.15  0.001075873    1.338    0.253
       200 -10.8386     60.2969     58.5422   6.9389014080e+01   5.9640946973e+01     0.504934    0.4772403  75.46  0.002861282    1.166    0.142
       201  -8.5306     83.5102    249.4508   9.4543074074e+01   1.5394670720e+01    0.1069508     0.081382  35.15  0.000208643    1.022    0.022
       202  -9.5243     79.0572     44.4812   5.6174038992e+01   5.8899879215e+01    0.3463514     0.258718  42.28  0.001220908    1.385    0.278
       203 -10.5975     77.9914     55.5064   6.1171680117e+01   5.6968115393e+01    0.5855744    0.4342649 -19.88  0.002776685    1.605    0.377
       204 -10.4096     81.5677     52.2408   5.8565455711e+01   5.6884014944e+01    0.9089576    0.2200296 -42.23  0.002560257    3.951    0.747
       205  -8.9406    106.9239    246.3580   8.9808540387e+01   1.3257896569e+01    0.1596976    0.1389243  61.43 0.0007925431    1.366    0.268
       206 -11.5259     84.7733     39.0218   5.1757442056e+01   5.8612844357e+01    0.5931931    0.4049594 -61.70 0.0002502323    1.901    0.474
       207  -8.7488      7.6996     60.3768   9.6110879039e+01   6.5362497271e+01    0.1951619    0.1333008  25.45  0.001061261    1.652    0.395
       208  -9.0299      4.0372     59.5132   9.7930869836e+01   6.5788773580e+01     0.262153    0.1332794  13.02  0.001246399    2.291    0.564
       209  -9.6932      9.0288     57.0698   9.4716189686e+01   6.6129656150e+01    0.3315352    0.2278507   2.33  0.001532075    1.720    0.418
       210 -11.1569    183.9227     54.7635   3.6533368217e+01   3.2443650326e+01     0.775785    0.5004318 -57.63  0.002288254    1.706    0.414
       211 -10.8668    174.3553     53.8538   3.7606079864e+01   3.4760220002e+01    0.3767528    0.2535768 -37.50 0.0008946253    1.335    0.251
       212  -9.2341     27.1249     57.3355   8.4936783776e+01   6.4550159403e+01    0.3890086    0.1360714 -57.23  0.001490072    2.344    0.573
       213 -11.0869    161.0796     56.4235   4.0472530591e+01   3.7509568991e+01    0.4344274    0.3439603 -73.57 0.0006672209    1.439    0.305
       214  -9.6895    160.4005    242.1986   7.9454830484e+01   7.6265545449e+00    0.1210162    0.1041331 -49.11 0.0009530432    1.688    0.407
       215 -11.1178    128.2693     53.1689   4.5702198629e+01   4.5932958975e+01    0.6685959    0.4007631  49.46 0.0004727632    1.725    0.420
       216 -12.8476    137.7991     47.1141   4.1545779017e+01   4.4537294202e+01    0.6188953    0.5033535 -78.97 0.0009558809    1.383    0.277
       217  -8.5687    116.7441    237.0194   8.7028033168e+01   1.3470448054e+01    0.1123002   0.09717928 -52.31 0.0003450452    1.470    0.320
       218 -11.6352    122.3355     49.8535   4.5833343971e+01   4.7912724690e+01    0.6677663     0.372993 -30.83  0.002813978    1.781    0.438
       219 -11.4516    117.1874     51.8833   4.7825746991e+01   4.8825195941e+01     1.706623      0.53949  62.88  0.004332391    4.917    0.797
       220  -9.2954    213.6364     57.0789   3.3572138863e+01   2.5748305422e+01    0.1953826    0.1456508 -30.01 0.0007818096    1.145    0.127
       221  -9.0803    245.9146     55.8168   3.0167383963e+01   1.9738702163e+01    0.1664354    0.1391111 -18.51 0.0002639125    1.167    0.143
       222  -9.0532    239.1683     56.1030   3.0819996051e+01   2.0924335286e+01    0.1849989     0.145622 -19.29  0.001089632    1.190    0.160
       223  -8.9364    113.3897     55.7574   5.0240626896e+01   4.9064612173e+01    0.2756956    0.1901393  68.64 0.0007499294    1.709    0.415
       224  -8.9021     68.9759     54.9546   6.4411121450e+01   5.8854092854e+01    0.3919898    0.1703582 -49.63  0.001463813    2.291    0.563
       225  -9.0717     51.3442     54.1421   7.1715944502e+01   6.2116160201e+01    0.2267365    0.2213748 -11.66  0.001325695    1.069    0.064
       226  -9.6063     44.5931     51.8748   7.4086935888e+01   6.3666891605e+01    0.3345969    0.2199075 -63.63  0.001102255    1.630    0.386
       227 -10.4441     25.0510     49.3978   8.3588183704e+01   6.6717506561e+01    0.6476264    0.3108466 -33.74  0.002610125    2.601    0.616
       228 -11.5887     18.1434     48.6834   8.7351901168e+01   6.7556029612e+01     0.587455    0.3456933 -28.84 0.0008082401    1.958    0.489
       229  -9.7781      9.9397     50.7870   9.2760877144e+01   6.7665517250e+01    0.3891028    0.2436282  72.68   0.00191127    1.997    0.499
       230 -10.1036     18.8842     42.7763   8.4998464424e+01   6.8927537463e+01    0.3060905    0.2377505  70.41  0.001406874    1.608    0.378
       231  -9.1308      1.6451     51.2095   9.7747635096e+01   6.8031548127e+01    0.1922788     0.144768 -64.88 0.0004559456    1.114    0.103
       232 -10.0002      6.1082     47.7845   9.4331323142e+01   6.8661299779e+01    0.5591388    0.2285666 -58.93  0.001851842    1.924    0.480
       233  -9.8341      9.1558     43.8439   9.1422022877e+01   6.9451252489e+01    0.2197089     0.185215 -23.42 0.0006829834    1.243    0.196
       234  -8.9884     64.9532     52.1325   6.4915666579e+01   6.0207350625e+01    0.2139584    0.1946836 -71.32 0.0004244862    1.208    0.172
       235  -9.4278     35.0220     51.4338   7.8823781662e+01   6.5078302386e+01    0.2309548    0.1853922 -74.98 0.0004499001    1.355    0.262
       236  -9.7214    161.9904     52.4895   3.9075969494e+01   3.7863922473e+01     0.271183    0.2515466  87.40  0.001082855    1.141    0.123
       237  -9.4257     54.9957     49.8926   6.8343534131e+01   6.2460883882e+01    0.2112781    0.1995773 -40.47 0.0005243157    1.025    0.025
       238 -11.4585    233.0820     48.1998   2.9447845136e+01   2.2970073368e+01     0.230034    0.1950876 -33.42 0.0003125605    1.053    0.051
       239  -8.9777    194.0775     48.9818   3.3590270889e+01   3.0927330388e+01    0.2797284    0.1568204  57.96  0.001351451    1.952    0.488
       240 -11.7709     76.6776    220.0294   9.3583646605e+01   2.0881499444e+01    0.9309412    0.4846062  38.45  0.005428439    1.525    0.344
       241 -11.3501    156.4149     37.1392   3.4905291089e+01   4.1300625086e+01     1.046813    0.4662378 -48.59  0.002671737    2.369    0.578
       242  -9.7450    149.4598     33.5268   3.4707723766e+01   4.3488501949e+01    0.2569584    0.2310193  48.76 0.0008811218    1.187    0.157
       243  -9.9619    246.3604     47.6772   2.8235950657e+01   2.0567914256e+01    0.2142346    0.1699627 -21.35 0.0007913549    1.174    0.148
       244  -8.6580     98.5042     48.0447   5.1356519105e+01   5.3906711282e+01    0.2246278    0.1432851 -38.64 0.0004758283    1.516    0.340
       245  -8.9507     62.5459     47.6035   6.4036323336e+01   6.1602082202e+01    0.3327876    0.1374008 -46.22   0.00124385    2.312    0.567
       246  -9.1934    227.3833     45.6119   2.9303399446e+01   2.4367492338e+01    0.2687043    0.2524337 -44.20  0.001863079    1.147    0.128
       247 -10.7224    230.1496     39.3373   2.7510259400e+01   2.4528303939e+01    0.3266734    0.2523244 -76.24 0.0008369297    1.449    0.310
       248  -9.5568    153.9814     45.5513   3.8113164944e+01   4.0777988190e+01    0.4235759    0.1958721  55.75  0.001719173    2.193    0.544
       249  -9.1675     75.0209     40.0263   5.5643326525e+01   6.0578165704e+01    0.2706703    0.2263865   7.18 0.0005776706    1.349    0.259
       250 -10.3249     73.9526     35.6167   5.3961028952e+01   6.1587719373e+01    0.3358721    0.2603226   6.60 0.0009316647    1.560    0.359
       251  -9.5538     73.1971     44.3909   5.8308940980e+01   6.0149001549e+01    0.3177855    0.2356355 -37.27 0.0008199938    1.301    0.231
       252 -10.2025     67.5759     44.4401   6.0550784742e+01   6.1274596402e+01    0.4224259    0.3301062  33.66  0.001133415    1.357    0.263
       253 -10.0756     33.9182     44.1127   7.6651080838e+01   6.6929642160e+01    0.3958399    0.3687784  83.26  0.002371642    1.238    0.192
       254  -8.5762     38.5497     44.0087   7.4070910283e+01   6.6326039491e+01    0.2238974    0.1925914  66.50 0.0009009644    1.421    0.296
       255  -9.7828    209.3559     43.3091   3.0380097201e+01   2.8310327129e+01    0.3017561    0.2219457 -22.36  0.001682236    1.279    0.218
       256  -8.7794    190.9433     44.4045   3.2651315187e+01   3.2201000438e+01    0.1981591    0.1340651  70.92  0.001031407    1.647    0.393
       257  -9.8647    176.9180     43.3118   3.4047321719e+01   3.5565332616e+01    0.5072528    0.2751375 -80.84   0.00197545    2.825    0.646
       258 -10.1304    107.7839     43.3271   4.6858133948e+01   5.2499525821e+01    0.4439527    0.2451852  64.73  0.001226612    2.073    0.518
       259  -9.0727     55.4142     42.4718   6.4945676566e+01   6.3957626085e+01    0.4847713    0.2649237 -22.13  0.001741511    3.157    0.683
       260 -11.3784     62.5535     37.5841   5.9470688638e+01   6.3582731882e+01    0.5006706    0.4604022  35.60   0.00286163    1.128    0.114
       261 -11.8376     54.2486     34.5317   6.1702275376e+01   6.5743688474e+01    0.5712011    0.2740266 -47.51  0.001576597    2.104    0.525
       262  -9.4900     28.3995     41.9959   7.8966950098e+01   6.8103035855e+01    0.2626567    0.2077048 -82.13  0.001156705    1.516    0.340
       263  -9.1652    218.1489     41.4636   2.9066852520e+01   2.6693018939e+01    0.2403554    0.1575699 -31.05 0.0006735472    1.275    0.215
       264  -9.5572    240.7522     39.1925   2.6661054743e+01   2.2518257043e+01    0.4091108    0.2297381  11.65  0.001828632    3.367    0.703
       265 -11.3135    246.7095     32.5896   2.4691084179e+01   2.2110662948e+01    0.5193117    0.2344671 -43.57  0.001544461    1.757    0.431
       266  -9.4573    113.7722     40.0792   4.4046924356e+01   5.1543023912e+01    0.2794187    0.2120973  48.50 0.0006849563    1.347    0.258
       267  -9.1593      7.0341     39.5280   9.1566756857e+01   7.0652899864e+01    0.2810603    0.1971226 -63.06  0.001589054    1.224    0.183
       268  -9.5465      2.3888     38.0249   9.4276795701e+01   7.1293069282e+01    0.2438861      0.17797  -7.56  0.000127778    1.538    0.350
       269 -10.7422    201.9944     37.4625   2.9510165374e+01   3.0576238553e+01    0.2972638    0.2667009  12.53 0.0003191014    1.300    0.231
       270 -10.2693    194.7215     37.2518   3.0184826594e+01   3.2212964357e+01    0.3453752    0.2036495 -49.93 0.0003215575    1.606    0.377
       271  -8.8434    190.4404     36.0404   3.0285914993e+01   3.3322857641e+01    0.2607221    0.1299609 -19.77 0.0007896613    2.091    0.522
       272  -9.9773     32.9688     37.0704   7.4200445108e+01   6.8638041776e+01    0.2128259    0.1783408 -45.76 0.0002829697    1.089    0.082
       273 -10.5810     73.5011    213.9464   9.3741924297e+01   2.2320411245e+01    0.2932951    0.2825738  35.04  0.001474542    1.179    0.152
       274  -9.0652     91.4269    214.5201   8.9921891628e+01   2.0099155272e+01    0.2370699   0.09714343  32.29 0.0007269025    2.016    0.504
       275  -9.6257    123.9746    205.9933   8.2021458162e+01   1.7391024912e+01    0.1676478    0.1431056  25.86  0.001147253    1.007    0.006
       276  -8.8632     90.4865    206.1429   8.9262714347e+01   2.1696038103e+01    0.1990842    0.1390172  49.44 0.0008418541    1.341    0.254
       277 -11.2034      5.8599    203.4687   1.0805781657e+02   3.0953954334e+01    0.3792453    0.1067112  55.25  0.001759008    2.744    0.636
       278  -9.9490      1.3580    184.9329   1.0849312946e+02   3.5065573547e+01    0.3344997   0.09602024 -83.62  0.001436544    3.292    0.696
       279  -9.4855     24.9781    173.9332   1.0213314118e+02   3.5515856243e+01     0.181938    0.1517533  60.24 0.0002850804    1.017    0.016
       280  -8.7286      6.7661    168.3836   1.0652579701e+02   3.8261115910e+01    0.1508216     0.112934  10.12 0.0006148067    1.649    0.393
       281 -10.2849      9.2347    163.7335   1.0566028069e+02   3.9126131432e+01    0.2770627    0.1646898  10.45  0.000944668    2.124    0.529
       282 -12.1738     18.4228    158.3342   1.0286264111e+02   3.9637455471e+01    0.5555286    0.4037763  75.32  0.003402569    1.213    0.176
       283 -11.4593     13.6118    151.8612   1.0379303868e+02   4.1551549920e+01    0.4273565    0.2725881 -39.10  0.002309625    2.080    0.519
       284  -9.8667      6.3045    159.3392   1.0623059781e+02   4.0352917113e+01    0.1848371    0.1279771 -47.47 0.0008138953    1.792    0.442
       285 -10.6972      2.3048    153.8554   1.0706991174e+02   4.1909088287e+01     0.303093     0.212622  87.16  0.001021307    1.245    0.197
       286 -10.9406    170.0489     33.0318   3.1709068714e+01   3.8471354517e+01    0.5791143    0.2984841 -11.41 0.0008419781    2.521    0.603
       287  -9.6395     38.8231     35.6021   7.0171131527e+01   6.8119709430e+01    0.5217416    0.3411281  -7.86  0.002141621    2.227    0.551
       288 -10.4034     46.5644     28.8161   6.2526554065e+01   6.8212506594e+01    0.5078012    0.3101929  27.06  0.001766824    1.939    0.484
       289  -8.8282    185.6175     35.7985   3.0738297250e+01   3.4458644729e+01    0.1987211    0.1077365 -37.64 0.0004248133    1.592    0.372
       290  -9.7269    115.1182     34.7588   4.1563108486e+01   5.1987398427e+01    0.4549468    0.2225425 -37.03  0.001643977    1.943    0.485
       291  -8.9267    106.6826     34.9840   4.3654977164e+01   5.4051124536e+01    0.2073054    0.1840346 -16.21 0.0006046813    1.155    0.134
       292 -10.6416     97.0728     33.2341   4.5405511232e+01   5.6656797962e+01    0.2390895    0.2361862  -3.47 0.0002025921    1.007    0.007
       293 -10.1437    248.6312     22.3210   2.2192276390e+01   2.2786493047e+01    0.2219163    0.1781733 -58.82 0.0005686961    1.213    0.176
       294  -8.4197     39.3299    154.3306   9.6672820646e+01   3.8620210650e+01    0.1300024   0.09582236 -37.54 0.0007051744    1.716    0.417
       295  -9.8404     29.6812    150.9391   9.9118745239e+01   4.0383795902e+01    0.2266805    0.1908491  65.09 0.0003771889    1.050    0.048
       296  -9.8032     31.0169    147.0922   9.8380491796e+01   4.1182215527e+01    0.2646061    0.2006025  57.53 0.0006059049    1.205    0.170
       297 -11.3971     22.6581    143.0561   1.0050779205e+02   4.2926975409e+01    0.6204535    0.2737388  83.03 0.0005868621    2.494    0.599
       298 -10.8584     18.2319    139.5532   1.0156046500e+02   4.4158733368e+01    0.4606853    0.1732587 -75.27  0.001742807    2.382    0.580
       299 -11.5459    132.1122     29.7379   3.6162949570e+01   4.8354087204e+01    0.4492027    0.2928357 -36.85 -5.119154e-05    1.463    0.316
       300 -10.2751    180.3747     29.7191   2.9480026635e+01   3.6386679339e+01    0.3961833    0.2359412 -40.95  0.001964534    1.486    0.327
       301  -8.8786     10.4607     32.3496   8.6836899636e+01   7.2133706689e+01    0.2053255    0.1237652  17.32 0.0008304324    1.854    0.461
       302  -8.7870    223.9780     30.7293   2.5828941039e+01   2.6685863276e+01    0.1667074    0.1471359 -51.69 0.0005387911    1.104    0.094
       303 -10.7158     16.0923    116.3031   1.0018585312e+02   5.0194115423e+01    0.5040386    0.2759862  54.14  0.001856338    1.814    0.449
       304  -9.2508     10.9580    115.6835   1.0192568131e+02   5.0727080674e+01     0.306149    0.1624081 -71.52 0.0009925662    1.647    0.393
       305 -11.0417      9.3250    122.5804   1.0306152454e+02   4.9077214341e+01    0.7216589    0.3773876  22.31  0.003594883    2.072    0.517
       306  -9.8685     71.5034     26.2686   5.0154467369e+01   6.3657367681e+01    0.8321288    0.2688814  40.71  0.002516392    4.088    0.755
       307 -10.7472     13.1703    129.2136   1.0232331082e+02   4.7126543615e+01     0.582195    0.2459387  35.35  0.001140436    2.194    0.544
       308 -10.3126     75.0077     20.4904   4.5826486289e+01   6.3712311933e+01    0.4146554    0.2737648 -52.63 0.0007334646    1.815    0.449
       309  -9.9342    215.8872     29.5033   2.6136726481e+01   2.8481854359e+01    0.2490562    0.2347171 -69.36 0.0008375883    1.162    0.140
       310  -9.0342    201.4995     30.0230   2.7489564823e+01   3.1521039792e+01     0.247815    0.1361135 -51.64 0.0009702141    1.729    0.421
       311  -8.9506    110.6270     29.6755   4.0440991856e+01   5.3815355276e+01    0.3394127     0.193644  37.43  0.001412818    2.085    0.520
       312 -11.5986     34.8468     27.4558   6.8337490428e+01   7.0393411205e+01    0.4691828    0.3862663  27.12 0.0003286954    1.280    0.219
       313  -9.3364      3.7516     29.7531   9.0811948534e+01   7.3216283519e+01    0.2445469    0.1948819  66.61 0.0006137072    1.531    0.347
       314  -8.5525    147.0050     29.0563   3.3493434402e+01   4.4654173224e+01    0.1681004    0.1524895 -38.22            0    1.059    0.056
       315  -9.6136     66.0648     30.8367   5.4639910511e+01   6.4083585952e+01    0.2422847    0.1959226 -27.09 0.0002593705    1.208    0.172
       316  -9.4843    206.8694     26.0692   2.5941106400e+01   3.0769192161e+01    0.2663705    0.1643183 -20.92 0.0008282317    1.561    0.359
       317  -8.6792    189.2918     26.0392   2.7474692469e+01   3.4710810933e+01    0.1886035    0.1565017 -44.25  0.000446049    1.059    0.055
       318 -10.4561     12.9689    134.9981   1.0283263918e+02   4.5697076547e+01    0.2709065     0.218455  70.84 0.0003824143    1.085    0.078
       319 -10.4835     17.5030    133.9254   1.0132742961e+02   4.5611994657e+01    0.2832196    0.2462779  35.97 0.0008414614    1.233    0.189
       320 -10.4730      9.3806    138.6018   1.0418807550e+02   4.5071495805e+01    0.3558777     0.202476  82.43  0.001864055    1.599    0.375
       321  -9.7916      4.5338    131.5480   1.0524052564e+02   4.7144265830e+01     0.234231    0.1906469  56.05 0.0005141285    1.152    0.132
       322 -10.7430      6.5885    147.9483   1.0557001493e+02   4.3007762569e+01    0.3767457    0.2237848  25.22   0.00117596    1.757    0.431
       323  -8.7700    119.9726     26.1044   3.6965296757e+01   5.1906791616e+01    0.2405821    0.1665349  27.51  0.001116701    1.750    0.429
       324 -10.0012    212.3862     22.1606   2.4462193408e+01   2.9985957601e+01    0.2953339    0.2044086 -24.07 0.0006223887    1.335    0.251
       325  -9.9465     11.8617    145.0205   1.0386275610e+02   4.3325284460e+01    0.2162289    0.1649467  46.44            0    1.232    0.188
       326  -8.9059    158.9034     22.8314   2.9716246803e+01   4.2374787815e+01    0.2373838    0.1797213  63.34 0.0007594088    1.363    0.267
       327  -8.6091    103.9154     23.8770   3.9420128880e+01   5.6260081717e+01    0.1873537    0.1614255 -69.97 0.0009996372    1.262    0.207
       328  -9.3117     98.8365     23.4110   4.0423688174e+01   5.7589724945e+01    0.2755099    0.2115286 -57.75  0.001391707    1.450    0.311
       329 -10.9525      2.7272    142.5169   1.0640617491e+02   4.4575837358e+01    0.4375616     0.296955  76.61   0.00233688    1.262    0.208
       330  -9.5388      1.0000    134.9800   1.0653362674e+02   4.6521093730e+01    0.4245755    0.1218574 -85.33  0.001590074    3.174    0.685
       331  -8.6390     60.7476    148.1991   8.9816864236e+01   3.7614261765e+01    0.1720446    0.1529937 -35.40 0.0003213595    1.307    0.235
       332  -9.4456    117.7743     19.1489   3.4457575654e+01   5.3291299475e+01    0.3528658    0.2239956  50.43  0.001137043    1.581    0.368
       333  -9.5221     36.7062    147.9844   9.6794998708e+01   4.0404984400e+01    0.1834655    0.1620663  84.07 0.0007910395    1.047    0.045
       334  -9.6787     36.2618    143.1887   9.6430189534e+01   4.1613915932e+01    0.2910469    0.1692265 -67.77  0.001357567    1.632    0.387
       335  -9.4997     57.0626    141.3848   8.9960894281e+01   3.9704869945e+01    0.2827982    0.1677342 -50.52  0.001356085    1.797    0.444
       336  -9.7676     44.3682    141.4555   9.3788313767e+01   4.1178066690e+01    0.2705857    0.2064513  49.57 0.0008267958    1.242    0.195
       337  -9.5516    188.2650     20.9803   2.6076724983e+01   3.5482130874e+01    0.2253121    0.1874176  62.06 0.0003128932    1.330    0.248
       338  -9.4658     27.9552    141.6494   9.8784741804e+01   4.2796805544e+01    0.2192804    0.1656311 -66.48 0.0007019024    1.311    0.237
       339  -8.6645    143.3259     21.6899   3.1349699091e+01   4.6435893004e+01    0.1531302    0.0985899 -58.92 0.0006417042    1.657    0.397
       340  -9.3936     29.5255    137.5291   9.7901377707e+01   4.3666838275e+01    0.2126693    0.1315159   4.39 0.0007644713    2.226    0.551
       341  -9.4123     41.3377    128.0778   9.3037377292e+01   4.4835161945e+01    0.2053195    0.1797534  46.47 0.0006451093    1.151    0.131
       342 -11.6234     31.2149    124.9301   9.5970080269e+01   4.6673782608e+01    0.7343625    0.3219307  26.18  0.001450269    2.364    0.577
       343  -9.8651     30.8242    133.8232   9.7107725462e+01   4.4466471615e+01    0.1964062    0.1745401 -63.88 0.0003528526    1.182    0.154
       344 -11.2012     26.1018    130.4803   9.8264535475e+01   4.5744490411e+01    0.5174053    0.3085137  20.11  0.001508655    1.894    0.472
       345  -8.1958     76.2794    130.7252   8.2467170483e+01   3.9662037383e+01    0.1404421    0.1051034  68.83            0    1.498    0.332
       346 -10.7937     49.0316    126.1869   9.0262901158e+01   4.4434862937e+01    0.3798726     0.302459 -36.70  0.001010804    1.467    0.318
       347  -9.5426     97.8155    125.8529   7.5184873426e+01   3.7368911563e+01    0.2272205    0.2246457  -1.87  0.000523955    1.044    0.042
       348  -8.8646    131.0009     19.5035   3.2350944781e+01   4.9840471202e+01    0.2210706    0.1394911  71.69  0.001035697    1.602    0.376
       349  -9.0539    200.0791     17.5190   2.4110516814e+01   3.3139813625e+01     0.181188    0.1254449  81.57 0.0006674479    1.552    0.356
       350 -10.3330     67.0321    123.8027   8.4062506900e+01   4.2684185269e+01    0.3543446     0.235393 -27.27  0.001113223    2.112    0.527
       351 -10.1528     23.6575    124.5819   9.8451213582e+01   4.7455060879e+01    0.3604212    0.2256139 -70.89  0.001187477    1.451    0.311
       352 -10.0663    229.9753    123.3733   4.7299414562e+01   1.3974194859e+01    0.4376135    0.2386049 -43.65  0.002283496    1.985    0.496
       353  -8.3545     78.0089    123.2259   8.0514590339e+01   4.1203604337e+01    0.1799716    0.1183366  34.94  0.000319424    1.547    0.353
       354  -8.6208    135.7896    120.9889   6.4118758549e+01   3.1467282429e+01     0.202078    0.1138064 -43.43 0.0008748984    1.739    0.425
       355 -10.8449     83.1946    118.9182   7.8031616326e+01   4.1419922366e+01    0.3809592    0.2605315 -40.86 0.0007505409    1.590    0.371
       356  -8.9492     88.4936    120.1110   7.6676750128e+01   4.0268722308e+01    0.2158756    0.1405474 -54.33 0.0002919421    1.507    0.336
       357  -9.6980     68.0028    118.2716   8.2705920453e+01   4.3910411148e+01    0.3343564    0.2263959  39.34 0.0008150007    1.485    0.327
       358 -10.7864     57.3933    117.5770   8.6076348732e+01   4.5555510104e+01    0.5925409    0.2626656  35.46  0.002192113    2.216    0.549
       359  -9.3227     30.9963    117.3977   9.5101003366e+01   4.8624664820e+01    0.4416223    0.1285274 -77.61  0.001369627    3.931    0.746
       360 -10.2313     98.7023    117.4142   7.3062656930e+01   3.9144434038e+01    0.2490232    0.2439373 -45.37 0.0003349154    1.026    0.025
       361  -9.7332     46.4834    116.6795   8.9627836979e+01   4.7148238627e+01      0.30011    0.2212873 -52.54  0.001576311    1.366    0.268
       362 -10.1413      2.5552    116.6466   1.0492091001e+02   5.1017638025e+01    0.3703113    0.1759028  61.31  0.001445239    2.045    0.511
       363  -8.7226     25.1168    116.2182   9.7009553665e+01   4.9473027525e+01    0.1936815    0.1405834  61.51 0.0005922973    1.349    0.259
       364  -8.9704    116.8482    112.8302   6.6908428776e+01   3.6808441889e+01    0.2169987    0.1977493  -3.34 0.0003850973    1.181    0.153
       365  -8.9595     84.2817    112.9939   7.6393837681e+01   4.2657022186e+01    0.1990536    0.1825521 -60.89   0.00021013    1.061    0.058
       366 -10.8237     46.0514    103.5548   8.7475295295e+01   5.0572731624e+01    0.4401453    0.3038584 -67.23 0.0004872872    1.343    0.255
       367  -9.6902     49.9940    111.7273   8.7561323018e+01   4.7989694358e+01    0.2640179     0.211304 -83.98 0.0003918029    1.219    0.180
       368 -10.1186     46.9253    109.2819   8.8211226270e+01   4.8992206596e+01    0.2975103    0.2578856 -80.69 0.0005177616    1.076    0.071
       369 -10.3690     62.7101    111.7885   8.3179164577e+01   4.6284056410e+01    0.2547916    0.2230459  77.20 0.0001805456    1.158    0.136
       370 -10.8544     21.4344    110.2255   9.7605766044e+01   5.1342621367e+01    0.5487254    0.2707554  40.14  0.002367866    2.002    0.500
       371  -9.8262    183.2635     25.0330   2.7757310787e+01   3.6223196088e+01    0.2747525    0.2173626 -83.05 0.0009954998    1.313    0.238
       372 -10.4693     34.6316    111.1977   9.2945905966e+01   4.9866450359e+01     0.300815    0.2515151  38.25 0.0008941929    1.256    0.204
       373 -10.7778     34.4273    105.0022   9.2060982101e+01   5.1497825525e+01    0.6168107    0.3118318 -74.03  0.002702149    1.879    0.468
       374 -10.1206     28.4929    109.5046   9.4932119086e+01   5.0907070002e+01    0.3061666    0.2528225   7.50 0.0007526513    1.450    0.310
