#   1 NUMBER                 Running object number                                     
#   2 MAG_AUTO               Kron-like elliptical aperture magnitude                    [mag]
#   3 X_IMAGE                Object position along x                                    [pixel]
#   4 Y_IMAGE                Object position along y                                    [pixel]
#   5 X_WORLD                Barycenter position along world x axis                     [deg]
#   6 Y_WORLD                Barycenter position along world y axis                     [deg]
#   7 A_WORLD                Profile RMS along major axis (world units)                 [deg]
#   8 B_WORLD                Profile RMS along minor axis (world units)                 [deg]
#   9 THETA_WORLD            Position angle (CCW/world-x)                               [deg]
#  10 FWHM_WORLD             FWHM assuming a gaussian core                              [deg]
#  11 ELONGATION             A_IMAGE/B_IMAGE                                           
#  12 ELLIPTICITY            1 - B_IMAGE/A_IMAGE                                       
         1 -14.7094    249.0989     57.6557   5.0459563037e+01   1.5511959542e+01     1.371108    0.2105847 -27.36  0.004040036    4.379    0.772
         2 -13.0908     64.8840     10.7450   7.0250721878e+01   6.7092941043e+01    0.3040202    0.2096141 -30.93     0.001029    1.335    0.251
         3 -13.2678    178.1359      7.6675   4.3445589594e+01   3.8746209348e+01    0.2737372    0.1954108 -36.35 0.0008344026    1.359    0.264
         4 -13.4786     98.5007      8.4898   5.7870183606e+01   6.0115957927e+01    0.2469216    0.2291687  74.10 0.0008790272    1.173    0.148
         5 -13.9903    101.8290      6.8169   5.6154625349e+01   5.9508104728e+01    0.3182607    0.2930238 -69.30  0.001221699    1.209    0.173
         6 -14.7195    156.4704      3.5011   4.4567663372e+01   4.5203101710e+01    0.8700712    0.4248807 -85.17  0.003099176    2.750    0.636
         7 -14.3228     85.2797      7.6438   6.1244739834e+01   6.3305184633e+01    0.3934136    0.3842506  16.39  0.001414257    1.075    0.069
         8 -13.7082    139.0932      2.7915   4.6789410106e+01   5.0115475246e+01    0.4357136    0.2280791  80.78  0.001546585    2.153    0.535
         9 -14.8320    113.5838      2.4207   5.1257082984e+01   5.7016336379e+01     1.120258     0.279631  68.76  0.003073877    4.638    0.784
        10 -11.5715     20.4116    167.3237   1.1859216831e+02   3.9361668071e+01    0.2121797    0.1104542  54.31  0.001370488    1.452    0.311
        11 -15.1401    168.9770    190.4816   9.1333692197e+01   1.4637158043e+01    0.6950473    0.3243099  46.83  0.002134869    1.769    0.435
        12 -16.4145    183.7604    208.1806   9.1257220119e+01   1.0161865247e+01     2.433065     1.306908  60.29   0.01227178    3.113    0.679
        13 -16.0314    179.0048    226.5780   9.4335984396e+01   8.9121741107e+00     1.072693    0.8589929 -23.65  0.008765304    1.652    0.395
        14 -14.6024    188.6148    224.0622   9.2511346387e+01   7.7589180251e+00    0.7235271    0.5896679 -55.18  0.002434089    1.947    0.486
        15 -15.9586    185.7294    245.6312   9.5448893253e+01   6.1069770639e+00     2.196429    0.7512541  40.02   0.01269229    2.008    0.502
        16 -15.0091    196.2523    237.8298   9.2983842992e+01   5.3562609137e+00     0.761333    0.4873911 -28.16  0.002507125    2.097    0.523
        17 -15.7099    167.5432    211.3237   9.4358858567e+01   1.2312080392e+01    0.9884413    0.6668776 -20.60  0.006603948    2.170    0.539
        18 -13.5272    169.6073    199.6572   9.2495413877e+01   1.3385513536e+01    0.2812783    0.2159304  19.28 0.0009090782    1.388    0.280
        19 -14.2596    166.8411    246.8035   9.8448760038e+01   8.5939844476e+00    0.7012667    0.3260613  33.16   0.00266535    1.827    0.453
        20 -13.0299    166.4647    241.4638   9.7961692132e+01   9.1805328163e+00    0.2483197    0.1736332  36.96  8.93945e-05    1.066    0.062
        21 -15.6477    146.2324    236.4540   1.0066707707e+02   1.2555740083e+01     1.006744    0.9039622  -5.21  0.008897183    1.550    0.355
        22 -15.9860    144.8360    195.4345   9.6323984613e+01   1.7899524114e+01      1.41712    0.9826113 -64.90  0.009231114    1.991    0.498
        23 -19.6030     84.5510    193.7765   1.0749805932e+02   2.7150487043e+01     6.848888     3.996053  52.94   0.04437809    1.324    0.245
        24 -14.3122    151.2524    159.6999   8.9906335730e+01   2.2079446185e+01    0.6013671     0.362109 -59.40  0.003118183    2.252    0.556
        25 -11.7100    186.0150    163.0834   8.3965319712e+01   1.5260530847e+01    0.1854379    0.1545932  33.71 0.0003406109    1.003    0.003
        26 -13.7855    141.8943    160.6151   9.1919121317e+01   2.3612238583e+01    0.3855305    0.2023476  45.94  0.001394514    1.617    0.382
        27 -11.8815      1.5933    158.2744   1.2220049320e+02   4.2715750287e+01     0.131918   0.09428431  82.24 0.0007442301    1.158    0.137
        28 -11.3448    242.6710    157.2866   7.3694960249e+01   5.9520857956e+00   0.09883566    0.0956761  84.55  0.000285228    1.614    0.380
        29 -12.2704    157.3309    197.4883   9.4349516602e+01   1.5626458046e+01    0.2232244    0.1622839  54.83  0.001154741    1.325    0.245
        30 -12.0789    157.3342    154.8960   8.7893253151e+01   2.1714012616e+01    0.2184196    0.1571182  53.33 0.0007452267    1.299    0.230
        31 -11.7395      7.6199    155.4852   1.2078464702e+02   4.2763626587e+01    0.1103029   0.09088091  57.14 0.0003735983    1.255    0.203
        32 -13.0567    144.5203    153.4850   9.0211693837e+01   2.4299868055e+01    0.2312534     0.194344  47.00  0.000929756    1.029    0.029
        33 -14.8651    246.9622    141.7944   7.0086066058e+01   6.7930200579e+00     1.019738     0.219639 -36.62  0.003328911    5.644    0.823
        34 -15.8604     47.4189    162.9687   1.1248957751e+02   3.7362455332e+01     1.027967    0.6811582  82.35   0.00689012    1.328    0.247
        35 -12.1372     40.2758    149.2426   1.1298249913e+02   4.0867780110e+01    0.1980932    0.1459472  58.87 0.0004155564    1.130    0.115
        36 -13.6878     48.7145    145.3741   1.1064337280e+02   4.0695827526e+01    0.4084032     0.257729  56.33  0.001261592    1.335    0.251
        37 -12.2617    139.1537    140.5214   8.9039485233e+01   2.7492175103e+01    0.2118796    0.1901748 -57.83 0.0003531338    1.241    0.194
        38 -13.1815    131.6727    143.8823   9.1248564920e+01   2.8293328310e+01    0.2568227    0.1724912  51.11 0.0004729676    1.329    0.248
        39 -11.6334      2.3859    140.0371   1.2130484783e+02   4.6239262759e+01     0.225563    0.1310677   3.27  0.001274428    3.357    0.702
        40 -11.5889    167.1225    138.9447   8.3007148342e+01   2.2326259440e+01    0.1957002    0.1745378  41.15 0.0003644201    1.008    0.008
        41 -11.9072     27.9380    135.0048   1.1479654966e+02   4.5074646345e+01    0.2278751     0.134935  44.44  0.001422049    1.542    0.351
        42 -11.1976     32.4664    134.4758   1.1362050362e+02   4.4735384050e+01    0.1178185   0.09230018  75.75  9.58792e-05    1.007    0.007
        43 -14.8158    248.7167    127.1258   6.6837017934e+01   8.0108981590e+00    0.6539277    0.4066336 -38.94  0.003645363    1.899    0.474
        44 -15.1534    248.7457    115.3793   6.4309591163e+01   9.2605616141e+00     0.914567    0.4408253 -35.06  0.004475319    2.118    0.528
        45 -15.7228    248.3924    100.9593   6.1114361387e+01   1.0902549505e+01     1.497812      0.53461 -36.78     0.006107    2.822    0.646
        46 -14.6043    249.1223     85.6128   5.7406640487e+01   1.2451770948e+01    0.9977801    0.3002284 -22.30   0.00355638    3.273    0.694
        47 -14.8468    244.4360     84.0567   5.7619518303e+01   1.3587035954e+01    0.6631273    0.2773416 -32.20  0.002888999    2.147    0.534
        48 -14.1720     48.9677    122.2250   1.0806333231e+02   4.5550908664e+01    0.7688968    0.4154083 -39.52   0.00345363    3.393    0.705
        49 -11.8010     30.1496    128.9975   1.1373243285e+02   4.6127999254e+01    0.2327125    0.1402794  44.15 0.0008009967    1.546    0.353
        50 -12.1073    127.7434    249.6502   1.0480534179e+02   1.3591337285e+01    0.1465606    0.0976968  21.95  0.001061688    2.030    0.507
        51 -10.7774      4.5758    191.1280   1.2266037753e+02   3.6514560665e+01    0.2039676   0.06673057  53.97  0.001234261    1.980    0.495
        52 -13.7815    184.1098    188.5180   8.8419423354e+01   1.2375188640e+01    0.2653799    0.2132636 -12.81  0.001359489    1.468    0.319
        53 -12.4188      7.8346    187.5617   1.2193936913e+02   3.6845322815e+01    0.3142923    0.0654927  40.56   0.00165472    2.782    0.640
        54  99.0000    117.8692    250.3962   1.0642041965e+02   1.4803500813e+01    0.3653979    0.1156595  38.65  0.001983148    2.409    0.585
        55 -13.0794    161.9686    201.4541   9.4054654336e+01   1.4379715138e+01     0.246279    0.2080345 -29.12 0.0001797523    1.528    0.346
        56 -13.2789     57.5242    113.6850   1.0456958921e+02   4.6370367408e+01    0.3701514    0.2327655  69.36  0.001363618    1.608    0.378
        57 -13.0122    164.1731    182.8555   9.1086109308e+01   1.6442993774e+01    0.1884412    0.1648348  15.71 0.0002886719    1.246    0.197
        58 -12.7769    154.8248    181.4278   9.2589680190e+01   1.8219887383e+01    0.2095416    0.1752579  41.39 0.0002143049    1.043    0.041
        59 -10.7820      6.3044    113.2603   1.1887935287e+02   5.1561952399e+01   0.09980176   0.07753588 -58.79 0.0002518578    1.518    0.341
        60 -13.0330     62.2010    109.4331   1.0259599178e+02   4.6697263891e+01    0.3366437    0.2384027  18.17  0.001813562    2.066    0.516
        61 -12.5312      1.7361    104.7767   1.1962136599e+02   5.3724602969e+01    0.2421362    0.1399801 -80.61  0.001213745    1.402    0.287
        62 -10.7801      4.0597    178.9801   1.2239047379e+02   3.8683702668e+01    0.1332932    0.1063801 -65.33  0.001087509    1.728    0.421
        63 -12.3132     19.1782     94.9750   1.1353031487e+02   5.4639864900e+01    0.1909444    0.1316499  74.93  0.000648584    1.271    0.213
        64 -13.1841    161.5499    196.0363   9.3411498756e+01   1.5135984740e+01    0.2870758    0.1917106  64.08  0.001261331    1.897    0.473
        65 -13.3093     15.7361     88.2218   1.1389410757e+02   5.6450288601e+01    0.3374413    0.1669752 -73.95  0.001243027    1.647    0.393
        66 -10.9581     89.5671     85.8921   8.9782368795e+01   4.7661203832e+01    0.2022954    0.1311889 -53.71 0.0003718862    1.494    0.331
        67 -11.2396     42.7986     70.8662   1.0168023334e+02   5.7924006625e+01    0.1857213    0.1385429  79.13  0.001076682    1.386    0.278
        68 -11.7971    156.8056    248.8033   1.0019243647e+02   9.7676108483e+00    0.1531431     0.118809  51.60 0.0007260429    1.288    0.224
        69 -13.2226    145.2314    169.9812   9.2717065893e+01   2.1550005407e+01    0.2276857    0.2191241  34.32 0.0004372958    1.177    0.150
        70 -12.4472    229.0064     59.0202   5.3129705340e+01   1.9868323782e+01    0.2344405    0.1579694 -53.31  0.001144276    1.703    0.413
        71 -11.2636     56.0422     45.5411   8.9561969278e+01   6.1933024250e+01    0.1886587    0.1348774  35.72  0.001026023    1.589    0.371
        72 -12.1687    126.1937     40.0229   6.4724663953e+01   4.8732650703e+01    0.4893567    0.2170637  52.45  0.001832638    2.210    0.548
        73 -12.7343    144.9980     16.3151   5.1403650693e+01   4.7059983485e+01    0.2199747    0.1987215  66.12 0.0005701137    1.099    0.090
        74 -11.5535     34.0799     14.3105   8.6994381410e+01   7.1324397967e+01    0.1673883    0.1532682 -39.18  0.000489777    1.090    0.083
        75  -9.6981    120.0167    246.4543   1.0576971884e+02   1.4980784944e+01     0.222426   0.06857569  48.86  0.001182919    2.443    0.591
        76 -11.2696     14.8028    203.5823   1.2118606947e+02   3.3506294434e+01    0.1807574    0.1290735  73.60  0.001527365    1.172    0.147
        77 -11.8139     13.1756    216.0836   1.2186312674e+02   3.1658464151e+01     0.169894     0.125825  56.56  0.001506914    1.205    0.170
        78 -14.8817    162.9521    230.6921   9.7373356489e+01   1.0810930171e+01    0.9513861    0.3924256  38.94  0.004640501    1.793    0.442
        79 -12.2472    148.0988    214.4076   9.8027653679e+01   1.4901720466e+01    0.2854157    0.1540011  43.88  0.001067281    1.372    0.271
        80 -12.0182    170.9747    168.7186   8.7642384535e+01   1.7201093248e+01     0.180677    0.1699588  17.95 0.0004383827    1.157    0.136
        81  -9.7329      2.6734    201.9034   1.2329757431e+02   3.4872398532e+01    0.2031663    0.1321859 -68.77  0.001614328    1.982    0.495
