#   1 NUMBER                 Running object number                                     
#   2 MAG_AUTO               Kron-like elliptical aperture magnitude                    [mag]
#   3 X_IMAGE                Object position along x                                    [pixel]
#   4 Y_IMAGE                Object position along y                                    [pixel]
#   5 X_WORLD                Barycenter position along world x axis                     [deg]
#   6 Y_WORLD                Barycenter position along world y axis                     [deg]
#   7 A_WORLD                Profile RMS along major axis (world units)                 [deg]
#   8 B_WORLD                Profile RMS along minor axis (world units)                 [deg]
#   9 THETA_WORLD            Position angle (CCW/world-x)                               [deg]
#  10 FWHM_WORLD             FWHM assuming a gaussian core                              [deg]
#  11 ELONGATION             A_IMAGE/B_IMAGE                                           
#  12 ELLIPTICITY            1 - B_IMAGE/A_IMAGE                                       
         1 -14.0814    170.1769     42.0252   7.1946391916e+01   3.7446009621e+01     1.158292     1.021015  17.78  0.004175814    1.399    0.285
         2 -13.1851    189.2202     13.8569   6.2033854943e+01   3.6252106484e+01    0.7299468    0.4171911  48.20  0.003255248    1.955    0.489
         3 -13.9308    185.7414      8.3634   6.1129108312e+01   3.7639191594e+01     2.350125    0.5735164  62.83  0.008293059    3.059    0.673
         4 -10.3280     80.0290      2.0000   7.8335602782e+01   6.1540163996e+01    0.1945185   0.05713427  54.04 0.0008048058    2.959    0.662
         5 -11.0234    154.0955    239.7007   1.2007680958e+02   1.9164776637e+00    0.2766184    0.1942474 -52.19  0.001544195    1.644    0.392
         6 -19.8665     60.8655    169.2018   1.3038901944e+02   3.2721476179e+01     19.98841     5.032534 -65.49   0.06205273    3.954    0.747
         7 -11.2927    141.0314    189.7022   1.1463857443e+02   1.4358239203e+01    0.3323036    0.2066787 -43.69 0.0009126774    1.752    0.429
         8 -10.3577    172.5188    188.9769   1.0744613312e+02   8.3397946054e+00    0.2285481    0.1976033  43.79  0.001217641    1.124    0.111
         9 -10.0458    166.4685    235.3416   1.1689836265e+02   5.3745779849e-01    0.2726386    0.1346585 -51.30  0.001094124    2.378    0.580
        10  -9.1424    164.6929    183.3370   1.0805992208e+02   1.1079669909e+01    0.1522626    0.1188925  84.56  0.000704175    1.676    0.403
        11 -10.9003    168.5288    177.0511   1.0593700318e+02   1.1650045121e+01    0.4591439    0.2749141 -67.56  0.001759809    2.532    0.605
        12  -9.8307    166.2820    173.6262   1.0573422632e+02   1.2847158848e+01    0.2646135    0.2213667 -74.92 0.0005701277    1.377    0.274
        13 -11.3301    204.5864    176.1162   9.8078579658e+01   4.6066982475e+00    0.4591637    0.3901761 -46.52  0.001219424    1.202    0.168
        14  -9.5985    197.6956    176.9698   9.9660459845e+01   5.7916739138e+00    0.2880459    0.2292152 -82.86  0.001403652    1.755    0.430
        15 -10.0223    200.7773    168.3288   9.7207190453e+01   6.9011901326e+00    0.2699578    0.2325474 -89.08 0.0007406276    1.452    0.312
        16 -11.0621    230.3719    166.7399   9.1152189465e+01   1.4712434230e+00    0.3307033    0.1659447 -51.90  0.001343957    2.355    0.575
        17 -11.5247    193.4572    165.8469   9.8183626102e+01   8.8909051560e+00    0.4402092    0.3304007 -48.18 0.0007351171    1.340    0.254
        18 -10.9085    189.9697    160.8454   9.7828684644e+01   1.0645315225e+01    0.3605649    0.3324812  86.03 0.0009241859    1.207    0.172
        19 -11.3627    189.6045    155.5473   9.6736437750e+01   1.1826460859e+01    0.4737277    0.4426437  16.62  0.001592472    1.124    0.111
        20  -9.9612     30.6029    204.9970   1.4127848399e+02   2.8073653450e+01    0.1380628    0.1191251  81.09  0.000950845    1.171    0.146
        21 -10.5773    236.9664    158.4877   8.8233249096e+01   1.7691076137e+00    0.1966864    0.1395402  44.74 0.0004038347    1.547    0.353
        22  -9.5272     13.0663    158.0817   1.4044515550e+02   4.0546394603e+01    0.1830821     0.134488 -59.43 0.0004250129    1.298    0.230
        23 -11.2382    120.4541    156.7199   1.1315190801e+02   2.5980074394e+01    0.2881052     0.253765  22.65  0.000664023    1.303    0.233
        24 -10.6444    166.1132    154.3170   1.0161385271e+02   1.7116250872e+01     0.454945    0.2942571  74.67  0.001721937    2.489    0.598
        25 -12.6172    133.9812    145.8832   1.0740267997e+02   2.5844133551e+01     1.403109    0.3481931 -54.49  0.003212519    5.683    0.824
        26 -11.2541     15.5903    219.6680   1.4532598746e+02   2.6525957581e+01    0.1487373   0.09652183 -83.80 0.0005728239    1.244    0.196
        27  -9.3580    164.2991    203.6324   1.1199849881e+02   6.9371351568e+00    0.1461537    0.1129643  82.15 0.0007032144    1.732    0.423
        28  -9.9237    174.5900    149.1584   9.8543510234e+01   1.6413813444e+01    0.2854031    0.2261063  48.62 0.0007489545    1.280    0.218
        29 -11.7936    144.4169    145.9620   1.0484156655e+02   2.3644598871e+01    0.4914088    0.3640027 -86.53  0.002133874    1.800    0.445
        30 -11.7051    135.3985    123.7889   1.0180673126e+02   3.0631329390e+01    0.8627016    0.1835527 -47.24  0.002134027    4.674    0.786
        31 -10.7538    160.4623    127.5981   9.6652062406e+01   2.4255653750e+01    0.4708461     0.290539 -58.48  0.001459854    1.852    0.460
        32 -12.3133    120.0100    127.9548   1.0683186871e+02   3.2870215994e+01    0.6162202    0.4386399  21.30  0.001769337    1.828    0.453
        33 -11.0018    108.1819    124.0947   1.0909782931e+02   3.6068952539e+01    0.3172902    0.2810343 -25.78  0.000597732    1.225    0.183
        34 -10.1993    113.7456    117.9783   1.0606822839e+02   3.6404176421e+01    0.2531244    0.2199121  44.90  0.000524688    1.185    0.156
        35  -9.9250    168.5715    113.4177   9.1270980507e+01   2.5420433062e+01    0.3492749    0.2475424 -87.85  0.001447051    2.013    0.503
        36 -10.4979    134.5746    105.8057   9.7376233924e+01   3.4747635918e+01    0.5341427    0.1463298 -46.36  0.001507307    3.698    0.730
        37 -10.0779    205.3470    110.2314   8.3072761169e+01   1.7554748175e+01    0.3115827     0.212332  48.90 0.0009616471    1.551    0.355
        38 -11.7062    152.6984    198.6338   1.1363653747e+02   1.0184073577e+01    0.4471629    0.2996694 -49.83  0.002009742    1.573    0.364
        39 -10.6145    161.1131    199.8443   1.1200205249e+02   8.3174283193e+00    0.2633558    0.2354387 -63.59 0.0003554181    1.209    0.173
        40 -10.8012    159.5009    196.4854   1.1173735108e+02   9.3241895140e+00    0.3114268    0.2538518  33.28  0.001632674    1.223    0.182
        41  -5.8441      8.9425    195.1655   1.4475213735e+02   3.2473513564e+01    0.1579708    0.1087701 -62.79  0.001024486    1.491    0.329
        42 -10.0520     93.0787     79.1256   1.0138674202e+02   4.8529056191e+01    0.2080392    0.1992738 -11.37 0.0004681084    1.047    0.045
        43  -9.1613    180.6232    193.2970   1.0654100558e+02   5.8779357120e+00    0.1482951    0.1148254  75.36  0.000702487    1.751    0.429
        44 -13.5574    157.5568     57.0688   7.8423711918e+01   3.8345335277e+01     1.336795    0.9773265  57.47   0.00100334    1.278    0.218
        45  -9.0060    235.2797    246.6950   1.0543853591e+02  -1.2343821167e+01    0.1004378   0.09591173  47.62 0.0002768371    1.552    0.356
        46  -9.8064     13.4773     59.8080   1.2352936882e+02   6.2140920465e+01    0.1784095    0.1475995 -13.82 0.0004003234    1.208    0.172
        47 -12.2393    174.4650     34.6990   6.9300667031e+01   3.7361447099e+01    0.4177882    0.3456465  46.70 0.0009194136    1.293    0.226
        48 -11.1967     14.7343    215.6501   1.4519436155e+02   2.7464078170e+01    0.1076624   0.07644639 -61.47 0.0006984746    1.617    0.382
        49 -11.1953    150.6750    245.2997   1.2157917084e+02   1.5149939440e+00    0.2705495    0.2275633  56.87 0.0005334283    1.155    0.135
        50 -11.3090    146.5949    242.6541   1.2202148860e+02   2.6818086755e+00    0.2703901    0.2226397 -29.31  0.001625067    1.526    0.345
