#   1 NUMBER                 Running object number                                     
#   2 MAG_AUTO               Kron-like elliptical aperture magnitude                    [mag]
#   3 X_IMAGE                Object position along x                                    [pixel]
#   4 Y_IMAGE                Object position along y                                    [pixel]
#   5 X_WORLD                Barycenter position along world x axis                     [deg]
#   6 Y_WORLD                Barycenter position along world y axis                     [deg]
#   7 A_WORLD                Profile RMS along major axis (world units)                 [deg]
#   8 B_WORLD                Profile RMS along minor axis (world units)                 [deg]
#   9 THETA_WORLD            Position angle (CCW/world-x)                               [deg]
#  10 FWHM_WORLD             FWHM assuming a gaussian core                              [deg]
#  11 ELONGATION             A_IMAGE/B_IMAGE                                           
#  12 ELLIPTICITY            1 - B_IMAGE/A_IMAGE                                       
         1 -14.7925    234.3193     79.3915   4.0309561964e+01   1.7786926734e+01     3.744394     1.593952 -59.09   0.01359203    3.432    0.709
         2 -14.9847    246.5762     43.4405   3.1325442749e+01   2.0608413326e+01     0.939012    0.6046417  46.06  0.005275946    2.212    0.548
         3 -17.2511    231.6485     34.2253   3.0846226014e+01   2.4871959171e+01     6.513153     1.364909 -39.24   0.01774884    3.636    0.725
         4 -15.3319      4.9110     92.0069   1.0543962489e+02   5.6284570439e+01     2.105185    0.9993079 -68.68  0.008967272    1.754    0.430
         5 -16.3242    108.1079     39.2692   5.2748328126e+01   5.2600384109e+01     2.510728      1.79712  23.35   0.00924968    1.510    0.338
         6 -15.8776    145.1791     46.6934   4.6439104249e+01   4.3128502527e+01     2.482352     1.816089  50.46  0.009948785    1.286    0.222
         7 -14.9694    153.3171     81.5277   5.4863790287e+01   3.5563211947e+01     1.824239     1.218575 -53.24  0.008303172    1.635    0.388
         8 -13.9796     83.4214     69.0100   7.0575820920e+01   5.2614242671e+01     1.395167     0.747166 -42.93  0.006177328    1.839    0.456
         9 -14.1646     56.2645     61.9104   7.8189549772e+01   5.8211397283e+01     1.410484     1.006855 -42.02  0.007037063    1.322    0.244
        10 -13.9339     32.0422     53.8773   8.5605038473e+01   6.2591962208e+01     1.600648    0.5853735 -40.54  0.006989025    2.376    0.579
        11 -14.7357      9.7637     35.1712   8.9856925928e+01   6.7920866529e+01     1.568041    0.8370237 -66.10  0.007901674    2.848    0.649
        12 -13.8786     23.9907     26.6385   7.9555769009e+01   6.8194851083e+01     1.007551    0.5100146 -39.95  0.005560907    1.737    0.424
        13 -13.9284    190.4174     44.3785   3.8049981929e+01   3.2706013057e+01     1.251175    0.6690459 -58.47  0.004897736    2.131    0.531
        14 -10.7175    178.3855     26.6368   3.5174658122e+01   3.7777104710e+01    0.8971286    0.6201522  46.64  0.004583884    1.591    0.371
        15 -13.6676     12.6200     17.0750   8.1469426745e+01   7.0734653324e+01    0.7290774    0.3348136 -35.73  0.004159895    1.794    0.442
        16 -13.6618      6.8516     14.6336   8.3608976171e+01   7.1572642790e+01    0.9117215    0.3146946 -34.75  0.004540954    2.442    0.590
        17 -15.9989    211.8639      6.5527   2.6731575644e+01   3.2334816083e+01     1.515519    0.7826049  69.45  0.008349256    1.733    0.423
        18 -11.4511    234.9569      4.9881   2.4592125881e+01   2.7607163804e+01    0.4355802    0.2935473  46.88   0.00216739    2.144    0.534
        19 -14.6449     83.8595      6.1256   4.6897690939e+01   6.1356894847e+01     1.258815    0.6156046  47.72  0.004663489    1.671    0.401
        20 -11.3419    171.0511      8.9298   3.1498821409e+01   4.1385199438e+01    0.3536362    0.1984892  69.75  0.001244932    1.533    0.348
        21 -14.5931    155.3276      4.2123   3.2237069035e+01   4.5508412750e+01     1.104707    0.5007395  63.66  0.005276383    1.809    0.447
        22 -12.7351    167.0786      3.2526   3.0488640844e+01   4.2840362872e+01    0.5846033    0.3246456  66.75  0.002467462    1.515    0.340
        23 -13.8707    110.2007      4.9786   4.0065221214e+01   5.5853914774e+01    0.8428665    0.4118352  59.80  0.003562709    1.724    0.420
        24 -13.2844     41.0784      3.4324   6.0809180596e+01   6.9168446235e+01    0.7215174    0.3407961  42.03   0.00326614    2.028    0.507
        25 -14.3304    150.9832    113.0436   6.3950574700e+01   2.9825709677e+01     1.590445     1.418122  67.00  0.007530944    1.214    0.177
        26 -13.0292     62.0801    245.9326   1.0828272170e+02   1.4820980890e+01     0.735037    0.4328549  76.65  0.004153801    1.792    0.442
        27 -13.1729    196.6570    119.6297   5.5679086297e+01   1.8524909976e+01    0.5613075    0.2608654  55.38  0.002129424    2.540    0.606
        28 -12.9740    213.3864    117.5966   5.2135104382e+01   1.5439626548e+01    0.4519405    0.2855961 -79.39   0.00175197    3.032    0.670
        29 -12.2849     72.1874    117.1043   8.7552397620e+01   4.3756722788e+01    0.4267699    0.3634018 -21.12  0.002082332    1.257    0.205
        30 -13.7212     72.5202    208.2317   1.0234014103e+02   2.1398120982e+01    0.6565458    0.5416607  75.77  0.003964338    1.121    0.108
        31 -14.7279      5.1470     76.1449   1.0251741831e+02   5.9863671300e+01     1.246646    0.8780237 -53.58  0.005626419    1.108    0.097
        32 -12.3466    115.4465    114.5234   7.3738009349e+01   3.6949566651e+01    0.4685097     0.390343  -2.84  0.002286456    1.402    0.287
        33 -12.6583    225.7652    121.0384   5.0813716535e+01   1.2350294037e+01    0.2342551    0.2122969  52.39  0.000692978    1.241    0.194
        34 -13.1015     31.3498    106.2282   9.8799146859e+01   5.1114908483e+01     1.013986    0.4210706 -57.06  0.004496746    1.919    0.479
        35 -12.0939    204.5757    104.8977   5.0712903060e+01   1.9630969604e+01    0.2866281     0.210964  51.52  0.001452202    1.456    0.313
        36 -12.7121    103.3279     99.6269   7.3332232909e+01   4.2645975899e+01    0.8290776    0.5286212 -57.01  0.003617164    1.751    0.429
        37 -12.8226     33.8015    207.9619   1.1093059741e+02   2.6188514913e+01    0.4457431    0.2039622  80.23  0.001986438    2.572    0.611
        38 -14.5637    135.7741     73.4579   5.6658591875e+01   4.1057049475e+01     1.345899      1.19107  65.05  0.004745838    1.182    0.154
        39 -14.6765    120.5044    190.4938   8.8388278619e+01   1.8053174351e+01     2.178469     1.628892  81.23   0.01060894    1.709    0.415
        40 -14.1767    167.5512     90.6714   5.4266371070e+01   3.0573594188e+01     1.392515    0.7567557  50.02  0.005299405    1.853    0.460
        41 -15.0583     77.7677    182.5552   9.7766214632e+01   2.6676941870e+01     2.089263     1.365672 -69.18  0.009341449    1.507    0.336
        42 -11.1212    181.3092     86.1138   5.0309628378e+01   2.8237339714e+01    0.2316565    0.1996903  43.44 0.0003382269    1.240    0.194
        43 -12.7309     74.0124     82.6133   7.8038843742e+01   5.1422184514e+01    0.7285668    0.4951831 -13.46  0.003437344    1.822    0.451
        44 -11.0646    190.4628     81.5257   4.7462615574e+01   2.6944264106e+01    0.3745828    0.2158701  39.74  0.001315665    2.167    0.538
        45 -11.6968    196.0520     78.4561   4.5736537379e+01   2.6194808382e+01    0.4616347    0.3101545 -17.81  0.002105309    2.064    0.515
        46 -12.3759    172.5709     76.9188   4.9566163848e+01   3.1883778045e+01    0.4062982    0.3206984  10.02  0.001153148    1.719    0.418
        47 -15.6577     48.9428    151.0031   1.0082925277e+02   3.8229861545e+01     2.978539     1.923674  66.37    0.0130171    1.805    0.446
        48 -12.7482     84.6253     56.5052   6.5967203406e+01   5.4666302153e+01    0.6266137    0.4105072 -50.64  0.003004066    1.853    0.460
        49 -11.9044    207.4809     73.5601   4.2729688803e+01   2.4436123442e+01    0.4555215      0.30311 -69.71  0.002134442    1.741    0.426
        50 -10.7635    201.7206     74.9511   4.3953378444e+01   2.5496881970e+01    0.2030689    0.1742735 -53.26  0.000626675    1.090    0.082
        51 -14.9578    100.3566    194.5715   9.3940871002e+01   2.0428251200e+01     1.709597     1.276864  -4.23  0.008332305    1.960    0.490
        52 -11.0906    217.0595     68.0744   4.0062994018e+01   2.3201858268e+01    0.3309446    0.1682627 -47.72 0.0009099024    1.816    0.449
        53 -12.7964    224.5975     65.4284   3.8462621679e+01   2.1989034538e+01    0.4392811    0.2660193  51.93 0.0009936951    1.868    0.465
        54 -12.7987      8.1388    143.3746   1.1111693475e+02   4.3797494232e+01    0.7379892    0.3556068 -87.49  0.003532007    2.033    0.508
        55 -14.7037      8.2631    172.9933   1.1378631902e+02   3.6672138411e+01     1.614899    0.6546304 -70.43  0.005863213    1.978    0.495
        56 -13.1616      5.8438    156.1606   1.1294205221e+02   4.0864908506e+01    0.6774594    0.5803559  -7.44  0.004597903    1.558    0.358
        57 -13.9635     15.6374     58.0755   9.4015853570e+01   6.3111903291e+01     0.934598     0.459797 -57.54  0.004903267    1.796    0.443
        58 -14.2708     22.7046     42.5866   8.6107060320e+01   6.5577036244e+01    0.7283239    0.5941857 -27.45  0.004700836    1.079    0.073
        59 -13.8313    126.3712    172.5017   8.3703364834e+01   2.1169045709e+01     1.236859     1.005392  60.65  0.005852477    1.340    0.254
        60 -14.3624    143.1512    167.6831   7.8577755211e+01   1.9172224504e+01      1.52554     1.460937  48.51  0.007022657    1.065    0.061
        61 -10.4401    203.3459     48.5894   3.7314177039e+01   2.9145529584e+01    0.2241789    0.1218042 -34.98  0.001066155    1.878    0.468
        62 -10.4802    203.9574     40.0558   3.5195393023e+01   3.0169386010e+01    0.1600447    0.1198028 -43.58 0.0005536566    1.317    0.241
        63 -12.9495     67.9827    144.4709   9.4329731878e+01   3.7517187066e+01    0.6689441    0.4519366  57.42  0.003207926    1.701    0.412
        64 -13.1180    209.7203     28.1482   3.1752319066e+01   3.0383391412e+01    0.5015557    0.3454201  70.89  0.001761733    1.365    0.267
        65 -10.5297    213.2085     22.9980   3.0226922781e+01   3.0225512814e+01    0.1643481    0.1560788  79.14 0.0003566776    1.255    0.203
        66 -14.5513     82.5245    129.5935   8.7090219449e+01   3.9140773135e+01     1.815194     1.327505 -22.11  0.007473962    1.697    0.411
        67 -13.5134    238.9678    143.7552   5.3547317490e+01   5.8521666330e+00     0.360793    0.2925302 -29.52  0.002117545    1.089    0.081
        68 -11.8446    145.5624     19.2040   3.8062474541e+01   4.6384876812e+01    0.2621267    0.1977212 -80.26  0.001153865    1.484    0.326
        69 -12.8261    112.2159    143.7075   8.1571707385e+01   3.0633261893e+01    0.4221989    0.2751833  46.06  0.001861443    1.595    0.373
        70 -13.2580     99.2974    245.7870   1.0074758039e+02   9.7839825186e+00    0.8913815    0.4961441  54.16  0.004671215    1.738    0.425
        71 -12.5599     45.9963    233.5050   1.1046748313e+02   1.9299152897e+01    0.4480048    0.2598603  87.94  0.002539623    1.713    0.416
        72 -12.7763     83.1376    222.4671   1.0159318224e+02   1.6796768746e+01    0.3984539    0.3052546 -75.35  0.002363215    1.344    0.256
        73 -12.3667    105.2733    139.2764   8.2542709457e+01   3.2962019089e+01    0.3534036     0.325773 -25.35  0.001668587    1.138    0.121
        74 -12.5070    194.2084    131.9012   5.9042988115e+01   1.6616814794e+01    0.3753383    0.2347387 -52.70  0.001656062    1.701    0.412
        75 -13.4158    145.3937    123.4573   6.7983403443e+01   2.8770124517e+01     0.963775    0.6358438  43.98  0.003349987    1.544    0.352
