#   1 NUMBER                 Running object number                                     
#   2 MAG_AUTO               Kron-like elliptical aperture magnitude                    [mag]
#   3 X_IMAGE                Object position along x                                    [pixel]
#   4 Y_IMAGE                Object position along y                                    [pixel]
#   5 X_WORLD                Barycenter position along world x axis                     [deg]
#   6 Y_WORLD                Barycenter position along world y axis                     [deg]
#   7 A_WORLD                Profile RMS along major axis (world units)                 [deg]
#   8 B_WORLD                Profile RMS along minor axis (world units)                 [deg]
#   9 THETA_WORLD            Position angle (CCW/world-x)                               [deg]
#  10 FWHM_WORLD             FWHM assuming a gaussian core                              [deg]
#  11 ELONGATION             A_IMAGE/B_IMAGE                                           
#  12 ELLIPTICITY            1 - B_IMAGE/A_IMAGE                                       
         1 -13.6210    193.0769     23.6298   6.6815407883e+01   3.4380522475e+01     1.205781     0.811745  -2.98  0.005625647    2.386    0.581
         2 -14.2059    200.5989     18.3410   6.4572356161e+01   3.3164776760e+01     2.383121     1.708068  29.09   0.01100404    2.038    0.509
         3 -13.0958      2.8239      8.8006   1.1463449051e+02   7.1323286015e+01     1.087092    0.3908895 -40.39  0.006287566    2.143    0.533
         4 -13.6202    205.7521     11.5803   6.2377449516e+01   3.2680237943e+01     1.240895    0.7194385  43.91  0.001489318    2.233    0.552
         5 -12.4517     89.9863    245.7279   1.3646369079e+02   1.2365659577e+01    0.5810047    0.3145704  74.96  0.002418012    2.153    0.536
         6 -12.0435    139.5069    248.9635   1.2756797623e+02   3.7209300121e+00     0.393738    0.3042333  73.30  0.002444074    1.382    0.276
         7 -13.2578     78.5400    232.6894   1.3725927059e+02   1.6605985384e+01     1.012376    0.4487878  48.04  0.001159217    1.912    0.477
         8 -13.7391    102.6328    246.0152   1.3415741851e+02   1.0337995106e+01     1.469631    0.4873705  45.25   0.00635824    2.452    0.592
         9 -11.6469     84.6190    239.0929   1.3677720087e+02   1.4441769830e+01    0.3030596    0.2368902  76.43  0.001159165    1.083    0.077
        10 -13.4245     35.2958    247.1568   1.4613687274e+02   1.9615903751e+01     1.350431    0.6259984  40.52   0.00781063    2.175    0.540
        11 -13.5441     13.0893    239.0983   1.4924398160e+02   2.3674577037e+01     1.378845    0.7330872 -78.94  0.009141494    1.583    0.368
        12 -14.2948      4.2258    150.1144   1.4415103210e+02   4.3304583578e+01     1.806085     1.234066  55.94   0.00104829    1.569    0.363
        13 -13.3783     43.8108    226.1902   1.4308735125e+02   2.2673455202e+01    0.6295221     0.360565  51.20 0.0008057567    1.531    0.347
        14 -15.6620     53.2645    215.1334   1.4033054609e+02   2.3756266936e+01     8.308186     3.833406  61.37   0.03178328    2.126    0.530
        15 -10.5159    143.0607    241.4784   1.2589773622e+02   4.3992150712e+00     0.200471     0.109139  44.51 0.0004664429    1.544    0.352
        16 -11.5607     25.9686    238.6153   1.4710907562e+02   2.2344810605e+01    0.4344031    0.1924079  76.24  0.001839712    2.143    0.533
        17 -15.3629      2.9456    228.1701   1.5025880598e+02   2.6823266160e+01     10.85461          nan -70.69   0.02895972    9.951    0.900
        18 -10.4037     50.1639    244.9672   1.4347643802e+02   1.8162939089e+01     0.197971    0.1354129  59.80 0.0006671431    1.181    0.153
        19 -10.1978    228.4003    205.1705   1.0318323616e+02  -4.6885582943e+00    0.2611325    0.2212655 -56.86 0.0009534925    1.550    0.355
        20 -10.4809    193.2831    195.4724   1.0816414662e+02   3.4506242248e+00    0.7439511    0.3661814 -63.86  0.002071572    6.011    0.834
        21 -11.8025     68.5675    193.1750   1.3480482680e+02   2.6472684085e+01    0.3930953    0.2625665 -45.43  0.001966241    1.977    0.494
        22 -11.8503     73.5289    186.1425   1.3281158956e+02   2.7357813952e+01    0.3138146    0.2423644 -54.54 0.0006486595    1.436    0.303
        23  -8.7860    181.5140    192.4626   1.1001011451e+02   6.3250360883e+00    0.1438037    0.1345456  28.50 1.062355e-05    1.035    0.034
        24 -11.1898     82.3411    174.4350   1.2911859635e+02   2.8751340658e+01    0.2451924     0.220802 -72.76 0.0004128964    1.133    0.117
        25 -13.3115     69.8375    171.7889   1.3164436073e+02   3.1225419278e+01    0.5101689    0.2805189 -44.98  0.001439642    2.282    0.562
        26 -12.7541     57.6653    130.6781   1.2801041577e+02   4.2617867298e+01     1.911822    0.6610374 -72.43  0.004819235    6.600    0.848
        27 -12.6288     88.7973    166.0306   1.2623321752e+02   2.9715410423e+01     2.130005    0.6538031  51.13  0.001951036    4.272    0.766
        28 -13.2808     67.7850    144.8643   1.2785925358e+02   3.7916295752e+01     1.243901    0.6927885 -89.24   0.00230728    2.702    0.630
        29 -11.8743     33.1305    156.9050   1.3824425957e+02   3.9210004588e+01    0.4413809    0.2775153  53.70  0.002538297    1.679    0.404
        30 -12.6420     33.8869    151.1404   1.3732771501e+02   4.0474377996e+01    0.5243018    0.2600915 -56.59  0.002677923    1.780    0.438
        31  -9.1714    164.0000    156.9911   1.0653571699e+02   1.7285575821e+01    0.2545683   0.08790696 -46.29 0.0008002457    2.927    0.658
        32  -9.9991    101.0625    149.7032   1.2020633291e+02   3.1540966918e+01    0.3299997    0.2703745 -33.55 0.0007949102    1.455    0.312
        33  -9.6881    103.9329    145.7652   1.1868170748e+02   3.1969788597e+01    0.2965478    0.1880095 -31.79  0.001234486    2.227    0.551
        34 -12.1609     89.9408    149.0199   1.2290990626e+02   3.3585028897e+01    0.2895231    0.2568879 -41.83  0.000469164    1.256    0.204
        35  -9.1158    134.0000    144.9870   1.1094855751e+02   2.6344783615e+01     0.260177   0.08697537 -49.45  0.000805334    2.963    0.662
        36  -9.6739    111.5166    135.5326   1.1453052255e+02   3.2995086006e+01    0.3183006    0.2257736 -13.58  0.001061791    2.311    0.567
        37 -10.7115     99.1133    132.6410   1.1716464372e+02   3.5931829814e+01    0.2841907    0.2314584 -28.57 0.0006348072    1.452    0.311
        38 -12.3596     43.1277    127.9158   1.3148067541e+02   4.4947921190e+01    0.4301593    0.3312383 -89.29  0.001826962    1.327    0.247
        39 -12.3226     31.1986    128.6140   1.3480658742e+02   4.5979145481e+01    0.4451368    0.2689754 -73.33  0.002463393    1.448    0.309
        40 -14.2307     10.0390    206.8295   1.4770944715e+02   3.0437015452e+01     1.185588    0.9521216 -71.64  0.008910819    1.413    0.292
        41  -9.3292    108.0762    122.9379   1.1253866365e+02   3.6572221659e+01    0.2100916    0.2019185 -58.46  0.000301422    1.025    0.025
        42 -11.0317    168.0798    113.0245   9.5106464051e+01   2.5810022929e+01    0.3775352    0.3074855 -85.11 0.0008037552    1.437    0.304
        43 -11.2853     53.3521    110.9288   1.2537272491e+02   4.7733301332e+01     0.340994    0.2359804 -58.37  0.001455658    1.249    0.199
        44  -9.4205    204.5732    110.8425   8.7095496563e+01   1.7629731076e+01    0.3583759    0.1658149  39.69  0.001241692    2.836    0.647
        45 -11.8303     44.0195    109.3735   1.2781110842e+02   4.9128768989e+01    0.3873969    0.2790484  50.31  0.002241786    1.661    0.398
        46 -11.7688      2.3748     79.3627   1.3491186372e+02   5.8906092358e+01    0.6119778   0.08328963 -60.41  0.002276371    3.737    0.732
        47  -8.8535    184.6694     77.6771   8.2349973774e+01   2.8563304010e+01    0.1525415    0.1194752  21.92 0.0007049783    1.699    0.411
        48  -9.5768    156.2450     76.9812   8.7949175633e+01   3.5643493741e+01    0.1980756    0.1287154 -38.98 0.0004433067    1.572    0.364
        49 -10.0756    128.2970     54.6180   8.7708060224e+01   4.5894209876e+01    0.2672297    0.2176456 -76.84  0.001393351    1.583    0.368
        50 -11.2180    119.1198     48.8307   8.8129062335e+01   4.8786759896e+01     0.428753    0.2963142  79.49  0.001272742    2.220    0.550
        51 -10.6953    248.6024    249.1826   1.0738515625e+02  -1.4048063751e+01    0.2862815    0.1508441  26.08  0.001617722    1.724    0.420
        52 -10.3249    162.1100    249.6689   1.2337209852e+02  -2.5466290699e-01    0.2668295   0.09359425  47.18  0.001094925    2.508    0.601
        53 -10.2023    190.9634    250.0000   1.1797345999e+02  -5.1922808438e+00    0.2147342   0.06028278  41.40 0.0008072385    2.976    0.664
