#   1 NUMBER                 Running object number                                     
#   2 MAG_AUTO               Kron-like elliptical aperture magnitude                    [mag]
#   3 X_IMAGE                Object position along x                                    [pixel]
#   4 Y_IMAGE                Object position along y                                    [pixel]
#   5 X_WORLD                Barycenter position along world x axis                     [deg]
#   6 Y_WORLD                Barycenter position along world y axis                     [deg]
#   7 A_WORLD                Profile RMS along major axis (world units)                 [deg]
#   8 B_WORLD                Profile RMS along minor axis (world units)                 [deg]
#   9 THETA_WORLD            Position angle (CCW/world-x)                               [deg]
#  10 FWHM_WORLD             FWHM assuming a gaussian core                              [deg]
#  11 ELONGATION             A_IMAGE/B_IMAGE                                           
#  12 ELLIPTICITY            1 - B_IMAGE/A_IMAGE                                       
         1 -14.1585    208.8142     57.8833   6.5107463800e+01   2.5264231457e+01     5.491981     1.428645 -23.62  0.009014469    4.973    0.799
         2 -14.8000    229.6504     96.9989   7.2772229420e+01   1.4594888976e+01     4.824742     2.760536  -2.73  0.007503243    2.499    0.600
         3 -14.8499    244.3166     94.9472   7.0048245393e+01   1.1693992789e+01     3.739995     1.170544 -33.73   0.01335683    2.726    0.633
         4 -13.4967    212.2558     15.6924   5.1852686506e+01   2.9674083607e+01     1.116196    0.7444114   0.32  0.002449876    1.783    0.439
         5 -14.7116    220.7849     40.5851   5.8322954035e+01   2.4579666756e+01     4.462167     1.855007 -59.23   0.01286457    4.554    0.780
         6 -14.2461    216.4347     25.9094   5.4479897949e+01   2.7463425017e+01     2.419363    0.7242788  51.38  0.007868538    3.449    0.710
         7 -14.7675    224.9517     11.0452   4.9228356214e+01   2.6910477470e+01     1.569613     1.238602 -56.37  0.008593101    1.224    0.183
         8 -15.0441    230.2708     52.3481   6.0518697130e+01   2.0718578939e+01     1.583244     1.049719 -17.92  0.004861913    1.490    0.329
         9 -15.1755    226.3541     31.9314   5.5136174442e+01   2.4247110846e+01      1.55544    0.6474243 -34.14  0.006151983    2.064    0.515
        10 -15.0236    233.9097     23.8853   5.2040733814e+01   2.3304932816e+01     1.874777     1.006557   4.78  0.007160628    2.932    0.659
        11 -14.9283    237.3492      9.5146   4.7723559891e+01   2.3993507603e+01     1.182033    0.6883599 -27.20  0.004363936    1.558    0.358
        12 -16.1616    246.1493     32.9186   5.3328518202e+01   1.9330349097e+01     2.417377     1.572468  13.37   0.01126941    2.058    0.514
        13 -15.0635    246.6156     21.0700   5.0081795935e+01   2.0555807626e+01    0.8341665    0.7352436 -14.25  0.004962096    1.162    0.139
        14 -14.8715    247.3287     11.0899   4.7350749923e+01   2.1441402422e+01    0.8119272    0.6791175 -51.48  0.003824586    1.089    0.082
        15 -14.2278    218.4853     70.6943   6.7367314446e+01   2.1030444462e+01     11.22461          nan -37.68   0.02140055    8.451    0.882
        16 -10.9497    159.9257      3.6099   5.4142971298e+01   4.4801282486e+01    0.3878374    0.3110919 -21.43 0.0005910677    1.249    0.200
        17 -12.9351    119.2546     33.5654   7.4078977005e+01   5.1497726265e+01     2.248759     1.712173 -69.47  0.007413957    1.782    0.439
        18 -14.3489    135.5777     13.1349   6.1956932057e+01   5.0207843693e+01     8.074926     3.753238 -21.23   0.03217501    2.126    0.530
        19  -9.2833    163.8862     19.7317   5.9531749426e+01   4.2081948964e+01    0.3893529    0.2420428 -29.93 0.0009869537    1.550    0.355
        20  -9.1242    166.5983     14.8839   5.7340250543e+01   4.1898052663e+01    0.3690834     0.243173 -27.84  0.001059955    1.476    0.323
        21 -10.2930    178.9396      8.0237   5.3204532806e+01   3.9290477611e+01    0.2260302    0.1994778 -29.40 0.0003544243    1.124    0.110
        22  -9.7545    165.8195      5.4308   5.4001098817e+01   4.3058489405e+01     0.535215    0.2599231 -14.37  0.001890478    2.197    0.545
        23  -8.4784    175.2997      4.0357   5.2269052425e+01   4.0645603852e+01    0.4469548    0.1728782 -13.67   0.00155302    2.931    0.659
        24  -8.5217    184.8053      5.6303   5.1676626273e+01   3.7946723497e+01    0.1513258    0.1346523 -82.46 0.0001522243    1.144    0.126
        25  -7.2125    202.7624      4.6891   4.9435047315e+01   3.3261574620e+01    0.1379871    0.1053464  25.88 0.0003553096    1.497    0.332
        26  -8.9836    194.6493      4.0090   5.0050401388e+01   3.5471132249e+01     0.185792    0.1572151 -27.50 0.0003078957    1.166    0.142
        27  -9.2021    180.5842      1.9566   5.0917242530e+01   3.9416345477e+01    0.2060845    0.1777099  13.30 0.0005545225    1.234    0.190
        28  -9.0592    188.0421      1.3194   4.9872934113e+01   3.7477188218e+01    0.1991471    0.1304619  84.39 0.0009307958    1.601    0.376
        29  -8.0614    210.9356      1.0000   4.7530954504e+01   3.1470071305e+01    0.1911302   0.07870489  74.38 0.0004643622    2.454    0.592
        30  -8.7175    234.6383    153.4941   8.5183317557e+01   5.6858129175e+00    0.3244629    0.2071712 -32.02  0.001763463    1.589    0.371
        31 -11.6981    236.4179    248.1468   1.0089222847e+02  -4.6446079072e+00    0.8956587     0.279579  40.86  0.001466062    2.357    0.576
        32  -9.0193     69.8384    146.5957   1.1713675883e+02   3.6628271372e+01    0.2140189    0.1385554 -76.69 0.0008923439    1.411    0.291
        33 -10.1571    198.0454    136.7699   8.7928860233e+01   1.5302128588e+01    0.2982704    0.2862804 -16.38 0.0008913049    1.101    0.091
        34 -10.3671    196.2248    140.8716   8.9174564450e+01   1.5022775480e+01    0.5445331    0.3631808  -1.22  0.002529812    2.048    0.512
        35  -7.4993     96.7400    137.1405   1.0952824700e+02   3.4731330497e+01    0.1601371    0.1557142  29.66 0.0008559265    1.277    0.217
        36 -10.1296    191.5711    130.5881   8.7739417840e+01   1.7663716595e+01    0.4034186    0.2225749 -49.68  0.001671861    2.204    0.546
        37  -7.2231    184.6392    116.3105   8.5663738797e+01   2.1592908946e+01     0.149419    0.1183234 -79.93 0.0007041299    1.744    0.427
        38  -8.4708    168.0427    114.3270   8.8527803960e+01   2.5617344846e+01    0.2673307    0.2084434 -67.33 0.0009044154    1.582    0.368
        39  -8.8668    183.8650    103.0329   8.2409127501e+01   2.4082842686e+01    0.3240714    0.2341939 -43.71 0.0007656324    1.402    0.287
        40  -8.7255    144.2956    103.7714   9.1041942799e+01   3.2836988068e+01    0.3079181    0.2076659  38.35  0.001409179    1.614    0.380
        41  -9.9137    168.2287     97.6823   8.4136608566e+01   2.8653807351e+01    0.4624594    0.2748415 -25.74 0.0001735836    1.928    0.481
        42  -8.2353    104.0094    101.0121   1.0028553158e+02   4.1414286286e+01    0.2092583    0.1936246 -56.42 0.0003156959    1.059    0.056
        43  -7.7911    180.2935     97.9404   8.1744982078e+01   2.5804323756e+01    0.2119081    0.1839661 -24.24 0.0001990016    1.133    0.117
        44  -8.3432    175.7238     94.2738   8.1651806071e+01   2.7525004348e+01    0.2561059    0.2223326 -59.38 0.0005909369    1.264    0.209
        45  -7.0702     44.2686     95.3520   1.1576033605e+02   5.1242924057e+01    0.1289934   0.08206492 -47.36 0.0002767413    1.627    0.385
        46  -7.4911    162.7438     94.4179   8.4398142036e+01   3.0526363916e+01    0.2082382    0.1444923  40.77 0.0009387684    1.517    0.341
        47  -8.6273    184.0124     93.0507   7.9668883677e+01   2.5783785978e+01    0.2217134    0.2142143 -36.59  0.001199744    1.057    0.054
        48  -9.1177    180.0833     90.0153   7.9586483420e+01   2.7244643610e+01    0.3425533    0.3410053 -67.64  0.001145204    1.067    0.063
        49  -8.5804    171.2613     89.1736   8.1124361994e+01   2.9492766827e+01    0.4604079    0.2411226 -25.66  0.001724411    2.233    0.552
        50  -8.3602    173.0612     84.4515   7.9391646146e+01   2.9904795021e+01    0.2517343    0.2042959 -21.43 0.0003105314    1.254    0.203
        51 -10.0706     44.4423    165.7010   1.2467146451e+02   3.5732676906e+01     0.298101    0.2702363  33.20  0.001599498    1.563    0.360
        52 -11.4976    147.8972     57.2791   7.6142626245e+01   4.0803510700e+01     0.869226    0.8193595 -52.46 0.0005419617    1.098    0.089
        53 -10.7290    154.4377     35.7687   6.7108453207e+01   4.2514342948e+01    0.7530205    0.4886881  53.94  0.001352705    1.548    0.354
        54  -9.9357     50.8838    161.6842   1.2297490733e+02   3.5818569802e+01    0.4424409    0.2385608  73.93  0.002411098    1.843    0.457
        55  -8.5357    210.0508    159.3938   9.0560425469e+01   9.5045602812e+00    0.2242355    0.1855314 -30.39 0.0004218924    1.288    0.224
        56  -8.0834    166.7403     87.1876   8.1492706940e+01   3.0924283507e+01    0.2450439    0.2071643  63.64 0.0002719562    1.285    0.222
        57  -8.7430    155.3508     85.5063   8.3460758615e+01   3.3914845698e+01    0.2721648    0.1420681 -37.06 0.0006574873    1.857    0.461
        58  -9.3691    191.0383     79.9499   7.4611677788e+01   2.6300425567e+01    0.8320319    0.3361811 -32.56  0.002934482    2.344    0.573
        59  -7.1895    188.4290     74.4881   7.3479751222e+01   2.7836082691e+01    0.2643882    0.2298428 -47.51 0.0005132376    1.177    0.150
        60  -7.3792    180.9357     81.4775   7.6959204225e+01   2.8513604060e+01     0.229572     0.155055  55.74 0.0006499601    1.554    0.357
        61  -9.3822    156.3950     80.6350   8.1779885322e+01   3.4578962923e+01    0.2859619    0.2710029 -37.88  0.000574152    1.025    0.024
        62  -7.7714    185.6609     78.0342   7.5044653491e+01   2.7936411584e+01    0.3466751    0.2333933 -69.21  0.001410123    2.179    0.541
        63  -8.2701     62.6880     79.1379   1.0672061312e+02   5.2796337116e+01    0.3069787    0.1944653  10.04  0.001417659    2.737    0.635
        64 -10.2436    103.2772     73.3060   9.2860088886e+01   4.7541651054e+01    0.7048852    0.2926481 -49.68  0.002627158    2.323    0.569
        65  -8.4473    159.4879     73.5569   7.8934569767e+01   3.5126365954e+01    0.3993949    0.2755904 -72.10  0.001198541    2.115    0.527
        66  -9.5582    170.5719     69.5256   7.5375396543e+01   3.3104686725e+01    0.6233413    0.3428678 -58.50  0.001116232    2.702    0.630
        67  -7.9538    194.7816     70.4661   7.1147146703e+01   2.6898798542e+01    0.2052107    0.1561514  65.62  0.000964614    1.457    0.313
        68  -8.4380    162.3438     69.5647   7.7072533019e+01   3.5133769169e+01    0.2761686    0.2319959 -36.67 0.0005735953    1.144    0.126
        69  -8.0221     84.2917     70.3339   9.7556292126e+01   5.1550544086e+01    0.1426523    0.1051192 -24.10 0.0002514653    1.635    0.388
        70  -7.9660    187.9873     65.1270   7.0722226930e+01   2.9445559579e+01    0.5842661    0.3381893  -5.49    0.0021143    2.595    0.615
        71  -9.5266    157.3567     65.6758   7.6881137227e+01   3.7036371020e+01    0.3591344    0.2780977 -54.53 0.0006472738    1.403    0.287
        72  -8.1472    175.4458     62.2964   7.2138125813e+01   3.3076131460e+01    0.5913349    0.3464363  25.37  0.002180034    2.516    0.603
        73  -9.0671    165.2974     62.4939   7.4192061398e+01   3.5605505613e+01    0.4416865    0.2601293 -27.80  0.001813644    1.697    0.411
        74  -7.6307    192.9066     60.7081   6.8507441825e+01   2.8879090635e+01    0.1857344    0.1785017 -47.65  0.000250588    1.067    0.063
        75  -9.2439    160.2923     59.3050   7.4167306120e+01   3.7391365328e+01    0.4820542    0.2826273 -45.74  0.001456852    1.764    0.433
        76  -8.5395    106.8230     87.5094   9.6028879646e+01   4.3846097926e+01    0.2754536    0.1971415 -47.19  0.000751641    1.295    0.228
        77  -8.6333    187.2760     57.3086   6.8409469640e+01   3.0834099433e+01    0.2432285    0.2088297 -38.17 0.0004638251    1.126    0.112
        78  -9.1582    191.1668     55.0990   6.7053631385e+01   3.0164899836e+01    0.3934941    0.2457977  61.02  0.001705841    1.686    0.407
        79 -11.3076    181.7472     55.0643   6.8661382538e+01   3.2597079331e+01    0.5574477    0.2585256 -42.58  0.002051558    2.165    0.538
        80 -10.4435    202.0374     53.0151   6.4667720965e+01   2.7676388177e+01    0.2366449     0.224758  35.44 0.0003428592    1.098    0.089
        81  -9.1652    198.6478     49.2519   6.4025494037e+01   2.9078221934e+01    0.3342043    0.1763785 -22.97  0.001320796    1.904    0.475
        82  -9.5362    172.4650     52.2281   6.9419406697e+01   3.5424364772e+01    0.4964403    0.3789158  86.35  0.001598229    1.614    0.380
        83  -5.3322    174.5870     47.0022   6.7287417272e+01   3.5659156568e+01    0.4628879     0.196825  39.70  0.001496739    3.053    0.672
        84  99.0000    184.1112     44.1126   6.4692996796e+01   3.3584580234e+01    0.4590816    0.2503808 -66.09  0.001355152    3.031    0.670
        85  99.0000    187.8060     49.9784   6.5986657363e+01   3.1783670801e+01    0.5025323    0.1496985 -31.72  0.001250491    2.950    0.661
        86  -9.6976    190.5431     45.5635   6.4124377284e+01   3.1698823971e+01    0.2937546    0.2430953  57.64 0.0008046936    1.251    0.201
        87  -9.7468    193.5276     43.9340   6.3135670011e+01   3.1145121853e+01    0.2368417    0.2272643  12.34 0.0003747497    1.067    0.062
        88  -9.3692    198.3832     43.5630   6.2283623615e+01   2.9930222080e+01    0.2597333    0.1905063  67.64 0.0008159201    1.456    0.313
        89  -7.7695    166.5065     40.4405   6.6503246225e+01   3.8717252053e+01    0.1533152     0.147975  -1.07 0.0001140755    1.024    0.023
        90  -6.6986    195.1955     38.8501   6.1258885873e+01   3.1391839058e+01    0.3591297    0.1447119 -43.64  0.001240946    2.547    0.607
        91  -8.5815    189.0282     37.7444   6.1824947040e+01   3.3159565218e+01    0.2338624    0.1772539 -46.56 0.0005967193    1.329    0.247
        92  -8.2717    170.0082     30.9058   6.2542242248e+01   3.9090474778e+01    0.3145167     0.189144 -25.38  0.001348317    1.617    0.382
        93  -9.8342    185.0182     27.4171   5.8998963528e+01   3.5533906002e+01    0.2504561    0.2048431 -22.45 0.0004403294    1.198    0.165
        94  -8.9684    162.2282     26.8563   6.2413280013e+01   4.1664527614e+01    0.3305199    0.2347009 -34.74 0.0007583972    1.371    0.271
        95  -8.2370    196.9373     26.9801   5.7203518384e+01   3.2421480841e+01    0.1906479    0.1554352 -50.82 0.0002862333    1.231    0.188
        96  -8.2236    175.9242     26.7082   6.0120399777e+01   3.8045140014e+01    0.2161318    0.1816441  52.71 0.0008897098    1.201    0.167
        97  -7.4910    167.1384     24.1256   6.0601110262e+01   4.0699294964e+01    0.2408477    0.1900104 -43.38 0.0006893208    1.285    0.222
        98 -14.9948    244.4562     76.2976   6.5204614959e+01   1.4208956660e+01     1.375695    0.8535028 -27.70  0.006195324    1.424    0.298
        99  -7.8063    222.8621    158.3705   8.8145644079e+01   7.2317226817e+00     0.243666    0.1589212 -45.33 0.0007754873    1.932    0.482
       100  -7.8056    175.0981     22.8787   5.8912183608e+01   3.8724842374e+01    0.2113576    0.1731747 -40.35 0.0004418065    1.211    0.174
       101  -9.2670    180.2509     21.0383   5.7518769593e+01   3.7559688074e+01    0.2147374    0.1848419  14.17 0.0004265207    1.235    0.190
       102  99.0000    185.5217     20.4829   5.6596340351e+01   3.6212647076e+01    0.1525132    0.1385764 -53.46 7.695247e-05    1.107    0.097
       103  -8.2901    174.2612     18.6921   5.7567530150e+01   3.9429179734e+01    0.1881901    0.1577216  26.27 0.0003252084    1.259    0.206
       104  -8.6382    176.0463     12.7403   5.5225293654e+01   3.9592704733e+01    0.2068593     0.180365 -64.79 0.0008122612    1.202    0.168
       105 -15.3253    243.2792     60.2440   6.1068893372e+01   1.6612066504e+01     1.355079     1.091677 -57.08  0.006115853    1.355    0.262
       106  -9.0622    223.1728    153.3522   8.7059846180e+01   7.8534582661e+00    0.3363653    0.2200728  -4.38  0.001185543    1.756    0.431
       107  -9.8774     56.2854    157.1273   1.2136942706e+02   3.6120529682e+01    0.3085423    0.1810687 -79.02  0.001452992    1.523    0.344
       108  -9.8952    179.1294    150.9949   9.4554323372e+01   1.6819098833e+01    0.5990857    0.4567761  80.27  0.003082317    1.879    0.468
       109 -15.4734    246.2115     46.2990   5.6949868334e+01   1.7708947324e+01     1.067299    0.9144874 -20.34  0.005547723    1.089    0.082
       110 -14.4402    234.5555     73.8729   6.5910527213e+01   1.6783810109e+01     1.145562    0.8693626 -42.60  0.005926047    1.305    0.233
       111  -7.3350    147.0169    224.9910   1.1198740476e+02   1.1148370960e+01    0.1312032    0.1049747  48.86            0    1.026    0.025
       112  -6.8545    228.6660    167.3173   8.8959913473e+01   5.0006294985e+00    0.1141858    0.1038768 -83.33 0.0007048013    1.693    0.409
