#   1 NUMBER                 Running object number                                     
#   2 MAG_AUTO               Kron-like elliptical aperture magnitude                    [mag]
#   3 X_IMAGE                Object position along x                                    [pixel]
#   4 Y_IMAGE                Object position along y                                    [pixel]
#   5 X_WORLD                Barycenter position along world x axis                     [deg]
#   6 Y_WORLD                Barycenter position along world y axis                     [deg]
#   7 A_WORLD                Profile RMS along major axis (world units)                 [deg]
#   8 B_WORLD                Profile RMS along minor axis (world units)                 [deg]
#   9 THETA_WORLD            Position angle (CCW/world-x)                               [deg]
#  10 FWHM_WORLD             FWHM assuming a gaussian core                              [deg]
#  11 ELONGATION             A_IMAGE/B_IMAGE                                           
#  12 ELLIPTICITY            1 - B_IMAGE/A_IMAGE                                       
         1 -11.9503    246.1882     35.9210   2.8925231933e+02   5.8629053332e+00   0.07675515   0.04067041 -72.68  0.006359882    2.289    0.563
         2 -14.2376    241.2794     86.0291   2.8961916677e+02   5.3214132919e+00     0.310913    0.1080006 -68.77   0.02059908    3.982    0.749
         3 -12.7900    206.7554     59.8319   2.8985122891e+02   5.8286777479e+00    0.1161619   0.05913458  68.90  0.007728491    4.528    0.779
         4 -13.8359    216.4045     37.5964   2.8960302454e+02   6.0238818244e+00   0.08463548   0.06975996  32.65  0.009021547    1.213    0.176
         5 -11.4492    232.4094     32.1946   2.8938659376e+02   5.9886943043e+00   0.03504702    0.0271672 -39.53  0.002954804    1.334    0.250
         6 -13.1437    133.7630     38.4981   2.9055421641e+02   6.5121823482e+00    0.1026651   0.02969686  36.43  0.007424591    3.156    0.683
         7 -11.2991    187.2676     10.8550   2.8977029229e+02   6.5046350947e+00   0.03802582   0.01846655  56.78  0.001543049    3.169    0.684
         8 -12.9436      9.7843     42.9611   2.9200316288e+02   7.2054650647e+00   0.09148823   0.06894064  24.14   0.01024274    1.352    0.260
         9 -12.5143    177.4286      3.8749   2.8983955820e+02   6.6435698296e+00    0.1149865     0.029258  36.04  0.007918679    3.479    0.713
        10 -12.9443    182.3328     79.7426   2.9025385493e+02   5.7489521517e+00    0.1564502   0.05046339 -69.66   0.00918636    5.111    0.804
        11 -13.1724    172.3159     54.4170   2.9021153717e+02   6.0982653899e+00   0.09376974   0.04214018  40.57  0.008113775    2.240    0.554
        12 -10.8042    178.9201     25.3459   2.8995572254e+02   6.3898899990e+00   0.03124892   0.02770588 -58.27  0.003794565    1.117    0.105
        13 -10.3021    145.2984     22.0928   2.9032042565e+02   6.6297553444e+00   0.01877115   0.01110045 -48.22 0.0005953068    1.681    0.405
        14 -12.0029    107.5594     22.6362   2.9075614418e+02   6.8508011467e+00   0.03444467   0.02021786 -14.30  0.002924913    2.723    0.633
        15 -11.1444    249.1344     18.6722   2.8911158263e+02   6.0415628443e+00   0.06551436   0.02197444 -63.65  0.004757753    3.180    0.686
        16 -11.4583    229.9008     15.0388   2.8930875840e+02   6.1993085662e+00   0.05825846    0.0336935  73.23  0.004796201    2.945    0.660
        17 -11.5814    248.2028      2.4445   2.8902143043e+02   6.2319842220e+00   0.03062787   0.02769916  44.98  0.002372858    1.125    0.111
        18 -13.4281    237.9231     11.2146   2.8919334197e+02   6.1943345220e+00   0.05109501   0.02880184  68.21   0.00417013    2.963    0.662
        19 -11.8573    236.7471      2.1977   2.8915077341e+02   6.3041274500e+00   0.04086256   0.01794966  46.62  0.002253423    2.620    0.618
        20 -11.4906    222.9968     15.4718   2.8939035397e+02   6.2361275999e+00   0.01946842   0.01390524 -88.98  0.001053035    1.733    0.423
        21 -12.5131    217.2691      8.1890   2.8941060846e+02   6.3537160204e+00   0.04679599   0.02555255  85.37  0.002489169    3.659    0.727
        22 -10.6425    115.8159     12.4090   2.9059814014e+02   6.9177274174e+00   0.01552821   0.01188751  28.58  0.001248933    1.310    0.236
        23 -11.7617    120.4355      8.9309   2.9052363794e+02   6.9295680147e+00   0.02661347   0.02369013 -84.14  0.001749509    1.192    0.161
        24 -12.8921    137.7365      9.8518   2.9033112664e+02   6.8148636543e+00    0.1244701   0.04210147  16.83  0.006491066    6.703    0.851
        25 -11.6084    154.5123      1.6901   2.9008835312e+02   6.8067447006e+00   0.04054043   0.01179491  27.37  0.002793581    3.528    0.717
        26 -12.0747    205.0418     18.2747   2.8961303308e+02   6.3127256026e+00   0.08701438   0.03907572  45.90  0.007250691    2.497    0.600
        27 -11.1041      4.3325      2.8477   2.9181782969e+02   7.6956700773e+00   0.03296894   0.02510215   1.02  0.003627934    1.514    0.340
        28 -11.2700    149.7119      2.0572   2.9014560711e+02   6.8315109977e+00   0.02620281   0.01402509  18.94  0.002027267    2.145    0.534
        29 -10.1624     69.6746    145.3366   2.9194840250e+02   5.6775078180e+00   0.01685703   0.01405213  76.46  0.001225116    1.356    0.262
        30 -12.1308    242.5788    248.8404   2.9061098739e+02   3.4557790661e+00   0.08197878   0.02534808  23.01  0.005311701    4.121    0.757
        31 -10.1955     66.3967    144.2102   2.9197898628e+02   5.7100347197e+00   0.02194252   0.01499186 -80.62  0.001535843    1.738    0.425
        32  -9.3532    223.7100    145.9293   2.9019067239e+02   4.7440850560e+00   0.01872154  0.005882379  47.83  0.001103772    4.932    0.797
        33  -8.6009    192.2300    144.2087   2.9053961661e+02   4.9535104677e+00  0.008814915   0.00751313  70.63 0.0003888071    1.299    0.230
        34 -13.0709      8.2365    218.5313   2.9310149657e+02   5.2086498476e+00   0.04683562     0.044614 -61.55  0.004101986    1.045    0.043
        35  -9.2599    133.6916    137.4946   2.9116741194e+02   5.3826110271e+00   0.01820183  0.009979442 -44.71  0.000777716    1.892    0.471
        36  -8.6007    157.3474    132.3068   2.9086479717e+02   5.2995115614e+00  0.007010513  0.004939089 -24.41 0.0001757338    1.701    0.412
        37  -9.0983    160.2983    127.9350   2.9080403193e+02   5.3316657957e+00   0.00972157  0.008556376 -60.21 0.0007659519    1.128    0.114
        38  -8.1754    222.6438    127.3081   2.9008763935e+02   4.9630274523e+00  0.007051286  0.004901955  60.94 0.0007042207    1.726    0.421
        39  -8.9571    136.4800    126.9584   2.9107043190e+02   5.4861720039e+00  0.009446716  0.005757373  84.19 0.0008097404    2.545    0.607
        40 -11.8509    202.3156    124.0206   2.9029951845e+02   5.1231612025e+00   0.03889375   0.02254895   0.56   0.00333573    2.636    0.621
        41 -13.8460    202.9005    112.9113   2.9022408825e+02   5.2464213622e+00    0.1416227   0.07367377  33.68   0.01330539    1.873    0.466
        42  -8.4807     47.7998    223.1027   2.9267710628e+02   4.9197431031e+00  0.009156778  0.007344407 -34.02 0.0004520388    1.316    0.240
        43  -8.5861    139.3098    120.6527   2.9099909387e+02   5.5411562702e+00  0.006967895  0.004990847  66.18 0.0007044881    1.708    0.414
        44 -11.5605    217.8886    118.1680   2.9008538323e+02   5.0960177398e+00   0.03875117   0.01411583  41.77  0.002980294    2.842    0.648
        45 -10.2191    134.6464    108.6615   2.9097833667e+02   5.7061399463e+00   0.03821721   0.00571205 -61.10  0.001963366    6.181    0.838
        46 -10.0517      5.1935    108.8066   2.9246193162e+02   6.4810096228e+00  0.009520762  0.007680375 -27.87 0.0007229398    1.343    0.256
        47 -10.8930    167.6146    113.5114   2.9063117946e+02   5.4522758506e+00   0.01641126   0.01549133  79.91 0.0006733437    1.108    0.097
        48 -11.1563    180.9436     64.8671   2.9017759326e+02   5.9270322778e+00   0.02850839   0.01634882  58.68   0.00194623    2.343    0.573
        49  -8.9911    142.4285    100.8180   2.9084078817e+02   5.7488558511e+00  0.009704472  0.005700591 -48.31 0.0009394818    1.690    0.408
        50  -9.8947    170.3035     96.9519   2.9049797577e+02   5.6250936568e+00    0.0180722   0.01067602  57.67  0.001288417    2.177    0.541
        51 -11.4840    247.0213    212.8056   2.9033794544e+02   3.8402700678e+00   0.03304553    0.0233664  13.94  0.003514529    1.567    0.362
        52  -9.5079    148.2174     95.3697   2.9074084798e+02   5.7762001990e+00   0.01441652   0.01034423 -17.48 0.0007854853    1.710    0.415
        53  -9.2536    134.6554     93.0972   2.9088199434e+02   5.8837836951e+00   0.01127725  0.008685799  46.49  0.001019941    1.348    0.258
        54  -9.1865    219.9198     91.6350   2.8989787517e+02   5.3864749354e+00   0.01327876   0.00718989  42.56  0.000632277    1.902    0.474
        55  -9.6500    213.8729     88.3095   2.8994636519e+02   5.4609141585e+00   0.01170008  0.009395465 -80.08  0.001322636    1.362    0.266
        56 -11.9807    175.2072     72.1854   2.9028854745e+02   5.8781429585e+00   0.03699287   0.03126053 -43.96  0.001825481    1.185    0.156
        57 -11.0308    159.0858     86.2425   2.9056001558e+02   5.8149131227e+00   0.02816373    0.0178717 -29.05  0.002355606    1.949    0.487
        58 -10.1381    142.2449     83.9347   2.9073844653e+02   5.9426852175e+00   0.01444578   0.01284124 -81.87 0.0008187872    1.187    0.157
        59  -8.4292    203.0165     80.5014   2.9002206832e+02   5.6155106400e+00   0.00962257  0.006334798  32.51 0.0006836978    1.504    0.335
        60 -11.5010    156.9216     74.5006   2.9051208940e+02   5.9619485668e+00   0.01710005   0.01181766 -50.45  0.000590025    1.422    0.297
        61 -10.0533    220.7377     73.2748   2.8977475796e+02   5.5909449789e+00    0.0168415   0.01511476 -24.43  0.001050928    1.161    0.139
        62  -9.5191    249.9718     66.9965   2.8940191352e+02   5.4858785582e+00   0.01402991  0.009060677 -61.05  0.001442644    1.536    0.349
        63  -8.3967    203.3210     68.2905   2.8994292281e+02   5.7529511719e+00  0.006803046  0.004962489 -24.44 0.0003660866    1.605    0.377
        64  -9.0851     90.9306     64.8067   2.9120774830e+02   6.4696526482e+00   0.01803213   0.01033386  86.17  0.001456364    3.001    0.667
        65 -10.3997    144.7287     59.7926   2.9056056579e+02   6.2032229829e+00   0.01890611   0.01265747  76.37 0.0009468675    2.048    0.512
        66  -8.1635     72.7097     58.3329   2.9137652694e+02   6.6529659725e+00  0.006792768  0.005015905  67.15 0.0005036818    1.630    0.386
        67  -8.8178    135.7713     60.1900   2.9066557565e+02   6.2526339121e+00   0.01168932  0.006549146  64.78  0.000954088    2.807    0.644
        68  -8.1433    113.6924     55.2988   2.9088814872e+02   6.4413222263e+00  0.006751517  0.004979429  62.98 0.0002019339    1.594    0.373
        69 -14.0103     38.7607    192.5625   2.9259287706e+02   5.3229694140e+00   0.08525378   0.05582142  -5.90  0.007325777    2.070    0.517
        70  -9.5037    194.5135    198.0046   2.9084581941e+02   4.3255060209e+00   0.01315546  0.006724756 -74.08  0.001099729    2.505    0.601
        71 -12.1358    224.8697     28.4207   2.8944933050e+02   6.0772805299e+00   0.02737422   0.01898656 -13.40  0.001561245    1.852    0.460
        72 -10.4207     41.5889     41.1986   2.9162741916e+02   7.0351672342e+00   0.01358485   0.01022317  57.80  0.001233496    1.494    0.331
        73 -10.3469    190.4226    190.0412   2.9084338685e+02   4.4410720710e+00   0.02347651   0.01344213 -87.67   0.00197034    2.739    0.635
        74 -11.6098    103.1912     35.2188   2.9088414397e+02   6.7335682177e+00   0.02587152   0.01873099 -67.78  0.002817111    1.430    0.301
        75 -11.5127     24.0965     43.6659   2.9184331874e+02   7.1117823550e+00   0.02290519   0.01497318  12.78   0.00230857    1.766    0.434
        76  -8.7105    181.2646     34.4254   2.8998521321e+02   6.2722403785e+00  0.008999463  0.006041388  38.78 0.0004703797    1.490    0.329
        77 -10.0240    217.2970    190.9939   2.9054241360e+02   4.2683365915e+00   0.01493819  0.007038193  51.24  0.001196211    2.739    0.635
        78 -10.0769    199.2533     30.5035   2.8975511650e+02   6.2083384870e+00   0.01642135   0.01166091  78.89 0.0009516619    1.818    0.450
        79 -10.4083    183.7917    124.2475   2.9051262480e+02   5.2322415728e+00   0.02154106   0.01511824  62.19  0.002232788    1.717    0.418
        80 -11.5023    246.6910    174.2930   2.9010375858e+02   4.2817817257e+00    0.0398379   0.02419305  20.98  0.003936432    1.770    0.435
        81 -11.0689    234.9511    174.5188   2.9023912057e+02   4.3499973703e+00   0.01967472   0.01644041  16.93  0.001581675    1.242    0.195
        82  -9.8160    200.2990    174.2286   2.9063294788e+02   4.5621492823e+00   0.01828391  0.007943961 -42.24  0.001460878    2.652    0.623
        83 -10.5909     65.4609    171.4572   2.9215753242e+02   5.4042684211e+00   0.02371152    0.0131315  18.63   0.00218939    2.054    0.513
        84  -9.9179    216.4422    168.9559   2.9041602308e+02   4.5250720028e+00   0.01874914   0.01084243  51.31 0.0007956705    2.011    0.503
        85  -9.1159    211.9149    166.4373   2.9045215357e+02   4.5811096529e+00   0.01523547  0.007694366  46.03  0.001246182    2.171    0.539
        86 -13.3341     51.2227    181.5784   2.9238274615e+02   5.3739042718e+00   0.05556614   0.04897818  36.99  0.003252509    1.141    0.124
        87 -10.8745    173.2960    161.3286   2.9086177138e+02   4.8720777146e+00   0.02402036  0.006426142  26.46  0.001544124    4.025    0.752
        88 -10.3878    159.8679    159.1953   2.9100208015e+02   4.9772722599e+00    0.0136711   0.01091034  18.87 0.0007905408    1.301    0.231
        89  -9.8752    248.7459    158.8183   2.8998461937e+02   4.4459738420e+00   0.01345583  0.007737501  52.72  0.001238947    2.078    0.519
        90 -10.9697    191.7292     56.9709   2.9000530123e+02   5.9520139662e+00   0.01699444   0.01411551 -34.11 0.0008911525    1.257    0.204
        91  -8.7480    131.0691    121.6557   2.9109957718e+02   5.5792792960e+00   0.00900677  0.008189301  24.59 0.0002021117    1.108    0.098
        92  -8.8038    157.6232     19.8007   2.9016508776e+02   6.5815815733e+00  0.009359942  0.006323993 -77.07  0.000762827    1.708    0.415
        93  -7.9510    160.3265     17.6706   2.9012092600e+02   6.5895580694e+00  0.006981674  0.004963752  63.94 0.0007050729    1.705    0.413
        94  -9.3317     70.0488    244.0461   2.9255136503e+02   4.5470961846e+00  0.009853422  0.009237134 -29.95            0    1.080    0.074
        95 -14.0060    243.9448    114.0599   2.8976239736e+02   4.9856089308e+00    0.2291851   0.03503554 -58.75  0.001260593    5.118    0.805
        96  -9.1630     95.3043    239.6456   2.9223571073e+02   4.4459913295e+00  0.006966026  0.004990606  66.90 0.0007040455    1.712    0.416
        97 -12.0757    247.6487    230.5794   2.9044051401e+02   3.6336476747e+00   0.05744812   0.02645107  17.24  0.004584915    2.820    0.645
        98 -12.0144    197.4154     52.6654   2.8991358512e+02   5.9667883358e+00   0.03678333   0.02779373 -39.10   0.00153587    1.378    0.275
        99 -11.9637    247.5117    224.7004   2.9040579012e+02   3.7015653994e+00   0.04611303   0.02824101   5.39  0.004297843    2.174    0.540
