#   1 NUMBER                 Running object number                                     
#   2 MAG_AUTO               Kron-like elliptical aperture magnitude                    [mag]
#   3 X_IMAGE                Object position along x                                    [pixel]
#   4 Y_IMAGE                Object position along y                                    [pixel]
#   5 X_WORLD                Barycenter position along world x axis                     [deg]
#   6 Y_WORLD                Barycenter position along world y axis                     [deg]
#   7 A_WORLD                Profile RMS along major axis (world units)                 [deg]
#   8 B_WORLD                Profile RMS along minor axis (world units)                 [deg]
#   9 THETA_WORLD            Position angle (CCW/world-x)                               [deg]
#  10 FWHM_WORLD             FWHM assuming a gaussian core                              [deg]
#  11 ELONGATION             A_IMAGE/B_IMAGE                                           
#  12 ELLIPTICITY            1 - B_IMAGE/A_IMAGE                                       
         1 -14.4964    116.2774     53.8659   4.9679181852e+01   4.8827781292e+01     3.426196     2.596161  45.48   0.01342782    1.327    0.246
         2 -12.4742    188.6563     43.9769   3.2914976187e+01   3.2253121256e+01     1.074943    0.8342113  30.66  0.004061016    1.571    0.363
         3 -12.5628    212.7025     17.1979   2.3236054543e+01   2.9778587804e+01    0.8218754    0.4122017  61.35  0.004108433    2.170    0.539
         4 -12.7610    210.9356     10.7115   2.1655484766e+01   3.0803778490e+01    0.8694565    0.5090569  68.92   0.00472542    1.817    0.450
         5 -12.7138    243.5994      5.8762   1.8699532365e+01   2.4466854582e+01     1.152787    0.6457983 -72.66  0.006808737    1.816    0.449
         6  -8.5425     83.4192    240.3720   9.4216246904e+01   1.6715973210e+01    0.1124694    0.0824657  34.17 0.0001378594    1.038    0.036
         7 -12.3292    244.2098    247.4662   6.5834354430e+01  -2.5025250919e+00    0.9685178    0.3739506  23.02  0.006097567    2.097    0.523
         8 -10.2827    190.0215    249.1961   7.4696313175e+01   3.0070157680e+00    0.1572311     0.122594   6.22 0.0002663582    1.193    0.162
         9 -10.9294    110.0315    245.9554   8.9276558106e+01   1.2794638939e+01    0.4764411    0.1908708  43.49  0.002316837    2.159    0.537
        10 -13.2925    138.1389    243.1915   8.3482311587e+01   9.8109886862e+00     1.560229    0.6196767  25.39  0.007929816    2.216    0.549
        11 -12.5046    121.7976    245.5478   8.6909740322e+01   1.1456776343e+01    0.9364567    0.4891088  34.95   0.00584417    1.413    0.292
        12  -9.9996    103.7455    249.0965   9.0796882326e+01   1.3081823290e+01    0.3645589    0.1707445  41.68  0.001797792    1.691    0.409
        13  -9.3742     67.3577    250.5570   9.8162289893e+01   1.6914217050e+01    0.1238111    0.0816134  29.75 0.0002225871    1.212    0.175
        14 -18.3523     23.0926    236.7548   1.0649403459e+02   2.3501494880e+01     3.674131     2.218403  23.82   0.02158054    1.572    0.364
        15 -16.2267     76.9688    153.9811   8.6929573141e+01   3.4132826974e+01     8.872689     4.455336  60.85   0.03522022    2.672    0.626
        16 -10.1358     89.0424    211.4612   9.0530314976e+01   2.0847608629e+01    0.1903227    0.1750773  77.54  0.000303619    1.268    0.211
        17 -10.5728    133.3977    248.8198   8.4976868088e+01   9.6382090658e+00    0.4414547    0.2507708  30.01  0.002618829    1.278    0.218
        18  -9.5780     17.7393    210.2982   1.0677314418e+02   2.8725891064e+01    0.1848662    0.1209403  37.43 0.0006513784    1.222    0.182
        19 -13.8802     11.7672    206.7957   1.0800874686e+02   2.9901571365e+01    0.4494058    0.2886387  18.20  0.002888955    1.684    0.406
        20  -8.6125     56.5590    209.8084   9.7858048928e+01   2.4994107705e+01    0.1131781   0.08050743  10.64            0    1.685    0.406
        21 -10.3304     43.2601    206.6067   1.0074469797e+02   2.7020313083e+01    0.1893946     0.168401 -63.97 0.0008477391    1.411    0.291
        22 -10.4543     65.0134    204.5687   9.5485699930e+01   2.5028866463e+01    0.1833912     0.159008  65.73 0.0007902051    1.177    0.150
        23 -10.1967     55.9343    201.3354   9.7394130116e+01   2.6686225011e+01    0.2773521    0.2025324 -31.35  0.001137835    1.963    0.491
        24 -10.3374    167.0558    227.0440   7.6034523725e+01   8.3419413099e+00    0.1743194    0.1342211  17.93 0.0004628722    1.036    0.035
        25  -9.7557    192.5097    194.9841   6.6620877781e+01   9.1905978811e+00    0.2099919     0.150177 -69.58 0.0009759504    4.296    0.767
        26  -9.7709     70.4245    197.8721   9.3618930147e+01   2.5677637709e+01    0.3264019    0.2119015 -73.14  0.001907357    1.799    0.444
        27  -8.9045     44.6131    199.5160   9.9986773321e+01   2.8267038121e+01    0.1580438   0.08945356  41.84 0.0008975959    1.382    0.276
        28 -11.6962     60.6926    192.6284   9.5543361004e+01   2.7873708238e+01    0.3826776    0.3269169 -29.86  0.001269274    1.522    0.343
        29  -9.5777    158.1044    193.8485   7.3117891592e+01   1.4248164809e+01    0.1792889    0.1567946  35.36 0.0005529278    1.257    0.204
        30  -9.3935     57.5530    225.5441   9.8678900285e+01   2.2038308591e+01     0.205915    0.1417463  50.87 0.0006529244    1.210    0.174
        31 -11.9710    148.8396    192.1914   7.4803552677e+01   1.5867508821e+01    0.4411073    0.2466185 -58.16  0.002165963    2.731    0.634
        32 -11.6084    146.4987    186.5147   7.4434876937e+01   1.7143264757e+01     0.310615    0.1945635  32.29  0.001301687    1.370    0.270
        33  -9.4102     27.9064    185.6301   1.0329113819e+02   3.2768163225e+01    0.1714102    0.1093073  38.81 0.0004743107    1.292    0.226
        34 -12.0720    240.7393    176.8652   5.5566235801e+01   5.0146365230e+00    0.2818434    0.2157508   6.53  0.002079561    1.105    0.095
        35 -11.9117    146.9893    173.7619   7.2258666424e+01   1.9228824233e+01    0.5026773    0.3452597 -74.74  0.002192774    2.765    0.638
        36  -9.7129    185.7882    174.2916   6.4369544648e+01   1.3056460117e+01    0.2652297    0.2096814  24.07 0.0009335211    1.144    0.126
        37 -10.8781    230.5830    168.3513   5.5593889281e+01   7.3569553112e+00    0.2895522    0.1239064 -37.70    0.0014745    2.399    0.583
        38 -10.2598    159.5913    165.7855   6.8115310156e+01   1.8551842683e+01    0.2404979    0.2037431  18.32 0.0003045125    1.039    0.037
        39  -8.8244     17.6730    164.9072   1.0491587559e+02   3.8213498780e+01    0.1719038    0.1393365  69.94 0.0004798204    1.082    0.076
        40 -10.9362     27.4682    152.3226   1.0134564652e+02   4.0293300435e+01    0.9180013    0.3071865  11.04  0.002744028    5.783    0.827
        41 -11.8593     28.5180    156.5062   1.0133657675e+02   3.9209743377e+01    0.8081888    0.2832094  32.83  0.003492889    2.326    0.570
        42 -10.4357     24.0077    156.4830   1.0264442230e+02   3.9619856878e+01    0.3496573    0.2463277  22.08  0.001110643    1.488    0.328
        43  -9.7617     10.5131    155.4338   1.0647672957e+02   4.0950909625e+01    0.2310905    0.1979763  22.27 0.0007232087    1.301    0.231
        44 -12.1786    133.8271    147.1690   7.0491409081e+01   2.6366081790e+01      1.14735    0.3323019 -54.20  0.003205039    5.388    0.814
        45 -12.7473      2.7188     83.2155   1.0493149869e+02   5.9517818601e+01      2.10542    0.3683288 -75.71  0.006445251    4.231    0.764
        46 -13.6624      4.3654    108.8192   1.0606246702e+02   5.2808980724e+01     2.268687     1.045347  64.51   0.01030099    2.110    0.526
        47 -11.9794      6.6887    141.7394   1.0699547570e+02   4.4462864843e+01     1.106214    0.5426641  60.44  0.005535542    1.807    0.447
        48 -13.3905      4.3723    124.6452   1.0693082450e+02   4.8802768176e+01     1.396805     1.177372  36.39  0.008932342    1.220    0.181
        49 -11.2881    103.0315    124.4255   7.4093463834e+01   3.6744339770e+01    0.3522461    0.2856614   7.91  0.001017721    1.472    0.321
        50 -11.7010     22.6407    143.8186   1.0219991788e+02   4.2759708733e+01     0.401837    0.2625211 -58.18  0.001776744    1.657    0.397
        51  -8.8162    169.3997    119.7335   5.6453728297e+01   2.4748199942e+01    0.1990824    0.1298532 -26.31 0.0009087968    1.613    0.380
        52 -10.2039    110.6311    118.1848   7.0499184091e+01   3.6739554803e+01    0.2490629    0.1965441  50.35  0.000476025    1.268    0.211
        53 -13.1133    244.6872    103.1125   4.0629689905e+01   1.3413597312e+01     1.682848    0.8052681 -23.07  0.008525174    1.918    0.479
        54 -12.1127     26.5202    108.7694   9.7661403772e+01   5.1294419716e+01    0.5802621    0.2671614  45.02   0.00251766    2.103    0.524
        55 -11.5610     31.7690    107.6812   9.5513130036e+01   5.1105766746e+01    0.3690677    0.2857877  30.85  0.001073843    1.326    0.246
        56 -10.4342     73.9100    106.6104   7.9607489163e+01   4.5990176740e+01    0.2582115    0.2398075 -71.02 0.0002225292    1.075    0.070
        57 -11.9908    144.4883    230.2049   8.0786698244e+01   1.0780687369e+01    0.3308222    0.1980421  39.95  0.001923964    1.516    0.341
        58 -11.1905    115.3460    128.7066   7.1506781586e+01   3.3543760196e+01    0.2826699    0.2513656   8.13 0.0007170478    1.210    0.174
        59 -10.3265     37.4791    212.5765   1.0240590689e+02   2.6465999022e+01    0.1918778    0.1365418  77.92 0.0009713285    1.426    0.299
        60 -10.6764    118.9775    111.5173   6.6547716999e+01   3.6566959013e+01     0.392874    0.2652854  68.32  0.001655333    2.079    0.519
        61  -9.0032    156.2638    248.0399   8.0580947100e+01   7.0290594327e+00    0.1409504    0.1102129  17.75 0.0001828576    1.107    0.097
        62 -11.0178    173.3155     57.7143   3.9092266568e+01   3.4036736753e+01    0.3530502    0.3415079 -44.47 0.0007621848    1.027    0.027
        63  -8.9706     76.0000    244.9139   9.6061031645e+01   1.6843697925e+01    0.1268212   0.06403098 -69.53 0.0007503896    2.629    0.620
        64 -11.4992    193.8579     38.0897   3.0630182337e+01   3.1763028115e+01    0.4721568    0.4209149  26.61   0.00115869    1.317    0.241
        65 -10.2188    158.0023    243.6982   7.9767442290e+01   7.3538436621e+00    0.1555905     0.106448  23.71 0.0004943901    1.066    0.062
        66 -11.1337     71.3046    241.6797   9.6806219207e+01   1.7863835126e+01    0.1701889    0.1503916  41.81 0.0004197948    1.199    0.166
