#   1 NUMBER                 Running object number                                     
#   2 MAG_AUTO               Kron-like elliptical aperture magnitude                    [mag]
#   3 X_IMAGE                Object position along x                                    [pixel]
#   4 Y_IMAGE                Object position along y                                    [pixel]
#   5 X_WORLD                Barycenter position along world x axis                     [deg]
#   6 Y_WORLD                Barycenter position along world y axis                     [deg]
#   7 A_WORLD                Profile RMS along major axis (world units)                 [deg]
#   8 B_WORLD                Profile RMS along minor axis (world units)                 [deg]
#   9 THETA_WORLD            Position angle (CCW/world-x)                               [deg]
#  10 FWHM_WORLD             FWHM assuming a gaussian core                              [deg]
#  11 ELONGATION             A_IMAGE/B_IMAGE                                           
#  12 ELLIPTICITY            1 - B_IMAGE/A_IMAGE                                       
         1  -8.9859    197.1449     25.7619   4.6094585842e+01   3.2943291124e+01    0.2159503    0.1729604 -74.36 0.0006030897    1.224    0.183
         2  -9.5854     29.0048     18.2891   8.8886601669e+01   6.9205029502e+01      0.28034    0.1564405 -35.38  0.001239376    1.471    0.320
         3 -10.4594    163.5734     22.1061   4.9792441014e+01   4.1887078286e+01    0.4630861    0.2912332  42.51   0.00152555    1.679    0.405
         4 -10.4521    111.3274     18.8508   5.9097628727e+01   5.4995933556e+01    0.4017536    0.3434955  13.74   0.00164743    1.130    0.115
         5 -10.0394     86.8935     17.2145   6.5200096878e+01   6.0398996846e+01     0.358382    0.2384278 -32.47  0.001205607    1.571    0.364
         6 -10.5246    149.9038     18.0032   5.0733001867e+01   4.5801203039e+01    0.3136669    0.2816263 -24.37 0.0005281401    1.196    0.164
         7  -9.9998    155.0066     16.6042   4.9404245859e+01   4.4665800614e+01     0.368036    0.2245986 -11.83  0.001108717    1.995    0.499
         8  -9.7574     34.5611     14.0721   8.4218103586e+01   6.9237690893e+01    0.2879698    0.1755507 -25.61  0.001091363    1.387    0.279
         9 -10.3626     22.1266     15.7212   9.1161844894e+01   7.0301607907e+01    0.5536997    0.4134417 -24.85  0.003869884    1.033    0.032
        10 -10.0279     17.0174      4.1118   8.8248262403e+01   7.2569801148e+01    0.3226196    0.2546424   1.70  0.001549032    1.226    0.185
        11 -10.8976      9.2221     13.2716   9.6896068203e+01   7.1774050821e+01    0.4783193    0.3116162 -53.49  0.002193509    1.669    0.401
        12 -10.8042     11.2295      6.1237   9.2487697621e+01   7.2775231871e+01    0.3607742    0.2781771 -48.34  0.001870542    1.619    0.382
        13 -10.9088     19.2173     10.8021   9.0383755992e+01   7.1353691952e+01    0.4103117    0.2091519  10.87 0.0003295548    2.256    0.557
        14 -10.4903     15.9715      8.2534   9.0898708841e+01   7.2042885514e+01     0.213562    0.1531792  -5.83 0.0003772161    1.222    0.182
        15 -10.4198     57.8421     13.6895   7.3805416763e+01   6.6055671195e+01    0.3988983    0.3442328  41.22  0.002262998    1.456    0.313
        16 -10.3832    180.9303     13.5032   4.4674272195e+01   3.8419038073e+01    0.3916176    0.3175376 -88.18  0.001211148    1.186    0.157
        17 -10.9848    185.1197     11.1544   4.3474219206e+01   3.7607069732e+01    0.5010671    0.3703885  39.56  0.001143927    1.548    0.354
        18  -9.7547    120.2323     13.0633   5.4744924753e+01   5.3560393403e+01    0.4076203    0.2140342 -37.15  0.001613646    2.083    0.520
        19  -9.7850    123.4583     11.5040   5.3456357138e+01   5.2953950934e+01    0.3016576    0.2250452  42.95 0.0008637618    1.220    0.181
        20  -9.8856    209.9763      9.1746   4.0239483745e+01   3.1661196605e+01    0.3788928    0.2653467 -45.71  0.001415599    1.358    0.264
        21  -9.0396    215.6878      8.3035   3.9477376389e+01   3.0379009680e+01    0.2629808    0.1876485  46.90  0.001461967    1.665    0.399
        22  -8.8749    213.0278      5.7947   3.9093987032e+01   3.1279542756e+01    0.2200176    0.1498555 -64.53  0.001217896    1.381    0.276
        23 -10.6221    102.3034     14.9472   5.9817474209e+01   5.7434516018e+01    0.4833539    0.3074743 -21.04  0.002523078    1.614    0.381
        24  -9.1029     93.3031     10.4450   6.0340424861e+01   5.9838266369e+01     0.225391    0.1949973 -36.55  0.001056861    1.364    0.267
        25  -9.2440     47.1206      9.3204   7.6107558452e+01   6.8245863615e+01    0.7310381    0.2004665  35.00  0.002748219    4.023    0.751
        26  -9.2962     41.3159      8.7893   7.8425372422e+01   6.9126140834e+01    0.3170711    0.2875879  83.59 0.0008250101    2.159    0.537
        27  -9.4224     38.0309      4.5768   7.7754204344e+01   7.0113511311e+01    0.1745833      0.13872  37.84 0.0003525238    1.622    0.384
        28  -9.1788    237.8060      8.8499   3.7714660908e+01   2.5177164016e+01    0.1890142    0.1231312 -59.65 0.0006113385    1.354    0.262
        29  -9.2412     73.7508      8.9009   6.5646414822e+01   6.3878228375e+01    0.2288503    0.1666523  41.37  0.001369252    1.319    0.242
        30  -8.1457      4.6994      9.7423   9.7862454786e+01   7.2674246133e+01    0.1114968   0.06207905 -25.09 0.0006903553    1.507    0.337
        31  -9.2036     78.6939      6.8519   6.3062410497e+01   6.3157338773e+01    0.3030387     0.181159  12.74  0.001554795    1.843    0.457
        32 -10.2393      7.1684      3.2389   9.3394207902e+01   7.3540512285e+01    0.2143502    0.1892535 -20.26 0.0009732419    1.389    0.280
        33  -8.6862    128.8873     11.0742   5.2187993685e+01   5.1696284458e+01    0.1973264    0.1772937 -67.32  0.000492276    1.281    0.219
        34  -9.2629    127.7239      5.3786   5.0298445825e+01   5.2506273680e+01    0.3001843    0.1589357  51.66 0.0007005064    1.634    0.388
        35  -8.9059    107.9840      6.0443   5.4718328515e+01   5.7061006331e+01    0.2598085    0.1778981 -31.67  0.001421332    1.599    0.374
        36  -9.3346    103.7652      1.8181   5.3948639530e+01   5.8379987676e+01    0.3583086    0.1908463  77.84 0.0008308263    2.861    0.651
        37  -9.6639     90.5378      3.6169   5.8083156024e+01   6.1082850330e+01    0.3943808    0.2644506  67.25  0.002132893    1.799    0.444
        38  -8.5189     26.2915      4.6934   8.3601883072e+01   7.1532554312e+01    0.1632524    0.1301759 -43.83 0.0004608033    1.733    0.423
        39  -9.2414     22.2318      3.1190   8.4899478177e+01   7.2190986992e+01    0.2394514    0.1588543  32.66  0.001516446    1.808    0.447
        40  -8.4162    199.8393      4.5765   4.0042599119e+01   3.4608512139e+01    0.1810001    0.1143695 -89.43 0.0003413909    1.541    0.351
        41  -9.0955     30.7343      3.1011   8.0497597534e+01   7.1230621888e+01    0.2519765    0.1301553 -33.46 0.0009719683    1.723    0.420
        42  -8.7888    231.1838      2.8326   3.6847502199e+01   2.7328404240e+01    0.1963036    0.1446718 -65.27 0.0004599836    1.175    0.149
        43  -9.6635    190.1886      2.2132   4.0394530518e+01   3.7223701851e+01      0.37244    0.1897157 -77.67    0.0016101    2.362    0.577
        44  -9.4979     51.0885      2.6719   7.0985981919e+01   6.8450910337e+01    0.4411624    0.1523723  35.45  0.001912243    2.911    0.656
        45  -9.0998    137.7885      1.5586   4.7124713851e+01   5.0385879095e+01    0.2234341    0.1495297  75.92  0.000612693    1.494    0.331
        46  -8.3056     42.4349      1.9995   7.4353441879e+01   6.9822889489e+01    0.1661047    0.0992736 -24.49 0.0006449362    1.494    0.331
        47  -9.3952    242.3302      1.4557   3.5710937583e+01   2.4965201525e+01    0.2215879    0.1100619  78.13 0.0004864943    1.922    0.480
        48  -9.7941      2.1977    113.3723   1.2232509726e+02   5.0877354935e+01    0.3385775    0.2048877  86.39   0.00196694    1.527    0.345
        49  -9.5110     16.3404    104.4133   1.1711727167e+02   5.2088517889e+01    0.2108201    0.1780396 -26.30  0.001095027    1.437    0.304
        50  -9.7259     21.3997    109.8495   1.1639566805e+02   5.0432092721e+01    0.3334148    0.2167499  39.05   0.00196854    1.798    0.444
        51  -9.8525     14.2188    109.3870   1.1843472268e+02   5.1059859856e+01    0.3115069    0.1943467  74.23  0.001759286    1.785    0.440
        52  -9.7115     17.3602    108.1865   1.1734991997e+02   5.1124730282e+01    0.5787284    0.1422635 -69.99  0.002117173    3.234    0.691
        53  -9.1926     49.9045    111.8264   1.0820334049e+02   4.7292857098e+01    0.2002433    0.1629357 -52.74 0.0004402861    1.144    0.126
        54  -9.3420    127.9096    109.7399   8.5044599529e+01   3.5108695880e+01    0.3120534    0.2124784 -30.87 0.0009381864    1.669    0.401
        55  -8.9234     90.6969    111.2369   9.5864327959e+01   4.1777198630e+01    0.2349897    0.1995599  62.66  0.001241546    1.301    0.231
        56  -7.9782     82.3165    109.6821   9.7978077515e+01   4.3494234939e+01    0.1469028    0.1115913  82.64 0.0002821112    1.654    0.395
        57  -9.9924     71.8806    107.5100   1.0063239910e+02   4.5562472161e+01    0.2939772    0.2208244 -45.20 0.0003704538    1.269    0.212
        58  -8.8730     34.9893    107.4495   1.1194153884e+02   4.9865292584e+01    0.2553966    0.1422823 -52.97 0.0008757205    1.544    0.352
        59  -9.6995      7.5624    107.8118   1.2016321477e+02   5.1858964992e+01    0.2779436    0.2051446  23.15 0.0008068641    1.743    0.426
        60 -10.2314      9.0744    102.4825   1.1903025470e+02   5.3014300930e+01    0.4229427    0.2689734 -79.56  0.002240324    1.320    0.243
        61  -8.7655    122.8822    105.5848   8.5288300810e+01   3.7081597059e+01    0.4716066    0.1520766 -41.93  0.001412092    3.215    0.689
        62  -8.4685    119.1378    107.3488   8.6781333215e+01   3.7445791464e+01    0.2107962    0.1426934  54.10 0.0004247216    1.643    0.391
        63  -8.4232     45.5251    106.4342   1.0852451201e+02   4.9070232266e+01    0.1342609    0.1140697 -63.86 0.0001018857    1.008    0.008
        64  -8.9686     41.2957    106.0553   1.0975976952e+02   4.9595543615e+01    0.2033086    0.1561904 -52.94 0.0006419331    1.168    0.143
        65 -10.0441     40.5357    101.7532   1.0919188051e+02   5.0702527140e+01    0.3629589    0.2387334 -13.44 0.0006186138    2.186    0.542
        66  -8.2129    142.3234    105.2878   8.0117602725e+01   3.2977738688e+01     0.157892    0.1257933   4.32 0.0006307077    1.605    0.377
        67 -10.5522     79.9668    103.4985   9.7221058923e+01   4.5328716336e+01    0.3597636    0.2905161 -24.81  0.001896288    1.409    0.290
        68 -10.3501     53.0210     99.1320   1.0468410620e+02   4.9992626414e+01    0.4655101    0.2739672 -60.12  0.002321571    1.465    0.318
        69  -8.9590     57.4787    105.4359   1.0461907316e+02   4.7954462882e+01    0.2075621    0.1104529 -50.52 3.151426e-05    1.657    0.397
        70 -10.2109     59.0736    100.3781   1.0302543304e+02   4.8970004873e+01    0.3417744    0.2654149 -34.32  0.001290152    1.362    0.266
        71  -8.4615     48.9629    105.0402   1.0718819118e+02   4.9035455847e+01    0.1640873    0.1318154 -62.64  0.000344008    1.060    0.056
        72  -8.0531    129.2758    104.6556   8.3319484813e+01   3.5952167535e+01    0.1576857    0.1235464 -79.11 0.0003714915    1.625    0.385
        73  -9.5341    108.4634    103.1304   8.8654188050e+01   4.0498987138e+01       0.4242    0.2176108  34.13  0.001638107    2.270    0.560
        74  -9.1912    101.6450     99.0902   8.9551401303e+01   4.2698791174e+01    0.2625645    0.2112068  54.22  0.001316263    1.377    0.274
        75  -9.3347     75.4377     97.2370   9.7087811159e+01   4.7486867113e+01    0.3738348    0.1332116 -56.27  0.001315585    2.667    0.625
        76  -8.7155     27.7239     97.9463   1.1255774415e+02   5.2762089657e+01     0.175796    0.1372032 -67.97 0.0003196865    1.063    0.060
        77 -10.0575     17.1053     96.5387   1.1569103183e+02   5.3889542097e+01    0.4402234    0.2512468  68.15  0.002244483    2.342    0.573
        78  -9.6419     68.9764     96.0765   9.8856288514e+01   4.8686672680e+01    0.3256678    0.1914158 -58.48 0.0007058892    1.569    0.363
        79  -9.1150    148.1243     96.1574   7.6130517800e+01   3.3590202453e+01    0.2353288    0.2173948   3.82 0.0003734231    1.160    0.138
        80  -8.7988     97.0866     96.2633   9.0142214569e+01   4.4169666192e+01    0.2033567    0.1920255  44.05 0.0005343454    1.135    0.119
        81  -9.6712     79.5712     95.2393   9.5273411073e+01   4.7327325507e+01    0.3401422    0.2847564 -48.43   0.00152373    1.082    0.076
        82  -9.7101    138.0728     92.8589   7.7699238493e+01   3.6562811028e+01    0.3711487     0.264814 -37.84  0.001679022    1.385    0.278
        83  -9.3414    139.5143     88.9699   7.6192838036e+01   3.7039188606e+01    0.3284943    0.1950312 -35.31 0.0008065379    1.723    0.420
        84  -9.8109    132.3660     93.5041   7.9369357021e+01   3.7696730864e+01    0.3223698    0.2999364  55.56   0.00034647    1.123    0.109
        85  -9.7934     37.9129     93.7930   1.0847377056e+02   5.2847631229e+01     0.229386    0.1683857 -51.05            0    1.175    0.149
        86  -8.9251      5.2669     87.1376   1.1803297235e+02   5.6788149768e+01    0.2798252     0.103568 -47.35  0.001334962    2.328    0.570
        87  -8.5726      1.2681     94.3234   1.2031796125e+02   5.5341467410e+01    0.1227042   0.09258895 -73.28 0.0002775066    1.045    0.043
        88  -9.3305      2.1711     90.8379   1.1956438997e+02   5.6097843288e+01     0.293754     0.144936 -56.53 0.0008575819    1.559    0.359
        89  -9.2822    153.3498     93.0145   7.3972401989e+01   3.3017174526e+01    0.2210826    0.1974752 -39.79 0.0003035415    1.096    0.088
        90  -9.1576     89.0894     92.4891   9.1556023449e+01   4.6419750126e+01    0.3008197    0.2404927 -43.52  0.001017958    1.160    0.138
        91  -8.5855      9.3078     93.0468   1.1762188415e+02   5.5199416600e+01    0.1703783    0.1259543 -69.47 0.0004119487    1.057    0.054
        92  -9.6563     52.0213     91.1466   1.0322300811e+02   5.1995103891e+01    0.3580894    0.1645331 -55.81    0.0011158    1.816    0.449
        93  -8.1433     19.4347     92.4272   1.1426902832e+02   5.4690857633e+01    0.1249879    0.1001353 -67.19 1.714581e-05    1.036    0.035
        94  -9.3002     15.5712     90.1027   1.1513668279e+02   5.5495136035e+01    0.2707646    0.2087738 -61.83  0.001237694    1.029    0.028
        95 -10.2290    109.8956     88.4174   8.4113547097e+01   4.3498413134e+01    0.4245982    0.3512001 -24.08  0.002140736    1.273    0.215
        96  -9.3188     43.6052     91.2547   1.0605449235e+02   5.2884141342e+01    0.2269396    0.1868061  25.26  0.001378606    1.436    0.304
        97  -8.5547     33.3693     90.7928   1.0937399980e+02   5.3969400998e+01     0.171034     0.149852 -72.46 0.0004585672    1.122    0.109
        98 -11.0210    120.9940     87.7344   8.0751077219e+01   4.1370488081e+01    0.5448043    0.4565258 -60.52 0.0009879386    1.290    0.225
        99 -10.9435    124.4815     85.5092   7.9122293412e+01   4.1091494809e+01     0.523998    0.3575995 -33.11  0.001650823    1.506    0.336
       100  -8.6016     56.7408     89.5639   1.0127171123e+02   5.1806398213e+01    0.1718543    0.1285853  46.63 0.0009327655    1.573    0.364
       101  -9.2225     47.6983     88.9991   1.0417597294e+02   5.2980092996e+01    0.1971008    0.1436349 -56.76 0.0001750715    1.163    0.140
       102  -9.0704     22.4036     88.7714   1.1264473231e+02   5.5329970146e+01    0.3311733    0.1626831 -26.03 0.0009382337    2.972    0.663
       103 -10.0657     27.0690     84.4312   1.1022681184e+02   5.5980190264e+01     0.241755    0.2232565  23.70  0.000347617    1.325    0.245
       104 -10.9467    135.1181     82.9809   7.5524516022e+01   3.9251137357e+01    0.3663145    0.3046112 -46.82 0.0003111913    1.200    0.167
       105  -8.4580     85.2659     86.9835   9.1225704992e+01   4.8301950054e+01    0.2038284    0.1835192 -40.89  0.001133035    1.017    0.016
       106 -10.3023     75.8806     83.0622   9.3165080229e+01   5.0670410801e+01    0.3192026    0.2747452 -82.33 0.0009831435    1.395    0.283
       107  -9.1713     81.0973     84.8115   9.1950932148e+01   4.9465331000e+01    0.3186504    0.2245177  -9.99  0.001345267    1.936    0.483
       108  -9.0190     80.8774     80.8399   9.0875040552e+01   5.0380987775e+01    0.2972736    0.2022852 -52.43 0.0009896579    1.401    0.286
       109  -8.8597    173.8452     84.8228   6.7044889419e+01   2.9690166392e+01    0.2126408    0.1826331 -70.89 0.0004144109    1.289    0.224
       110  -8.9435     66.0619     84.5937   9.6869505398e+01   5.1745223929e+01    0.2261527    0.1749756 -60.63  0.001225307    1.262    0.208
       111  -9.7210     64.4234     70.6687   9.3467063340e+01   5.5053589128e+01    0.4726434    0.2199949  43.90  0.001804266    2.635    0.620
       112  -9.7049     55.3638     80.6087   9.9476728326e+01   5.4031377386e+01    0.4646364    0.3112273 -69.07  0.002370328    1.661    0.398
       113 -10.2322     56.2052     72.6831   9.7003641683e+01   5.5695788624e+01    0.8663052     0.407078 -23.53  0.002698665    4.948    0.798
       114 -10.2006     46.1214     84.0327   1.0354967124e+02   5.4301809727e+01    0.2507868    0.1976228 -53.82            0    1.070    0.066
       115  -9.4373     50.9986     80.9946   1.0110117080e+02   5.4458380994e+01     0.226261    0.1936462  35.57 0.0007336329    1.362    0.266
       116  -9.3114     49.3695     77.2034   1.0069526314e+02   5.5501362173e+01    0.2653168     0.180397 -59.70 0.0008961183    1.356    0.263
       117  -8.5217     70.2355     83.7874   9.5248263010e+01   5.1342708791e+01    0.1937555    0.1507885 -27.20 0.0005705549    1.341    0.254
       118  -8.5216     41.4994     84.0409   1.0515238144e+02   5.4777483681e+01    0.2053404     0.113751 -61.31 0.0009820157    1.564    0.361
       119  -9.9618    131.8625     86.8251   7.7535677862e+01   3.9201627452e+01    0.3318509    0.2659153 -30.57 0.0005684905    1.267    0.211
       120  -9.0119    116.6389     82.6640   8.0442775660e+01   4.3347873229e+01    0.2668846    0.1819667  32.86 0.0005825908    1.623    0.384
       121  -9.7134    100.6617     82.8654   8.5209769862e+01   4.6481617358e+01    0.2567594    0.2021645  25.96 0.0008576766    1.397    0.284
       122 -11.6852    104.7459     78.3727   8.2592361714e+01   4.6647045521e+01    0.5867257    0.5267702  12.32  0.002855213    1.169    0.144
       123 -10.0020    110.3346     71.9484   7.8880793564e+01   4.6831321445e+01    0.3699926    0.2494172 -30.29 0.0005083933    1.529    0.346
       124  -8.6359      1.6307     83.1462   1.1862595849e+02   5.7882710506e+01    0.1559619    0.1315747 -81.66 0.0006275706    1.183    0.155
       125 -10.7748    144.2112     81.2756   7.2712564918e+01   3.7490347014e+01    0.4373171    0.3385591  74.66  0.001775219    1.593    0.372
       126 -10.6312      6.7944     80.3947   1.1644812173e+02   5.8247753531e+01    0.2548041      0.20396  80.37 0.0002664129    1.408    0.290
       127  -9.2308      4.7252     75.6544   1.1635935542e+02   5.9426954100e+01    0.3215534    0.1628119 -73.42  0.001262627    1.689    0.408
       128  -8.9953    175.9783     81.4927   6.5650747121e+01   2.9781956206e+01    0.2428757    0.1536104  53.30  0.001037895    1.609    0.378
       129  -9.1678     22.1730     80.5930   1.1115294147e+02   5.7236556297e+01    0.2363794    0.1682137 -59.58 0.0007194636    1.112    0.101
       130 -10.3219     21.0250     75.2814   1.1046727194e+02   5.8528275129e+01     0.337882    0.2309257 -72.76  0.000785325    1.391    0.281
       131 -10.3419    153.7730     79.4555   6.9879669469e+01   3.5568524389e+01    0.3739735    0.2751575  77.94  0.000952647    1.758    0.431
       132  -8.5305     38.6428     80.4199   1.0530881385e+02   5.5889444294e+01    0.2339786   0.09392449  42.32 0.0009643441    3.219    0.689
       133 -10.3341    158.7052     83.5588   6.9972644036e+01   3.3601267039e+01    0.3087913    0.2657896 -20.02 0.0008805761    1.230    0.187
       134  -9.1591     96.7450     78.7906   8.5172215651e+01   4.8081433931e+01    0.1908749    0.1734435 -85.58 0.0003697856    1.313    0.238
       135  -9.4585     28.2848     78.0753   1.0845916956e+02   5.7341790330e+01    0.2136385    0.1649633 -41.87 0.0002796762    1.181    0.153
       136  -8.5009     15.3399     78.9333   1.1322501819e+02   5.8081656719e+01    0.1703158    0.1278334 -59.62 0.0007574313    1.036    0.035
       137 -10.7916     77.0250     75.1759   9.0465964992e+01   5.2224775678e+01    0.5547544    0.2858848  26.82  0.001100632    2.437    0.590
       138 -11.3568    152.0480     73.1899   6.8366678721e+01   3.7151077250e+01      0.58952     0.425306  59.21  0.002351167    1.459    0.314
       139 -11.8392    142.9298     69.1353   6.9248053479e+01   4.0081395094e+01    0.6061404    0.5628031  57.84  0.001890408    1.107    0.097
       140 -11.3139    163.0750     67.2615   6.4109381380e+01   3.5499804480e+01    0.6588862    0.4764107  52.08  0.002956488    1.382    0.276
       141 -11.2514    157.8875     73.6151   6.7174109967e+01   3.5653043175e+01    0.6129616    0.3862406 -23.55  0.001473917    1.856    0.461
       142  -9.5861     45.1245     72.7047   1.0103723835e+02   5.6972776040e+01    0.3095328     0.271733  67.16 0.0009650327    1.448    0.309
       143  -8.8605     38.9501     71.4620   1.0298527111e+02   5.7879963303e+01     0.204347    0.1269824  29.21 0.0004256321    1.876    0.467
       144  -9.3370     10.4614     73.5980   1.1394411140e+02   5.9582982790e+01    0.2766912    0.1691513  60.03 0.0009217677    2.319    0.569
       145  -9.3632     97.9306     73.5050   8.3139563137e+01   4.8962816682e+01    0.2135732    0.1987709   6.21  0.001185516    1.088    0.081
       146 -10.3088     97.1535     69.2119   8.1987467533e+01   4.9980035752e+01    0.3303799    0.2353957 -41.14 0.0006291937    1.330    0.248
       147  -8.8872    177.5536     71.7752   6.2521706600e+01   3.1119221319e+01    0.3000289    0.1534362 -29.17  0.001134976    2.129    0.530
       148  -9.8654    105.0567     67.5089   7.8988314624e+01   4.8775337558e+01    0.3575261    0.2782139 -55.00            0    1.436    0.303
       149  -9.1723     27.9500     68.2177   1.0628913684e+02   5.9582398830e+01    0.2483532    0.1700203 -37.28 0.0008966822    1.333    0.250
       150  -8.5778    197.5177     68.4578   5.7950087105e+01   2.6731758616e+01    0.1502697    0.1415048 -61.14 0.0008087922    1.023    0.023
       151 -11.0083    152.1453     65.7015   6.6007733497e+01   3.8465846931e+01     0.649348    0.3377167 -42.50  0.002575031    1.932    0.482
       152  -9.4435    145.0185     52.7474   6.3425662745e+01   4.2374114362e+01    0.2501107    0.2182449  -7.02 0.0002352938    1.226    0.184
       153 -10.8370    150.5630     57.9693   6.3894369318e+01   4.0166070301e+01    0.4419188    0.3133118  56.97 0.0005868204    1.415    0.293
       154 -10.2316    148.2084     54.6011   6.3322155927e+01   4.1294557835e+01    0.2727703    0.2110298   9.94  0.000616199    1.580    0.367
       155  -8.1599    120.6872     68.6667   7.4854212034e+01   4.5269181685e+01    0.1571607    0.1182439   4.39 0.0007045062    1.681    0.405
       156  -9.4931     88.5733     66.2472   8.3759021797e+01   5.2148765477e+01    0.3698545     0.355445  72.37  0.001653488    1.242    0.195
       157  -9.4480     89.1489     61.0306   8.1796561550e+01   5.3069749087e+01    0.6460106    0.4148233  81.13   0.00205626    5.080    0.803
       158 -10.5881     44.5921     63.7149   9.8715824640e+01   5.8989270039e+01    0.3968944    0.3050898 -30.45   0.00138981    1.203    0.169
       159  -8.3090     14.9697     67.7468   1.1109131910e+02   6.0619798259e+01    0.1249262    0.1037388  -1.43 0.0002538508    1.437    0.304
       160  -7.8591    116.6377     66.7394   7.5347614339e+01   4.6512843750e+01    0.1536611    0.1147546  14.35 0.0001948343    1.633    0.388
       161  -9.8911    127.4883     75.5203   7.5216480549e+01   4.2445710992e+01    0.3263874    0.1520247  48.06  0.001217662    2.192    0.544
       162 -10.8927      2.2460     62.4825   1.1483773562e+02   6.2465495979e+01    0.2520332    0.1613988 -68.72 0.0003797277    1.301    0.231
       163 -10.1230      5.6509     58.7297   1.1273456789e+02   6.3116928562e+01    0.3037279    0.2015842 -36.93    0.0011138    1.372    0.271
       164 -10.3731    172.4588     62.6208   6.0801264787e+01   3.3938547392e+01    0.4361987    0.3019523  -7.90  0.001824864    1.950    0.487
       165  -8.0050    112.6561     63.2850   7.5320319506e+01   4.8009978817e+01    0.1584507    0.1435145  -1.16 0.0003578882    1.101    0.091
       166  -9.9937    108.8494     62.7002   7.6230346373e+01   4.8917339746e+01    0.5952743    0.2747303 -34.21  0.002282698    2.233    0.552
       167  -9.5378    112.0312     55.7418   7.2883671659e+01   4.9503106835e+01    0.3052528    0.2148814 -28.74 0.0007855759    1.420    0.296
       168  -9.8371     32.5721     63.0641   1.0317894327e+02   6.0315377983e+01    0.4495217    0.2888218 -79.83   0.00162644    2.198    0.545
       169  -9.2101     26.0282     56.0966   1.0386510627e+02   6.2358481561e+01    0.1853955    0.1632784 -17.14 0.0003815721    1.203    0.169
       170  -9.1032     30.0875     56.4655   1.0232051865e+02   6.1941206385e+01    0.1939581    0.1380223 -37.00  0.000506782    1.196    0.164
       171  -9.1989     29.3484     52.8217   1.0155379151e+02   6.2765744604e+01    0.1841598    0.1590335 -52.72 0.0004790944    1.186    0.157
       172  -9.5271    146.8741     62.8326   6.6297400563e+01   4.0248204975e+01    0.2090471     0.183301 -83.51 0.0005869164    1.308    0.235
       173  -9.1028     66.8638     62.0587   8.9866076846e+01   5.6510736748e+01    0.4821869    0.2056353 -53.69  0.001718336    2.552    0.608
       174  -9.4997    130.2879     62.1152   7.0113264447e+01   4.4309563952e+01    0.2817717    0.1982586  40.29  0.001143345    1.448    0.309
       175  -8.7801    219.7392     61.5864   5.2679116593e+01   2.2451045688e+01    0.1991497    0.1373577  80.96 0.0009543891    1.660    0.398
       176 -10.0328    162.6254     60.0899   6.1991966112e+01   3.6820549296e+01    0.3419592    0.2420603  42.03  0.001006428    1.481    0.325
       177 -10.0381    159.1776     57.4638   6.1882987967e+01   3.8110957687e+01    0.4364338      0.28785  -6.28  0.001289781    2.159    0.537
       178  -9.8716    162.6841     53.0487   5.9779582894e+01   3.7932430004e+01     0.341338    0.3163093 -43.56 0.0009406508    1.087    0.080
       179  -8.1557     84.4213     61.2573   8.3448055352e+01   5.3864879864e+01      0.14746    0.1050158   2.62            0    1.763    0.433
       180  -8.4078    121.4933     60.5062   7.1897410842e+01   4.6592246436e+01    0.1506697    0.1419459   2.27 0.0008103962    1.033    0.032
       181  -9.1259     50.3631     59.7334   9.5285166056e+01   5.9172202898e+01    0.1965307     0.176071 -49.15 0.0003077392    1.173    0.148
       182  -9.5844    184.2355     57.8991   5.7230173495e+01   3.1734904975e+01    0.3441552    0.2690187 -14.73  0.001246098    1.479    0.324
       183  -9.1404     57.6699     58.3043   9.2031568704e+01   5.8548987865e+01     0.246205    0.2172414  54.69   0.00134443    1.476    0.323
       184  -9.8133     61.1848     56.6426   9.0146863271e+01   5.8408221318e+01    0.2668613    0.2199918   7.73 0.0009159721    1.269    0.212
       185  -9.5610    212.6316     49.8924   5.0596812280e+01   2.5896010475e+01    0.4103676    0.1949174  50.95  0.001687716    2.269    0.559
       186 -10.9210    205.1117     51.7346   5.2152659846e+01   2.7464322868e+01     0.668967    0.5270894  83.11  0.002758899    1.322    0.244
       187 -11.8931     58.8767     47.8888   8.7936041062e+01   6.0424036979e+01    0.5259413    0.4093871  17.29 0.0007646327    1.344    0.256
       188  -8.9247     63.2102     41.1505   8.3699520572e+01   6.1024769605e+01    0.2074682    0.1648963   8.04  0.000538184    1.246    0.197
       189  -8.7458     34.4151     57.2948   1.0081645483e+02   6.1376488895e+01    0.2049712    0.1481618 -71.06 0.0009144976    1.659    0.397
       190  -9.2103     35.9252     53.2470   9.8976498975e+01   6.2073011858e+01    0.3018471    0.1911961 -62.33   0.00164163    1.708    0.414
       191  -8.9437    125.9608     57.0340   6.9517017987e+01   4.6189776444e+01    0.2166054    0.2134849   4.68  0.000325897    1.048    0.046
       192  -9.0949    104.9779     56.0556   7.5062685254e+01   5.0928606262e+01    0.2122245    0.1960814   0.61            0    1.029    0.028
       193  -8.6006     78.1910     55.9094   8.3713961628e+01   5.5955953762e+01    0.2957181    0.2002233  -2.76  0.001048562    1.921    0.479
       194 -10.7733     82.3418     47.4067   7.9150830866e+01   5.6797403639e+01    0.6859049    0.4333149 -29.35  0.002553578    1.532    0.347
       195  -9.2614     86.4680     54.5510   8.0394549925e+01   5.4775534798e+01    0.2384624    0.2255699  16.06 0.0008137864    1.122    0.109
       196  -9.9601    174.1148     52.5062   5.7434897934e+01   3.5126954624e+01    0.3660097    0.2476575 -28.43    0.0014665    1.542    0.352
       197  -9.9405    134.6377     53.1370   6.5990815280e+01   4.4816456574e+01    0.4400038    0.2939568 -22.27   0.00199914    1.643    0.391
       198  -8.9204     43.3077     48.6802   9.4450888249e+01   6.2220620531e+01    0.4167018    0.1993839 -42.43  0.001396026    1.749    0.428
       199  -9.9552     48.9976     49.9492   9.2578646071e+01   6.1310117197e+01    0.8128536    0.4032718   6.32  0.003005507    4.104    0.756
       200  -8.7938     46.3082     47.6331   9.2858089863e+01   6.2081802491e+01    0.1911876    0.1731527  35.51 0.0005786088    1.386    0.278
       201 -10.4476    179.1246     51.2009   5.6148270515e+01   3.4055393011e+01    0.5537491    0.2360428 -38.78  0.002096053    2.251    0.556
       202  -8.8739    121.6175     48.4868   6.7665519112e+01   4.8597686895e+01    0.3411472     0.238319  76.66  0.001518905    2.057    0.514
       203  -8.3802    122.2667     53.3474   6.9213313669e+01   4.7654997373e+01    0.2348973    0.1320571  40.65 0.0004724682    1.831    0.454
       204  -9.2609    126.2336     50.4545   6.7162824133e+01   4.7222379925e+01    0.3399036    0.2876283 -21.67  0.001059947    1.190    0.159
       205 -10.1500     96.1252     56.1119   7.7811338365e+01   5.2685045038e+01    0.4782357    0.3296881   1.20  0.001434471    1.914    0.477
       206 -10.1320    106.6192     51.1731   7.2818353142e+01   5.1438144021e+01    0.2501296    0.2305723  30.21 0.0002835602    1.090    0.082
       207 -11.0080     18.1937     50.9259   1.0567057703e+02   6.4029036581e+01     0.478159    0.2513921  -1.22  0.001779289    2.506    0.601
       208  -8.5979    115.8082     50.6174   6.9995488746e+01   4.9553295109e+01    0.1978046    0.1768633 -64.41 0.0003545313    1.329    0.248
       209  -8.5179    112.1817     49.2192   7.0503186971e+01   5.0577858168e+01    0.2703245    0.1551201  64.74 0.0008492901    2.508    0.601
       210  -9.6691     10.1146     47.9790   1.0830854843e+02   6.5153617262e+01    0.2210313     0.175224 -12.30 0.0006644853    1.366    0.268
       211  -8.9889      6.0246     48.0485   1.1007920713e+02   6.5362209109e+01    0.3373615    0.1090415 -42.94  0.001287828    2.386    0.581
       212  -9.7992     96.2687     48.3284   7.4919308247e+01   5.4028186756e+01    0.4210704    0.3192365  10.73  0.001175588    1.454    0.312
       213  -8.6260    101.7489     48.1414   7.3158532117e+01   5.2958243586e+01    0.2250274    0.1921039 -81.20  0.001186174    1.623    0.384
       214 -10.1737    200.4547     56.0887   5.4047282819e+01   2.7961894611e+01    0.4410229    0.2921881  18.74   0.00184857    2.405    0.584
       215  -8.2872    170.3237     48.3044   5.6844483275e+01   3.6720823941e+01    0.1530505    0.1130611  27.65 0.0003833843    1.640    0.390
       216  -8.6922     90.3857     47.9191   7.6650649943e+01   5.5234647780e+01     0.290807    0.1692773  29.49  0.001306269    1.942    0.485
       217  -9.2184     34.8078     47.6095   9.7629293552e+01   6.3321969647e+01     0.220714     0.187599  70.84 0.0005591434    1.782    0.439
       218  -9.2537    151.9518     45.6597   5.9582162571e+01   4.1746969463e+01    0.3114681     0.184689  67.46  0.001321371    1.866    0.464
       219  -8.0166     67.4390     46.4709   8.4141723433e+01   5.9433547120e+01    0.1355893    0.1171759 -19.25 0.0002000249    1.011    0.011
       220  -9.7573    175.7136     44.4835   5.4720514816e+01   3.5907007607e+01     0.396966    0.1728397  49.12  0.001499277    2.332    0.571
       221 -10.9818    167.3540     43.1128   5.5775442739e+01   3.8228969088e+01    0.3595587    0.3290646  15.97  0.000804568    1.197    0.165
       222  -9.0727    157.5611     45.2987   5.8327933766e+01   4.0393088044e+01     0.394813    0.1483116  47.40  0.001361736    2.698    0.629
       223 -10.4533    142.7137     41.8041   6.0253598594e+01   4.4599900873e+01    0.6367291    0.3882049 -25.75  0.002859872    1.746    0.427
       224  -9.3614    108.5315     43.9403   6.9593764529e+01   5.2216457658e+01    0.3558064    0.1995216  48.17  0.001132722    1.767    0.434
       225  -9.0390     74.6111     42.5895   8.0014361056e+01   5.8965461884e+01    0.4057535    0.2181006 -47.19  0.001855095    2.059    0.514
       226  -9.2707     75.0804     37.9397   7.7996465273e+01   5.9664089180e+01     0.215694    0.1731569 -26.86 0.0003738574    1.154    0.134
       227  -9.9920     81.0853     26.0624   7.0935075103e+01   6.0382758633e+01    0.3760773    0.2818393 -50.56  0.002056395    1.781    0.439
       228 -10.1210     81.9250     36.9051   7.5178847583e+01   5.8621441556e+01    0.3590361    0.2672144 -22.62  0.001063131    1.264    0.209
       229 -10.6160     78.2703     31.6782   7.4287566713e+01   6.0087170270e+01    0.3960014     0.237716 -21.86 0.0009049211    1.694    0.410
       230 -10.1725     55.5925     41.9542   8.7004946483e+01   6.1970937082e+01     0.405955    0.3011727   0.90  0.002360695    1.401    0.286
       231  -8.8791    187.5730     43.0235   5.2346013986e+01   3.3102155074e+01    0.2195169     0.139911 -32.64 0.0008435908    1.577    0.366
       232  -8.1765     70.0174     43.0672   8.1877705212e+01   5.9635292110e+01    0.1545173    0.1353809  -4.52 0.0009315803    1.049    0.047
       233  -9.6232     45.3447     40.2934   9.0580307832e+01   6.3584537975e+01    0.4741586    0.2419746 -33.94  0.002360307    1.791    0.442
       234  -9.2044     48.5686     36.7708   8.7861056775e+01   6.3823687131e+01    0.2816828    0.1810289 -58.06  0.001097155    2.169    0.539
       235  -8.6996      8.6731     42.9999   1.0758256050e+02   6.6256951919e+01    0.1659515    0.1147458 -51.66 0.0001553006    1.124    0.110
       236  -9.1991    204.1000     41.1683   4.9414646501e+01   2.9217892779e+01     0.294876    0.1531223 -54.65  0.001222973    2.121    0.529
       237  -8.9470     98.8986     41.2419   7.1411766317e+01   5.4658986050e+01    0.2849768    0.2165417 -69.16  0.001389331    2.039    0.510
       238  -8.3659    179.2804     58.3256   5.8238125270e+01   3.2915749395e+01    0.1499768     0.117743  18.22 0.0003374724    1.595    0.373
       239  -8.7917    196.8832     40.8869   5.0345279440e+01   3.1053661613e+01    0.2175456    0.1924246  38.84 0.0006187517    1.272    0.214
       240  -9.7184    149.2497     38.6137   5.7797791314e+01   4.3429427151e+01     0.511077     0.247665 -43.71  0.001738944    2.231    0.552
       241  -9.4386    149.9929     34.0284   5.6111649893e+01   4.3861357562e+01    0.3465875    0.2158376 -15.81  0.001003966    1.906    0.475
       242 -10.2476     32.3796     37.8009   9.5269289367e+01   6.5457853828e+01    0.6185275    0.1728673 -43.43  0.002490549    2.828    0.646
       243  -9.1318     17.7122     40.7564   1.0286589180e+02   6.6128978937e+01    0.2618459    0.1541893 -65.87   0.00132378    1.925    0.480
       244 -10.2525    156.6070     38.2723   5.6233323009e+01   4.1628254893e+01    0.5234525    0.3427321  48.30  0.002470199    1.492    0.330
       245  -9.1923    161.9731     37.3189   5.4922838791e+01   4.0398896053e+01     0.272218    0.2139121 -36.26 0.0006770775    1.302    0.232
       246 -10.6161    127.3630     36.8895   6.2036192937e+01   4.9001963662e+01    0.4218277     0.402453 -48.75  0.001805513    1.147    0.128
       247  -8.8363    122.1620     38.5269   6.3914699749e+01   4.9985800889e+01    0.2018866    0.1852941 -12.67  0.000468374    1.088    0.081
       248  -8.4174    112.5251     40.4871   6.7180412550e+01   5.1877317854e+01    0.1434812    0.1333982  12.24 0.0002256061    1.001    0.001
       249  -9.6085     69.6045     56.1953   8.6877258335e+01   5.7271307832e+01    0.4511389    0.2410654 -41.85  0.002113407    1.687    0.407
       250  -8.9367    227.3067     39.1307   4.5990429344e+01   2.3895318574e+01    0.3508987    0.1759119  89.06  0.001397318    2.771    0.639
       251  -9.3865    246.7920     35.5517   4.3081741806e+01   1.9942814826e+01    0.4296102    0.2521367 -80.65  0.002125355    1.961    0.490
       252  -9.2515     69.8414     36.4413   7.9300340753e+01   6.0784983744e+01    0.2576305    0.2327181  46.88  0.001596063    1.403    0.287
       253  -9.2665     27.5136     36.3738   9.6938809607e+01   6.6184398434e+01    0.2070667    0.1581759 -37.36 0.0005355368    1.068    0.063
       254  -9.4653    191.4715     34.5127   4.9316279841e+01   3.3268319627e+01    0.3462562    0.2788007  87.46  0.001233107    1.240    0.193
       255  -9.4437    194.4449     32.4822   4.8326401089e+01   3.2782147506e+01    0.2453104    0.2008737 -37.17 0.0006003035    1.234    0.190
       256  -9.1841    173.8820     36.1966   5.2507098385e+01   3.7516135167e+01    0.1940915    0.1665948  33.06 0.0005566901    1.281    0.219
       257  -8.3478     90.9245     35.9319   7.1809452684e+01   5.7071125517e+01    0.1639986    0.1449828   0.64 0.0003592495    1.020    0.020
       258  -8.6283    215.3301     35.2898   4.6410894116e+01   2.7257799610e+01    0.1351821    0.1050446  35.14 0.0006615719    1.623    0.384
       259  -8.5945    106.8515     35.1196   6.6707069039e+01   5.3904533262e+01    0.1956853    0.1876988 -31.19 0.0003972893    1.163    0.140
       260  -7.7771     94.3358     35.2985   7.0480547549e+01   5.6490180978e+01    0.1453946     0.100123  14.28   0.00042734    1.654    0.395
       261  -8.6997     43.4676     34.4076   8.9093558089e+01   6.4870474887e+01    0.2916842    0.1607191  -8.38  0.001328467    2.645    0.622
       262 -10.5179    236.9973     31.7222   4.3144711448e+01   2.2630217656e+01    0.6191559    0.4322376  75.24  0.003277039    1.449    0.310
       263 -10.4817    238.6688     22.7832   4.0869670191e+01   2.3366931364e+01    0.3573734    0.3168285  87.26  0.001124613    1.150    0.131
       264  -9.4431    237.2366     26.9817   4.1992938365e+01   2.3175150696e+01    0.2347652    0.1872383 -48.63  0.001409252    1.129    0.114
       265  -8.5628     86.5066     34.4595   7.2646621557e+01   5.8145939052e+01      0.13728    0.1220692   1.85 3.679123e-05    1.011    0.011
       266  -9.4547    185.1073     31.5364   4.9373475999e+01   3.5262740737e+01    0.4875051    0.2193884 -16.94  0.001731838    3.276    0.695
       267  -8.1832    161.8889     32.7225   5.3466332205e+01   4.1026076731e+01     0.266036    0.1660623  -9.31 0.0005730115    2.105    0.525
       268  -9.1915    142.7993     32.4481   5.7021208881e+01   4.5859664788e+01    0.3007277    0.2257523  27.70  0.001513664    1.462    0.316
       269  -9.2160    119.8389     19.0349   5.7133720489e+01   5.3016621514e+01    0.2698779     0.192876  37.55 0.0005345339    1.328    0.247
       270  -8.3572    124.4502     26.5216   5.8905706742e+01   5.1053703398e+01    0.2146272    0.1551204  29.18 0.0007211624    1.434    0.303
       271  -9.3950    120.5617     26.0216   5.9634046822e+01   5.2027569220e+01    0.6207393    0.2204201  41.42  0.002149017    3.081    0.675
       272  -8.7449    117.9988     23.2510   5.9189796945e+01   5.2958401161e+01    0.2143152    0.2081286  10.55  0.001304713    1.091    0.083
       273  -9.2000    120.3319     31.9713   6.1937126352e+01   5.1317528484e+01      0.24286    0.2198122  47.15 0.0006822017    1.092    0.084
       274 -10.1940    125.4955     30.0450   5.9971741467e+01   5.0362483270e+01    0.4499332    0.2328171  39.27 0.0003419921    2.021    0.505
       275  -9.3577    114.3340     32.8693   6.3807142516e+01   5.2566095434e+01     0.294665    0.2444882  83.99 0.0008672052    1.557    0.358
       276  -9.7231    109.8478     29.4684   6.3679443541e+01   5.4025736951e+01     0.545931    0.2298516  58.02  0.002111804    2.593    0.614
       277  -9.0568    101.0003     31.7595   6.7058321238e+01   5.5628643583e+01    0.4410358    0.1270724 -31.42  0.001473575    3.476    0.712
       278  -8.5610     51.9575     33.0264   8.4928830655e+01   6.4026807034e+01    0.2043872    0.1334867 -12.88 0.0008529132    1.609    0.379
       279  -9.2526    204.6988     31.6492   4.6751655360e+01   3.0330903485e+01    0.2603245    0.2207273  31.34  0.001453704    1.432    0.302
       280 -10.1482    201.2792     29.2467   4.6530103843e+01   3.1482791793e+01    0.3621223    0.2288987  69.72 0.0002579801    1.533    0.348
       281  -8.0526     37.2663     32.6476   9.1119282364e+01   6.5892704765e+01    0.1102086   0.09503888 -62.84 0.0006987337    1.623    0.384
       282  -8.7617      9.6795     31.6727   1.0366211843e+02   6.8432108538e+01    0.1203826   0.09421916 -40.94 0.0003981608    1.075    0.070
       283  -9.3213    175.4251     30.4265   5.0502370560e+01   3.7867663358e+01    0.2506986    0.2036472  60.49 0.0005853654    1.180    0.153
       284  -8.9236     57.7097     30.9224   8.1692195062e+01   6.3563405233e+01    0.2236182    0.1630131 -44.80   0.00119041    1.535    0.348
       285  -9.0532     21.0613     30.7810   9.7890583357e+01   6.7782502970e+01    0.2346802    0.1416918   7.36  0.001023768    1.850    0.460
       286  -8.1344    157.6472     30.6762   5.3561800819e+01   4.2363104133e+01    0.1554447    0.1035638  32.07 0.0006595393    1.759    0.431
       287  -8.4782     27.9568     29.9537   9.4316911321e+01   6.7324420652e+01    0.1603795    0.1482131  86.76 0.0005726456    1.711    0.416
       288  -8.4588    229.5508     29.0661   4.3257740753e+01   2.4681856932e+01    0.1904814    0.1218755 -35.95 0.0003050262    1.482    0.325
       289 -10.2205    181.8740     27.4416   4.8640834561e+01   3.6594396160e+01    0.5845309    0.3134298  32.60  0.002291512    2.804    0.643
       290  -9.9405    179.3091     23.0209   4.7699019758e+01   3.7774308514e+01    0.3678876    0.2583606 -64.61  0.001248302    1.545    0.353
       291  -8.6873     70.2276     29.2545   7.6144739131e+01   6.1850762740e+01    0.3026511    0.1652679 -47.02  0.001404621    2.310    0.567
       292  -9.1854     69.6776     25.3144   7.4633135396e+01   6.2523754084e+01    0.2997892    0.1184097  47.68 0.0009261938    2.879    0.653
       293  -8.8835     62.2617     36.3148   8.2133121784e+01   6.1997655450e+01    0.2719911    0.1866911  17.24 0.0009983857    1.539    0.350
       294  -9.4651     47.5460     27.8575   8.4611709549e+01   6.5472353617e+01    0.2729713    0.1956597  -4.75 0.0009078024    1.349    0.259
       295  -9.9573     16.3425     27.4735   9.8936829060e+01   6.8761045777e+01    0.3107581    0.1742967 -32.99  0.001093599    1.462    0.316
       296  -9.2669    216.2467     27.5816   4.4310507236e+01   2.8021631976e+01    0.3295653    0.2069204  63.56  0.001677733    1.577    0.366
       297  -9.0954    222.0245     26.6467   4.3444224617e+01   2.6754439174e+01    0.2235823    0.1760628 -42.32 0.0005367793    1.213    0.175
       298  -7.8210    154.6321     27.2738   5.2988400146e+01   4.3546689328e+01    0.1472257    0.1069807 -74.30 0.0005134443    1.673    0.402
       299  -8.6904    206.3008     26.0037   4.5039948396e+01   3.0640717741e+01    0.1915716    0.1705692 -56.31 0.0005017095    1.078    0.072
       300  -9.6898    105.8887    248.1858   1.1340839630e+02   9.9753682089e+00    0.4140647    0.2547968  19.96  0.001789747    2.836    0.647
       301 -10.2078     90.4565    214.8869   1.1291025813e+02   1.8247336484e+01    0.6396715    0.2987354  28.88   0.00275056    3.021    0.669
       302  -9.5789    227.1327     23.1573   4.2054960901e+01   2.5976508653e+01    0.3930239    0.2068343 -75.27  0.001744933    2.275    0.560
       303  -9.3481    222.6380     20.1041   4.1748179413e+01   2.7399695967e+01    0.2698836    0.2131128  44.27   0.00127957    1.543    0.352
       304 -12.7239     76.4733    218.7107   1.1607207924e+02   1.9488792771e+01      1.00532    0.5329149  48.55  0.003560721    1.589    0.371
       305  -9.4079     54.2248     23.5519   7.9890764404e+01   6.5223959964e+01    0.3033417     0.187356  22.65  0.001673188    1.667    0.400
       306  -9.2614     53.5224     19.7172   7.8427380909e+01   6.5892361296e+01    0.3530539    0.2078221   8.06  0.001787506    2.079    0.519
       307 -10.2702      2.0388     22.1590   1.0422130384e+02   7.0655190428e+01    0.2607852      0.20134 -41.42  0.001262062    1.107    0.097
       308  -9.3813      8.0456     22.0485   1.0107199890e+02   7.0323838769e+01    0.2031694    0.1682238 -12.59 0.0007551191    1.231    0.188
       309  -8.3335     98.5341     23.5721   6.4442223324e+01   5.7234094481e+01    0.1365386    0.1208927  18.96  0.000135412    1.009    0.009
       310  -9.2891    142.0036     20.9397   5.3181246144e+01   4.7450428215e+01    0.3121165    0.2162552 -15.99   0.00116738    1.604    0.377
       311  -9.1205    131.8242     20.6282   5.5103621413e+01   4.9982666213e+01    0.3811036    0.2424573 -63.63  0.001707367    2.270    0.560
       312  -8.3540    155.5071    214.5309   9.9673472921e+01   7.8102996427e+00    0.1315942    0.1135821  45.07 0.0008092292    1.055    0.052
       313  -8.9991     89.2689     20.9800   6.6104265316e+01   5.9465628104e+01    0.2565824    0.1824485 -18.55 0.0006140636    1.379    0.275
       314  -8.3349    248.3149    213.7175   8.2066215455e+01  -7.2331852753e+00    0.1003606   0.09598586  30.68  0.000252854    1.577    0.366
       315  -9.9825     29.8894     23.8625   9.0910197128e+01   6.8195522697e+01    0.3733727    0.2157471 -50.33  0.002099223    1.852    0.460
       316 -10.3965     69.4700    217.9621   1.1736323221e+02   2.0585651005e+01     0.304792    0.1745004 -71.67  0.001070811    1.752    0.429
       317  -8.9929    124.0023    206.0050   1.0490247991e+02   1.4718586993e+01    0.1833724    0.1627705  52.74   -0.0213525    1.032    0.031
       318  -7.9887    248.6899    204.3289   8.0296255598e+01  -6.0736790888e+00    0.1046244    0.1003598 -52.08 0.0007041028    1.664    0.399
       319  -9.4577      1.4139    185.3984   1.2814919413e+02   3.4737081283e+01    0.3366325   0.08457253 -78.59  0.001448375    3.167    0.684
       320  -9.0836     13.2043    174.5550   1.2509210441e+02   3.6073578078e+01     0.129885    0.1154572   5.35  0.000941738    1.716    0.417
       321 -10.3621      5.6871    168.4368   1.2623457325e+02   3.8048692161e+01    0.3107502    0.2089952  22.25  0.002036467    2.058    0.514
       322  -8.6077      1.3327    164.2893   1.2687227713e+02   3.9300653661e+01    0.1068978   0.07455452 -56.74 0.0002748173    1.627    0.385
       323 -11.2297     18.2729    158.5711   1.2271457492e+02   3.9217355760e+01    0.4387023    0.2446172  71.09   0.00244401    1.714    0.417
       324 -10.8221      2.2811    153.4185   1.2590137477e+02   4.1656199242e+01    0.2836994    0.1728582 -83.80 0.0007674176    1.249    0.200
       325  -8.0770    138.0159     17.7802   5.2834885723e+01   4.8783326605e+01    0.1771118    0.1070116  61.95 0.0003071232    1.545    0.353
       326  -9.5841      5.2182    150.1639   1.2498694286e+02   4.2180048277e+01    0.1783798    0.1502286  83.55 0.0007459612    1.149    0.130
       327  -9.5887     11.9195    144.5892   1.2294071645e+02   4.2956986253e+01    0.2329119    0.1101739  81.35 0.0007997053    2.169    0.539
       328  -8.6286     35.9904    142.2076   1.1672397954e+02   4.1402146474e+01    0.1507784    0.1023608  33.55 0.0004025546    1.709    0.415
       329  -7.5806    216.9665     15.0000   4.1033751773e+01   2.9339401331e+01    0.2209165   0.07057514  71.23 0.0008121167    3.010    0.668
       330  -8.3932    144.5030     14.0659   5.0337408519e+01   4.7565726813e+01    0.1952935    0.1382739 -21.00  0.001014994    1.538    0.350
       331  -9.3455     21.7354    141.8840   1.2027777492e+02   4.2793562992e+01    0.1998183    0.1609965  58.80 0.0003558197    1.300    0.231
       332 -10.5558      6.7144    140.0640   1.2378375258e+02   4.4387872419e+01    0.4248565    0.2416961 -34.12   0.00142188    2.668    0.625
       333  -9.1678     67.8251     12.8302   6.9590586448e+01   6.4495723053e+01    0.3345808    0.1322508  37.75  0.000794716    2.475    0.596
       334  -8.9426     29.3235    138.0861   1.1792960869e+02   4.3022440737e+01    0.1892287    0.1719858  14.35  0.001180084    1.456    0.313
       335  -8.8825      1.2852    136.8181   1.2481460092e+02   4.5503937997e+01    0.2313292   0.08375652 -84.52 0.0007254299    2.440    0.590
       336 -10.7305    226.7032    134.4640   6.9646903898e+01   8.5971244144e+00    0.4394658    0.2999415  55.81  0.002146746    1.744    0.427
       337  -9.7365     43.7484    141.6199   1.1465446380e+02   4.0740186307e+01    0.3266864    0.1405849  18.31   0.00125074    4.077    0.755
       338  -8.4466     77.9734    131.4963   1.0381728252e+02   3.8869317028e+01    0.2022349    0.1398318  40.32 0.0005124164    1.547    0.354
       339 -10.1814     32.9877    127.9519   1.1565947594e+02   4.5111775456e+01    0.3082498     0.171387 -58.85 0.0009598779    1.536    0.349
       340 -10.1595     31.0003    124.2532   1.1569523633e+02   4.6184053881e+01     0.347914    0.2600935 -11.55 0.0002297382    1.909    0.476
       341  -9.0530     52.8780    125.8517   1.0981616452e+02   4.3543653116e+01    0.2017031    0.1662429 -48.63 0.0004183602    1.253    0.202
       342 -10.7300    231.1938    125.0776   6.6682771195e+01   9.3131059696e+00    0.3746267    0.3566106 -26.26   0.00156306    1.083    0.077
       343  -9.6015     49.0071    125.5037   1.1084911257e+02   4.4068505949e+01    0.1825868    0.1347153  32.27 0.0006223363    1.579    0.367
       344 -10.2711     37.5860    126.5329   1.1419629124e+02   4.5014204207e+01    0.2370059    0.1872037 -88.75 0.0006314947    1.164    0.141
       345 -10.0096     38.1738     17.7380   8.4257265939e+01   6.8252543214e+01    0.3357016     0.199923  18.19  0.001159677    1.751    0.429
       346  -9.9836     11.3543    122.9082   1.2088691478e+02   4.8066843775e+01    0.4053848    0.2208354  16.57  0.002090051    2.522    0.604
       347  -9.4376     75.2224    121.5206   1.0263537831e+02   4.1696666289e+01      0.46634    0.2963255 -53.27  0.001991129    1.433    0.302
       348  -8.3297      1.8336    123.1889   1.2343423842e+02   4.8617711257e+01    0.1644868     0.108975 -62.54 0.0006835361    1.299    0.230
       349  -8.6256     93.8471    122.1707   9.7469392770e+01   3.8637238598e+01    0.2035986     0.173312 -30.56 0.0008963096    1.316    0.240
       350  -8.9641     90.0320    121.5181   9.8403129832e+01   3.9423806811e+01     0.216691    0.1850088 -59.70 -4.023461e-05    1.085    0.078
       351  -8.0287     61.2721    121.3627   1.0662738993e+02   4.3621544937e+01    0.1429583   0.09494652 -40.77  0.000700082    1.658    0.397
       352  -9.8331     69.5737    117.9344   1.0354723429e+02   4.3363280477e+01    0.3529281    0.2356444 -77.97 0.0007319952    1.641    0.390
       353  -9.9096     98.2755    117.4655   9.5148792854e+01   3.9006782063e+01    0.2657942      0.25484  16.49 0.0008338165    1.151    0.131
       354  -8.3788     82.5185    118.5192   9.9901544574e+01   4.1337371520e+01     0.145704    0.1327332 -66.49 0.0008100646    1.011    0.011
       355 -10.1574     57.8748    117.3753   1.0687143249e+02   4.5014839615e+01    0.3584724    0.2565541 -51.00  0.001507538    1.301    0.231
       356  -9.1815     62.2455    112.0821   1.0453443908e+02   4.5755100772e+01    0.3478476    0.1193569 -47.97    0.0012542    2.792    0.642
       357 -10.1816     26.0183    116.5314   1.1601245030e+02   4.8469197849e+01    0.2904127    0.2616949  27.40  0.001005989    1.386    0.279
       358  -9.8959     27.4353    109.1756   1.1450340940e+02   5.0112409627e+01    0.4891095    0.2333306 -73.11  0.002350042    1.845    0.458
       359  -8.6760     88.0233    117.0063   9.7977059812e+01   4.0834730917e+01    0.2616579    0.1434321  58.99 0.0007004488    2.583    0.613
       360 -10.2192     11.5652    114.8541   1.1988925379e+02   4.9949373935e+01    0.2536601    0.1941415 -39.97 0.0006145241    1.498    0.332
       361 -10.0904     39.4337    114.3353   1.1177019870e+02   4.7783263133e+01    0.2669496    0.2309675  26.52   0.00169184    1.404    0.288
