#   1 NUMBER                 Running object number                                     
#   2 MAG_AUTO               Kron-like elliptical aperture magnitude                    [mag]
#   3 X_IMAGE                Object position along x                                    [pixel]
#   4 Y_IMAGE                Object position along y                                    [pixel]
#   5 X_WORLD                Barycenter position along world x axis                     [deg]
#   6 Y_WORLD                Barycenter position along world y axis                     [deg]
#   7 A_WORLD                Profile RMS along major axis (world units)                 [deg]
#   8 B_WORLD                Profile RMS along minor axis (world units)                 [deg]
#   9 THETA_WORLD            Position angle (CCW/world-x)                               [deg]
#  10 FWHM_WORLD             FWHM assuming a gaussian core                              [deg]
#  11 ELONGATION             A_IMAGE/B_IMAGE                                           
#  12 ELLIPTICITY            1 - B_IMAGE/A_IMAGE                                       
         1 -10.1265    225.7364     32.1079   4.5618172333e+01   2.4479373107e+01     0.848482    0.3250369 -28.98  0.003311655    2.643    0.622
         2 -10.9177    243.8888     11.7873   3.9025716320e+01   2.2639565988e+01    0.6180994    0.2999958 -37.60  0.003082062    1.824    0.452
         3 -11.1407    244.0429     29.4036   4.3103723687e+01   2.0514658826e+01    0.7377771    0.3167009 -44.54  0.003310772    2.009    0.502
         4  -9.7796    213.0052     25.0873   4.5213593928e+01   2.8479003593e+01    0.5475523    0.3133165 -25.65   0.00214061    1.897    0.473
         5 -10.4288    211.7966     16.0642   4.2975979263e+01   2.9826698427e+01    0.5146067    0.1535096 -30.96  0.001890776    3.079    0.675
         6 -11.2795    194.8819     22.9336   4.6781119337e+01   3.3335692939e+01     1.007024    0.2919144 -33.10  0.003539098    3.100    0.677
         7 -11.8687    162.7901     13.3320   4.8290377788e+01   4.2726767246e+01      1.51832    0.6680496 -50.45   0.00581466    2.825    0.646
         8 -10.9755    245.1137     20.8021   4.0998474330e+01   2.1319606176e+01    0.5863839     0.348433 -23.73  0.002997726    1.914    0.477
         9 -10.2600    178.1367     14.7392   4.6562002109e+01   3.8585874574e+01     0.404291     0.214867   1.09  0.001547727    3.207    0.688
        10 -11.4524    186.2167     10.2011   4.4207688921e+01   3.6957822178e+01    0.6205925    0.3573927 -37.34  0.003012638    1.752    0.429
        11 -11.2737    182.7308      3.1669   4.2581492785e+01   3.8536496249e+01    0.5780665    0.4173464 -43.18  0.003181288    1.427    0.299
        12  -9.8900    238.3334     11.0443   3.9298493425e+01   2.3996770857e+01    0.3346679    0.2105195 -63.90  0.001157213    1.465    0.317
        13 -10.2233    111.5301      5.9736   5.5029076556e+01   5.6213126289e+01     0.389811    0.3259247  64.06  0.001692709    1.231    0.188
        14  -9.1187    230.1837      2.1158   3.7851832106e+01   2.6854749652e+01    0.3834336    0.1710845 -67.91  0.001648797    2.495    0.599
        15  -9.3878    130.5572      4.2307   5.0476633504e+01   5.1785331040e+01    0.2459833     0.126934 -25.95  0.001136659    2.069    0.517
        16  -9.8955    174.9711      1.7438   4.3063776763e+01   4.0665041851e+01    0.3486725    0.1812302  59.98  0.001445798    1.694    0.410
        17  -8.5820    219.3327      9.9231   4.0668329722e+01   2.8639363668e+01    0.3107986    0.1240389 -41.21   0.00134015    2.239    0.553
        18 -11.2329    147.7265      9.0429   4.9222125628e+01   4.7031717049e+01    0.4794405    0.2629437 -24.46  0.002236526    1.971    0.493
        19  -8.3559    222.8157    214.6707   8.8318388620e+01  -3.4910546825e+00    0.2240151    0.1702918 -37.80  0.001190217    1.596    0.373
        20  -9.0892    243.8237    248.6942   9.0283341637e+01  -1.0659223761e+01    0.2943199    0.2679662 -71.99  0.002109384    2.356    0.576
        21  -9.2912    116.0370    249.4624   1.1309414472e+02   8.8967518643e+00    0.2080332    0.2001082  67.32  0.001304593    1.309    0.236
        22  -9.0717    185.4080    210.2905   9.4598690837e+01   3.5392542941e+00    0.2507106    0.2371833  89.97 0.0009690421    1.370    0.270
        23  -8.2838    174.4202    208.2460   9.6420856203e+01   5.8262862010e+00    0.1674701    0.1295495 -59.23 0.0009477174    1.670    0.401
        24  -9.6510    149.6987    204.2808   1.0078790533e+02   1.0958012230e+01    0.4028704     0.347067 -69.13  0.002449291    1.355    0.262
        25  -8.8126    145.5020    201.9971   1.0129871870e+02   1.2126128703e+01    0.2500114    0.1819874 -78.66  0.001316396    1.844    0.458
        26  -8.6496    229.0407    205.4999   8.5556637190e+01  -3.2785550232e+00    0.2229767    0.1748637 -41.11  0.001365606    1.619    0.382
        27  -8.7765    220.5655    204.2068   8.6859678030e+01  -1.6821027970e+00    0.2263745     0.120803 -38.84   0.00113486    2.081    0.519
        28 -10.1593    249.1730    197.2900   8.0496625395e+01  -5.4377921231e+00    0.8051974    0.2943181 -39.80  0.003413456    3.137    0.681
        29  -7.7609    124.0000    202.3685   1.0584871000e+02   1.5839935176e+01    0.2670774   0.07618058 -54.95 0.0009332089    3.922    0.745
        30  -9.0779    213.9487    198.8442   8.7100952980e+01   2.3381190829e-01     0.315285    0.2624255 -85.05  0.001760444    2.107    0.525
        31  -9.1882    127.2316    199.2988   1.0472202308e+02   1.5873469380e+01    0.2611116    0.1882545 -74.29  0.001248079    1.632    0.387
        32  -9.4405    237.0513    188.5147   8.0912668230e+01  -2.2601639017e+00    0.5199239    0.3983285  47.38  0.003064465    1.564    0.361
        33  -8.9349    233.8434    198.1716   8.3336911419e+01  -3.0711725985e+00      0.33876    0.2587618   8.04  0.001486116    1.164    0.141
        34  -9.5181    232.8007    193.1020   8.2558516853e+01  -2.1889919929e+00    0.4060223    0.3422467 -38.57  0.002534298    1.462    0.316
        35  -8.1115    202.8677    198.8272   8.9201455768e+01   2.2025474698e+00     0.167958    0.1586466  55.36 0.0007211713    1.323    0.244
        36  -9.1900    206.5783    190.5714   8.6944481850e+01   2.8170393949e+00    0.3681507    0.2392501 -46.76  0.001721354    1.868    0.465
        37 -10.2205    129.5049    188.7002   1.0260389385e+02   1.7560148592e+01    0.4847971    0.3261243  88.29 0.0009357028    2.106    0.525
        38  -8.6693    192.3711    186.9973   8.9047947402e+01   6.0435268551e+00    0.4593788    0.1601367 -47.96  0.001582593    3.776    0.735
        39 -10.2421    222.9634    183.5483   8.2482606841e+01   9.2975063373e-01    0.4190827    0.1760391 -38.38  0.001783405    2.458    0.593
        40  -8.0248     61.6972    185.3118   1.1701788433e+02   2.8961517353e+01    0.1329295    0.0806625  70.37 0.0004183798    1.611    0.379
        41  -8.9362    249.5208    181.4256   7.7346946553e+01  -3.3541888803e+00    0.3759085    0.1886864 -29.36  0.001853649    1.885    0.470
        42  -8.6685    205.1000    181.3882   8.5443786030e+01   4.5667911122e+00    0.2519454    0.1842936 -10.62 0.0008381566    1.513    0.339
        43  -8.0710    185.6475    182.3269   8.9508880551e+01   8.1302577498e+00    0.1392993     0.112178  78.09 0.0007047465    1.766    0.434
        44  -8.2793    158.8978    189.3336   9.6379574772e+01   1.1995250603e+01    0.2239012    0.1952686 -69.29 0.0009409525    1.341    0.254
        45  -7.6164    237.3006    180.6080   7.9301300197e+01  -1.1664232429e+00    0.1229964     0.105649 -63.24 0.0007010279    1.802    0.445
        46  -8.9031     72.8059    179.9610   1.1395795341e+02   2.8621370055e+01    0.1998071    0.1702683  60.83 0.0003223819    1.124    0.110
        47  -9.2737    244.2883    178.1261   7.7579703228e+01  -2.0095388800e+00    0.3733351    0.2903816 -30.44  0.002241335    1.313    0.239
        48  -9.0767    239.6163    172.7143   7.7286899479e+01  -4.0949525685e-01    0.3649938     0.299859 -39.59   0.00181685    1.410    0.291
        49 -11.1504    220.4571    166.6553   7.9485644985e+01   4.0527032270e+00    0.9176318    0.6883529 -60.55   0.00464342    1.969    0.492
        50  -9.0011    227.3550    168.2161   7.8541682819e+01   2.5022077048e+00    0.4057213      0.36796 -36.94  0.001907989    1.278    0.218
        51  -8.3180    207.3262    170.6981   8.2838859212e+01   5.9160563419e+00    0.4946986    0.1275743 -33.69  0.001354204    5.181    0.807
        52  -8.8636    175.6176    172.1846   8.9599242392e+01   1.1940483119e+01    0.2052715    0.1349514 -29.80 0.0009518862    1.752    0.429
        53  -9.4253    197.5135    168.4611   8.4313137689e+01   8.2325563176e+00    0.4514658    0.2638536 -44.90  0.002058931    1.869    0.465
        54 -10.1716    152.4851    162.6425   9.2748915144e+01   1.8484191763e+01    0.5695101    0.3853199  -9.14  0.002324181    2.550    0.608
        55  -8.4235     88.2926    169.9645   1.0905381964e+02   2.8554992449e+01    0.1890843    0.1651617  87.94 0.0004810189    1.043    0.041
        56  -8.5289    144.5055    168.5211   9.5715756844e+01   1.8860843725e+01    0.2575527    0.1409322 -61.72  0.001033632    2.368    0.578
        57  -9.1380     69.9659    168.9618   1.1320384529e+02   3.1479062562e+01    0.2051848    0.1723348  79.41 0.0004673621    1.035    0.034
        58 -10.4445    246.7582    163.8535   7.4208245141e+01  -3.5206289628e-01    0.6185129    0.4134494 -47.33  0.003217897    1.871    0.466
        59  -9.1570    162.9513    165.6834   9.1025647848e+01   1.5748933768e+01    0.3617223    0.2669008 -89.92  0.001641833    2.053    0.513
        60  -8.8798    111.3173    167.0762   1.0316112243e+02   2.5378175921e+01     0.280774    0.1910427  53.40 0.0006859056    1.424    0.298
        61  -8.5935     72.9526    164.4426   1.1188752066e+02   3.2092110135e+01    0.1974528    0.1599458 -78.55  9.17189e-05    1.126    0.112
        62  -8.5931    190.1017    163.3291   8.4739321970e+01   1.0646517870e+01    0.2809763    0.2101695 -45.41  0.001002257    1.443    0.307
        63 -10.3632    182.4642    161.1142   8.5859661503e+01   1.2626693093e+01    0.8118522    0.3737266 -54.09  0.002846996    3.146    0.682
        64  -8.7051    141.4510    162.8049   9.5307798580e+01   2.0656123986e+01    0.2819986    0.1455686 -55.23  0.001141074    2.155    0.536
        65  -9.2270    150.9613    169.3683   9.4422717391e+01   1.7415704095e+01    0.3010939     0.248911 -61.56  0.001179935    1.333    0.250
        66 -10.8083    248.7790    155.0508   7.1992765382e+01   6.0841073540e-01    0.5696828    0.3816566 -46.48  0.002963176    1.765    0.433
        67  -9.2468    227.6224    153.6128   7.5349960085e+01   4.7979472056e+00    0.3882871    0.2789454 -48.38   0.00198115    1.632    0.387
        68 -10.9913    181.5189    144.6564   8.2412153941e+01   1.5984189527e+01    0.7575526    0.4293559 -54.30  0.003021781    2.203    0.546
        69  -8.5203     49.8987    148.6708   1.1536439605e+02   3.8752080394e+01      0.26884    0.1509036 -88.58    0.0013008    1.906    0.475
        70 -10.4019    249.4923    147.4617   7.0225623747e+01   1.6345951221e+00    0.5445983    0.2208364 -34.60  0.002265205    2.233    0.552
        71 -10.2521    233.7861    144.9736   7.2331028441e+01   5.0046329165e+00    0.4761158    0.2247085 -32.89  0.002015379    2.008    0.502
        72 -11.6714    237.9241    136.5476   6.9710181445e+01   5.5611988333e+00    0.7138998    0.4180649 -35.56  0.003393319    1.578    0.366
        73 -11.2843    205.8034    131.4909   7.4342530049e+01   1.3150123889e+01     1.203599     0.753683 -41.64   0.00489821    1.583    0.368
        74  -9.7280    205.2788    120.8992   7.1855093022e+01   1.5197490481e+01    0.5863448    0.3316102 -21.11    0.0022636    2.287    0.563
        75  -8.9062    139.7415    132.6186   8.9221911254e+01   2.7555075056e+01    0.2661962    0.1916405 -69.87 0.0008389819    1.719    0.418
        76 -10.1267    250.1432    127.9305   6.5751322751e+01   4.5518186740e+00    0.5006773    0.1627935 -36.22  0.001830955    2.697    0.629
        77  -8.9310    137.1413    143.6925   9.2370158042e+01   2.5653838659e+01    0.2636609    0.2106665 -63.48 0.0008513635    1.335    0.251
        78 -11.0977    155.6662    126.8197   8.3969806969e+01   2.5341586851e+01    0.6762888    0.4095288 -57.38  0.002713886    1.970    0.492
        79  -8.9895     74.9464    124.7738   1.0478610884e+02   4.1189108896e+01    0.3782048    0.1963314 -63.80  0.001650286    1.850    0.459
        80  -9.6949    119.6283    121.5108   9.1727782968e+01   3.4201666135e+01    0.4838739    0.3272733 -59.43  0.002168429    1.557    0.358
        81  -8.4617    240.2979    120.9631   6.5704823042e+01   7.6238353980e+00     0.236558   0.08841252 -49.61 0.0007031561    4.151    0.759
        82  -9.0514    138.8414    121.0097   8.6625878108e+01   3.0305728550e+01    0.2644872     0.185594 -75.09  0.001090563    1.988    0.497
        83  -7.9365     82.6453    121.3160   1.0190336968e+02   4.0856107972e+01    0.1507385     0.107806  76.91 0.0001005289    1.743    0.426
        84  -9.4319    226.7828    117.5894   6.7145874808e+01   1.1024965332e+01    0.4270137    0.2451243 -45.20   0.00187332    1.767    0.434
        85  -9.2276    244.6558    111.7564   6.2848330661e+01   8.2227246736e+00    0.4908683    0.2243569 -56.56  0.001512132    4.509    0.778
        86  -9.5589    248.1246    100.0360   5.9553243584e+01   9.3754415978e+00    0.7814418    0.3357888 -25.81  0.002775142    2.660    0.624
        87  -9.8971    250.3684     91.4387   5.7194074766e+01   1.0254553273e+01    0.7361137    0.1658889 -36.09  0.002285447    3.600    0.722
        88 -10.2002    250.0668    113.6586   6.2472975252e+01   6.8218659513e+00    0.5359586    0.2328537 -32.98  0.002079251    2.067    0.516
        89  -9.0507    249.6800    107.4753   6.1083985770e+01   7.8787040082e+00    0.3929714    0.2061876 -35.40  0.001468486    1.676    0.404
        90 -10.0021    158.9000    115.8446   8.0417522389e+01   2.6913852293e+01    0.3622568    0.2819884  21.97   0.00165229    1.524    0.344
        91  -9.8553    218.1804    110.6401   6.6927493891e+01   1.4117253905e+01    0.8596352    0.2485314 -40.04  0.002687234    3.188    0.686
        92  -9.0513    191.6011    110.5882   7.1914113133e+01   2.0272614610e+01    0.3581039    0.3197168 -74.54  0.001462257    1.268    0.211
        93  -9.0762    234.5188    105.9827   6.3046198168e+01   1.1301404817e+01    0.3805397    0.2824104 -16.71  0.001504449    1.435    0.303
        94  -8.6145    237.6748    104.3230   6.2147184495e+01   1.0894597858e+01    0.2754191    0.2072833 -64.96   0.00138002    1.637    0.389
        95 -10.3543    182.4664    104.3509   7.2131595581e+01   2.3635666147e+01    0.9154654    0.5581261 -57.80  0.003596912    2.093    0.522
        96  -9.7642    154.5635    107.2241   7.9146197729e+01   2.9711399046e+01    0.3923272    0.1559642 -39.30  0.001291607    2.563    0.610
        97  -9.7840     47.0821    102.4198   1.0862644414e+02   5.0094437361e+01    0.4229311    0.2258607 -64.96   0.00125978    1.655    0.396
        98  -8.8679    234.8067     94.7368   6.0242795184e+01   1.3083274373e+01     0.487747    0.2837318 -62.91  0.001956293    2.550    0.608
        99 -10.5443    213.3968     90.0171   6.2473862128e+01   1.8784535291e+01     1.022371    0.3516534 -36.13  0.003442379    2.690    0.628
       100  -8.8348    149.4050     93.7188   7.6599260010e+01   3.3690938128e+01    0.3243417    0.1472194 -44.82  0.001142917    2.222    0.550
       101  -9.3941    245.1164     92.4153   5.8160982566e+01   1.1213501330e+01    0.2805614    0.1651047 -60.37  0.001202321    2.260    0.557
       102  -9.3575    191.1176     90.7322   6.6686328135e+01   2.4059667576e+01    0.5032169    0.3762829 -26.65  0.001816078    1.393    0.282
       103  -8.3964    158.1255     91.1027   7.3772882585e+01   3.2115728915e+01    0.2550639    0.2218104   8.02  0.001236059    1.303    0.233
       104  -9.8845    243.2997     80.6594   5.5565116212e+01   1.3445059680e+01    0.4117251    0.1677677 -44.99  0.001597275    2.329    0.571
       105  -9.4017    120.7867     80.0239   7.9915875592e+01   4.3014498130e+01    0.4105909    0.3348764 -23.60   0.00202353    1.287    0.223
       106  -9.2470    216.6789     79.3257   5.9129896449e+01   1.9784090926e+01    0.4172286    0.3485285 -81.26  0.002166393    1.331    0.249
       107  -9.1079    216.4331     74.0574   5.7779495265e+01   2.0695544530e+01    0.4467877    0.2583768 -43.02  0.001479427    1.634    0.388
       108  -7.8794    195.7778     79.0771   6.2591032124e+01   2.4949545613e+01    0.3199475    0.1533172 -51.28   0.00113196    2.480    0.597
       109  -8.0961     16.5641     78.5261   1.1402028668e+02   5.8299661449e+01    0.1240299   0.09623756 -59.05 9.577759e-05    1.010    0.010
       110 -10.7389    227.3686     67.1849   5.4385600191e+01   1.9156649765e+01    0.7469006    0.5684237 -28.55  0.003879329    1.316    0.240
       111  -8.2476    151.1420     71.1765   6.9368592858e+01   3.7580700893e+01    0.2186397    0.1878992 -73.92 0.0006825728    1.336    0.251
       112  -9.1091    113.1972     71.0945   7.9203808913e+01   4.6421252693e+01      0.24667    0.2144133  38.32 0.0003830454    1.169    0.144
       113  -9.8378    227.4341     60.5797   5.2683100697e+01   2.0136549687e+01    0.6455129    0.4966579  33.32  0.003324373    1.616    0.381
       114  -9.3794    205.4578     66.9838   5.7599791545e+01   2.4520582649e+01    0.5057673     0.318192  58.83  0.002288099    1.613    0.380
       115  -8.8757    140.7926     67.1029   7.0527443900e+01   4.0849123081e+01    0.3622475    0.1976829 -52.79  0.001358945    2.295    0.564
       116  -9.1557    183.4192     69.2579   6.2056938555e+01   2.9731910983e+01    0.5257208    0.2284418 -29.02  0.001828847    2.548    0.608
       117  -9.1223     47.0431     62.0929   9.8667385503e+01   5.9203829898e+01    0.3397776     0.174583 -52.97  0.001323806    1.711    0.416
       118  -8.1232    174.3515     61.6760   6.1516845382e+01   3.3305526982e+01    0.1645623    0.1176439 -70.94 0.0007048078    1.756    0.430
       119  -9.2799    197.4482     57.9373   5.6361254490e+01   2.7950298902e+01    0.5035449    0.2114856 -29.54  0.001818798    2.496    0.599
       120  -7.6513     24.6542     60.3270   1.0689360428e+02   6.1725408394e+01     0.116609   0.09207001  79.07 0.0007050281    1.748    0.428
       121  -8.4498     77.6203     56.7851   8.5622285288e+01   5.5976312474e+01    0.1960595    0.1246444 -48.38 0.0009468346    1.604    0.376
       122  -8.9078    214.4983     55.8737   5.3225604632e+01   2.3972527284e+01     0.246416    0.1955344 -72.20   0.00113965    1.314    0.239
       123  -8.1276    166.5695     52.0231   6.0032428722e+01   3.6832487965e+01    0.2322953    0.1488113 -32.23  0.001023018    1.592    0.372
       124  -9.8378    248.3207     49.2025   4.7360854981e+01   1.6943706273e+01    0.4444503    0.1845392 -25.68  0.001229772    2.785    0.641
       125  -9.3963    249.8639     44.4236   4.6068700898e+01   1.7250471619e+01    0.3855181    0.1884319 -37.59  0.001801048    1.771    0.435
       126  -8.5540    121.7512     49.4004   6.9317375599e+01   4.8378412452e+01    0.2186384    0.1311981  41.48  0.000951615    1.663    0.399
       127  -8.9939    226.5370     42.5513   4.8181516727e+01   2.2914970877e+01    0.4227259    0.2102814 -38.12  0.001741067    1.824    0.452
       128  -9.2875    234.2435    245.9889   9.1476058661e+01  -9.0206733302e+00    0.3587221    0.2512621 -51.76  0.002168873    2.780    0.640
       129  -8.3797    206.3033     43.9554   5.1136422137e+01   2.7729150624e+01     0.253568   0.07051127 -47.38 0.0007040355    4.251    0.765
       130  -9.3838    149.3176     41.0762   5.9909496361e+01   4.2878851409e+01    0.4355593    0.3221483 -52.38  0.001801949    1.514    0.339
       131 -10.2318    243.5040     39.7427   4.5612742931e+01   1.9308046320e+01    0.4467978    0.1841752 -39.64  0.001923636    2.065    0.516
       132 -10.0730    215.3176     41.9455   4.9400150634e+01   2.5743305592e+01    0.4592301    0.1938462  68.95  0.001777453    2.475    0.596
       133  -9.2787    193.8656     33.7399   4.9993688728e+01   3.2276369799e+01    0.5321864    0.2367763  62.01  0.002144414    2.093    0.522
       134 -10.3478    195.8008     40.2257   5.1573528832e+01   3.0923046863e+01    0.5064765    0.2600912 -62.53  0.001895593    2.666    0.625
       135  -8.2834    123.8414     41.8292   6.6023763119e+01   4.9055358285e+01    0.1994954    0.1796959 -80.02   0.00107308    1.331    0.249
       136  -8.3812     72.8504     42.1763   8.1847986530e+01   5.9419431977e+01    0.1887248    0.1447606  -9.52 0.0004382131    1.286    0.222
       137  -9.3336     18.1608     39.5761   1.0359186459e+02   6.6469633715e+01    0.2414572    0.2351727  36.75  0.001831508    1.399    0.285
       138  -8.3692     96.5141     39.0081   7.2611564353e+01   5.5526540669e+01    0.1942742    0.1152158 -53.59 0.0008096943    2.479    0.597
       139  -9.4417    215.4036     37.7546   4.8278259823e+01   2.6282871555e+01    0.2808427    0.1208551 -35.61  0.001139456    2.146    0.534
       140  -9.2884    178.1137     34.9771   5.2704705170e+01   3.6218611051e+01    0.5000209    0.3251429 -13.96  0.002184196    1.890    0.471
       141  -9.4966    173.2105     34.9006   5.3474587318e+01   3.7511666458e+01    0.6320706     0.285945 -36.88  0.002515323    2.182    0.542
       142  -9.3216    161.6564     35.9608   5.5813600304e+01   4.0390887677e+01    0.4209831    0.3429222  85.42  0.001977555    1.309    0.236
       143  -8.7401    142.7949     36.7988   5.9809847825e+01   4.5123576395e+01    0.2067415    0.1763511 -74.33   0.00107455    1.358    0.264
       144 -11.9044    214.5333    238.5245   9.3740987450e+01  -5.2163624026e+00     0.948796    0.8070827 -51.44  0.006561099    1.805    0.446
       145 -10.1748    209.2504    222.8225   9.2178041072e+01  -2.3603772473e+00    0.5563236    0.3267431 -41.21  0.003005221    2.061    0.515
       146  -8.9592    183.1796     28.1124   4.9866278475e+01   3.5756251223e+01    0.4219688    0.3122841 -36.26  0.002172889    1.382    0.276
       147  -9.5471    126.6339    248.4722   1.1107788268e+02   7.4238422913e+00    0.1942756    0.1488664 -58.84 0.0007984781    1.638    0.389
       148 -10.0791    120.1761    243.5482   1.1172275233e+02   9.1998982791e+00    0.2028236    0.1820928  55.88 0.0002746418    1.172    0.147
       149 -10.6867    176.5831    240.1338   1.0086022313e+02   6.3594423430e-01    0.4456296    0.3803826  65.26  0.001441328    1.466    0.318
       150  -9.6722    176.3488    231.6234   9.9685072093e+01   1.8830023852e+00    0.3971328    0.2678419 -30.69  0.002350837    1.840    0.457
       151  -8.9408     38.9955    243.4862   1.2600640023e+02   2.0365843857e+01    0.1660425   0.04937478  55.21 0.0008104586    2.608    0.617
       152 -10.1835    245.9158    238.9199   8.8379438408e+01  -9.9203516520e+00    0.3789776    0.2484404  -5.84  0.002099373    1.451    0.311
       153  -9.3696    111.1959     18.0878   6.0046549982e+01   5.5079998310e+01     0.260026    0.1868708 -84.56  0.001250866    2.138    0.532
       154 -10.3931    249.4815    234.7153   8.7092360322e+01  -9.9682115451e+00    0.3983598    0.2540937 -31.00  0.002591437    1.778    0.438
       155 -10.1099    247.4976    226.0534   8.5969317266e+01  -8.7148292047e+00    0.4646872     0.216603 -32.44  0.002522969    2.264    0.558
       156  -8.7011    132.4219    233.3051   1.0825442058e+02   8.9172176900e+00     0.147049    0.1157788 -83.53 0.0008514758    1.537    0.349
       157  -9.3599    127.7605     23.8808   5.8411076040e+01   5.0489164410e+01      0.26808    0.1902264 -44.85   0.00134301    1.604    0.377
       158  -9.8635    249.9340    220.0208   8.4513631425e+01  -8.3718266619e+00    0.4763369    0.2245402 -32.42  0.002564681    2.197    0.545
       159 -10.8653    150.8617    220.3699   1.0296312597e+02   7.9708274111e+00    0.5812639    0.2940962 -60.96   0.00258686    2.879    0.653
       160  -9.0329    181.4628    222.8223   9.7386188028e+01   2.3134294669e+00    0.2434608     0.218972  17.94 0.0008202668    1.118    0.105
       161  -9.6276    120.4623    218.4097   1.0872892282e+02   1.3440040139e+01    0.2725793    0.2086435  78.65  0.000932976    1.407    0.289
       162  -8.3843    233.1913    213.6423   8.6282814896e+01  -5.0269466259e+00    0.5635892    0.3165482  28.99  0.003095481    1.578    0.366
