#   1 NUMBER                 Running object number                                     
#   2 MAG_AUTO               Kron-like elliptical aperture magnitude                    [mag]
#   3 X_IMAGE                Object position along x                                    [pixel]
#   4 Y_IMAGE                Object position along y                                    [pixel]
#   5 X_WORLD                Barycenter position along world x axis                     [deg]
#   6 Y_WORLD                Barycenter position along world y axis                     [deg]
#   7 A_WORLD                Profile RMS along major axis (world units)                 [deg]
#   8 B_WORLD                Profile RMS along minor axis (world units)                 [deg]
#   9 THETA_WORLD            Position angle (CCW/world-x)                               [deg]
#  10 FWHM_WORLD             FWHM assuming a gaussian core                              [deg]
#  11 ELONGATION             A_IMAGE/B_IMAGE                                           
#  12 ELLIPTICITY            1 - B_IMAGE/A_IMAGE                                       
         1  -8.8528    214.1184      4.2578   5.3444997706e+01   3.1994255856e+01    0.3858707    0.2393303 -88.34  0.001900234    1.339    0.253
         2  -8.6778    116.0790    243.9455   1.2332956252e+02   6.5921762303e+00    0.4487877    0.1989822 -65.68  0.001829082    2.948    0.661
         3  -7.4312    250.5101    250.4812   9.7443571159e+01  -1.4892136247e+01    0.1186325   0.09168475  -5.47 0.0008102977    1.007    0.007
         4 -11.5367    231.2518    250.5605   1.0094689906e+02  -1.2461303616e+01    0.2555662    0.1284617  31.56 0.0002197565    1.880    0.468
         5 -14.1215     11.0650    210.9391   1.4183838335e+02   2.8184841503e+01     5.446285       3.1562  29.69   0.03125801    2.120    0.528
         6  -9.1281    249.2175    240.4209   9.5944399976e+01  -1.3293375666e+01    0.2194357    0.1745792 -38.82 4.978137e-05    1.479    0.324
         7 -10.3739    125.2845    231.4723   1.1959110809e+02   7.6326949370e+00    0.5964677    0.4153685 -73.81  0.003038358    1.725    0.420
         8  -8.6759     87.4830    234.6280   1.2823098474e+02   1.3067641496e+01    0.2630323    0.1596132  37.00  0.001333228    1.629    0.386
         9  -8.3984     83.3224    231.4066   1.2873190258e+02   1.4403823214e+01    0.2668803    0.2079183  69.00  0.001161941    1.181    0.153
        10  -8.7033     71.5666    231.0757   1.3120349416e+02   1.6214783181e+01    0.2498478    0.2072257  -5.14  0.001246524    1.884    0.469
        11  -8.3598    112.5882    230.8332   1.2228603162e+02   9.8857987600e+00    0.1948226    0.1295074 -77.39 0.0009513393    1.802    0.445
        12 -10.3036    143.0629    227.7048   1.1510372811e+02   5.3798878249e+00    0.3590219    0.2891775   0.26 0.0006129721    1.538    0.350
        13  -9.0286    103.8620    229.2592   1.2398523731e+02   1.1652584650e+01    0.3920728    0.2504955  14.53  0.001710489    2.592    0.614
        14  -8.2592     67.3561    226.0831   1.3153723069e+02   1.7932934199e+01    0.2583272    0.1743053  14.45   0.00125458    2.419    0.587
        15  -8.5689     95.8829    223.8367   1.2501295780e+02   1.4132489862e+01    0.2369349    0.2258681 -43.78  0.001012554    1.255    0.203
        16  -8.4953    121.7608    223.2062   1.1913131888e+02   9.9911036244e+00    0.1849274    0.1690149   0.06 0.0007202317    1.295    0.228
        17  -9.0851     79.7773    220.9725   1.2821688988e+02   1.7278392461e+01    0.2841649    0.2037123 -67.16 0.0006857004    1.376    0.273
        18  -9.0917     69.8865    219.6988   1.3024466457e+02   1.9025787446e+01    0.3249476    0.2008656  85.69  0.001126886    1.793    0.442
        19  -8.1566     89.7107    219.8321   1.2585245330e+02   1.6013092940e+01    0.2459593    0.1733453  89.13   0.00125901    1.540    0.351
        20  -7.6169    145.1556    212.9204   1.1217629566e+02   8.1226917973e+00    0.2113529     0.185677  66.81 0.0003892088    1.221    0.181
        21  -8.2871     78.1354    211.9241   1.2741830248e+02   1.9622195231e+01     0.212757    0.1638473  69.88 0.0004199317    1.242    0.195
        22 -13.9751     59.4336    248.5827   1.3547851046e+02   1.4155393559e+01     3.943602     1.279411  38.03   0.01664285    2.808    0.644
        23  -8.7237    101.5861    201.9195   1.2048883390e+02   1.8267589137e+01    0.4743379    0.2863837  88.64  0.001906542    2.465    0.594
        24 -12.9817     12.0202    240.7673   1.4380365911e+02   2.1553062637e+01    0.4441667    0.2869104  67.97  0.001556221    1.238    0.192
        25  -7.6176    135.7824    195.7839   1.1129164672e+02   1.3654405536e+01    0.2043729    0.1706916  80.60 0.0005284525    1.362    0.266
        26  -7.6393     82.3580    194.6469   1.2398784490e+02   2.3127362479e+01    0.2300889    0.1549995  70.61   0.00108312    1.670    0.401
        27 -14.9573     23.2242    248.9559   1.4233400460e+02   1.8615095802e+01     1.133205    0.9536065 -50.37  0.003077108    1.746    0.427
        28  -9.8342     58.4176    186.1658   1.2859632012e+02   2.8679491894e+01      0.69594    0.2724676  55.01  0.002429611    3.412    0.707
        29  -8.8347     14.0829    184.0959   1.3883346208e+02   3.4176552819e+01    0.2153762    0.1962156  -6.43 0.0007477057    1.534    0.348
        30  -8.2439     79.0550    183.0588   1.2301025586e+02   2.6501334060e+01     0.239535    0.1640305  75.66 0.0009246954    1.697    0.411
        31  -8.6118      4.9875    181.4942   1.4063062289e+02   3.5596238773e+01    0.3934337    0.2409052 -22.58  0.002015843    2.913    0.657
        32 -10.8161     31.3696    158.9657   1.3168542703e+02   3.8657110099e+01    0.8308622    0.4479692 -27.61   0.00344919    3.211    0.689
        33 -10.4630     35.4593    154.1976   1.2992198964e+02   3.9421124827e+01    0.7253214    0.2540068  27.34  0.002833379    3.339    0.700
        34  -9.5350      9.3513    175.8180   1.3909925249e+02   3.6581129614e+01    0.4328271    0.2698122  36.67  0.002526044    1.818    0.450
        35 -10.6959     15.9402    173.1933   1.3728124032e+02   3.6635753891e+01     1.129682    0.4039947  30.81  0.004989065    3.056    0.673
        36 -10.9402     20.1724    168.1085   1.3568684302e+02   3.7487579975e+01    0.5910811     0.465853 -79.12  0.002667668    1.036    0.035
        37  -8.7558     86.0656    170.5016   1.1909499153e+02   2.8558667620e+01    0.3291177    0.1985146 -48.20   0.00115639    1.673    0.402
        38  -8.8351    237.8565    174.4525   8.5593584817e+01  -5.6243789674e-01    0.2495053    0.2291628  27.38 0.0009044271    1.227    0.185
        39  -8.2830     82.7411    175.5091   1.2083000480e+02   2.7824070240e+01    0.3406702     0.201985 -40.00  0.001270502    2.062    0.515
        40  -8.6962    238.3815    169.7337   8.4557167083e+01   2.3045396538e-01    0.2308913    0.1991566 -23.15 0.0002534032    1.102    0.092
        41  -9.3083     93.3987    167.5400   1.1662912564e+02   2.8103772506e+01    0.2734526     0.255142 -68.22 0.0002460071    1.032    0.031
        42  -8.1498     92.8467    162.0253   1.1572850675e+02   2.9583249477e+01    0.3348343    0.1888197 -55.28  0.001146884    1.669    0.401
        43  -8.3313    159.8926    165.9062   9.9616538843e+01   1.5875381462e+01    0.2204885    0.2161319 -69.32  0.000304498    1.025    0.024
        44  -8.1211    238.7713    164.9469   8.3526137173e+01   1.0617127901e+00    0.1995917     0.162458 -25.70 0.0003780828    1.180    0.152
        45 -10.1163    206.7557    162.4531   8.8847195635e+01   7.3111012632e+00    0.2646568    0.2592459 -83.00 0.0004519837    1.119    0.107
        46 -14.3561     11.5183    249.6024   1.4445645424e+02   1.9778908245e+01     1.153346    0.4326744  58.81  0.004791272    2.332    0.571
        47  -7.3509     57.2821    160.3542   1.2500630759e+02   3.5313634727e+01    0.1466828   0.09980889 -40.07 0.0003408943    1.660    0.397
        48  -8.9822    249.5377    179.3520   8.4568642026e+01  -3.3091114746e+00    0.2788007    0.2249821 -70.16 0.0008412343    1.720    0.418
        49 -10.0018     81.7466    156.4643   1.1766305642e+02   3.2787786773e+01    0.4113507    0.2720645 -41.90  0.001046627    1.618    0.382
        50  -8.3020     97.3404    155.1266   1.1315046838e+02   3.0549012852e+01    0.4167431    0.1731272 -53.07  0.001501254    2.252    0.556
        51  -9.8066     51.4673    154.0156   1.2554354356e+02   3.7646534413e+01    0.4129774    0.2655273 -29.61  0.001921802    2.103    0.524
        52  -8.7395     92.5828    152.1169   1.1383317335e+02   3.2115850887e+01    0.2521484    0.2175273  42.26  0.000287312    1.219    0.180
        53  -7.8906     13.2436    151.9821   1.3549869260e+02   4.2025392470e+01    0.1968242    0.1575377 -18.32 0.0006259558    1.628    0.386
        54 -10.2285     44.4116    146.5900   1.2626981399e+02   4.0341004462e+01    0.5120209    0.3282303 -34.99  0.002511367    1.851    0.460
        55 -14.1357     18.9604    231.0736   1.4183702174e+02   2.2880771571e+01     1.825195    0.9544582  30.76  0.009944165    2.324    0.570
        56  -9.0249     70.6573    145.3190   1.1860449440e+02   3.7267873856e+01    0.3395389    0.2207664 -76.03  0.001272631    1.745    0.427
        57  -9.9300     67.2335    142.9855   1.1912703579e+02   3.8340837843e+01    0.4390494    0.3708097  71.56  0.001392917    1.309    0.236
        58  -8.6985    226.1468    145.0317   8.1576238634e+01   7.1281520560e+00    0.2037753    0.1981065 -60.70 0.0002839272    1.107    0.097
        59  -7.4295    154.4369    143.3817   9.5851407256e+01   2.2175613324e+01     0.153563    0.1500162 -14.49 0.0001538103    1.078    0.072
        60  -9.7567     52.1458    140.4422   1.2299296228e+02   4.0960190654e+01    0.4658492    0.2982063   5.82  0.002149036    2.282    0.562
        61  -8.7279     97.3443    139.9485   1.0991586661e+02   3.4314648299e+01    0.2577941    0.2229356  21.92 0.0004070147    1.289    0.224
        62  -7.2924    159.1658    138.6286   9.3630077048e+01   2.2243888893e+01    0.1997691    0.1496135  34.97 0.0002821967    1.470    0.320
        63  -7.3900     10.4834    146.9425   1.3559263446e+02   4.3463876729e+01    0.1918942     0.103703 -70.72 0.0003841851    1.490    0.329
        64 -10.4432     58.6717    132.7091   1.1959540841e+02   4.2047666311e+01     0.497013    0.3602901 -22.70  0.002493069    1.694    0.410
        65  -9.7178     68.0437    125.2106   1.1519680914e+02   4.2594098939e+01    0.3668155    0.2545991 -27.46  0.001755445    1.696    0.410
        66  -7.5840    103.4942    126.5639   1.0507376416e+02   3.6430224179e+01     0.151751      0.14672 -46.71 0.0001563481    1.009    0.009
        67  -6.8781    246.3272    123.3115   7.3852189295e+01   7.5014207799e+00    0.1281743    0.1039658 -11.47 0.0007041403    1.664    0.399
        68  -7.6119    243.4728    119.9821   7.3588102816e+01   8.6338828800e+00     0.209218    0.1164275 -44.15 0.0005525775    1.534    0.348
        69  -7.0463    182.4187    120.4264   8.4235817488e+01   2.1094840919e+01    0.1507012    0.1419636 -61.62 7.382494e-05    1.008    0.008
        70  -8.3209     76.0110    116.9645   1.1086512552e+02   4.3369625646e+01    0.2308508    0.1807133  80.44  0.001134021    1.711    0.415
        71  -8.9449     42.3854    130.5333   1.2403622737e+02   4.4529738500e+01    0.3023163    0.1890541  36.80 0.0009114664    1.799    0.444
        72  -8.4685    168.3200     97.0469   8.1385537265e+01   2.8943924798e+01    0.2366329    0.2060579  61.83 0.0004676092    1.144    0.126
        73  -7.7907    131.1049     95.8882   8.9596345794e+01   3.7554067034e+01    0.2129844    0.1971118  83.31 0.0003098399    1.154    0.133
        74  -9.5551    224.6202     90.1057   7.0041651766e+01   1.7722566609e+01    0.2535509    0.2241661  76.81 0.0005252155    1.185    0.156
        75  -7.9229    228.8693     85.9775   6.8569998177e+01   1.7551880853e+01    0.1897281    0.1780394 -59.27 0.0005369794    1.196    0.164
        76  -7.7033    157.6560     81.3209   7.9532241511e+01   3.4304939404e+01    0.1539606    0.1123118 -81.18 0.0007049905    1.727    0.421
        77  -7.6615    219.6763     79.7443   6.8504360534e+01   2.0536815383e+01    0.1208036    0.1073219  31.49 0.0002300551    1.547    0.353
        78  -8.5743    111.6695     77.9307   8.9611617675e+01   4.5083177596e+01    0.2764331    0.2273458  84.22 0.0001806708    1.597    0.374
        79  -8.3924    126.3002     74.0603   8.4663364668e+01   4.2660294703e+01    0.2069719    0.1950233 -45.48  0.001183914    1.108    0.098
        80  -9.0300    211.9430     71.2848   6.7734565589e+01   2.3603401336e+01    0.2562786    0.1624144  61.76  0.001321424    1.587    0.370
        81  -8.0843    168.8995     70.8912   7.4600203413e+01   3.3472013966e+01    0.2170192    0.1960729  82.20 0.0006307215    1.037    0.035
        82  -9.0606    137.0165     66.9999   8.0093723626e+01   4.1455618654e+01    0.2128184    0.2027453  68.77 0.0003065534    1.034    0.033
        83  -9.8333    142.6853     60.1719   7.6923749158e+01   4.1236384522e+01    0.3894862    0.2522298  55.00  0.001183215    1.438    0.304
        84 -10.3703    125.0077     56.2106   7.9731063533e+01   4.5797575988e+01    0.2432595    0.2352103  -6.07 0.0002730119    1.098    0.089
        85  -8.4620    136.2653     53.0275   7.6263733217e+01   4.3747905461e+01    0.1832759    0.1772542  54.34 0.0003572212    1.054    0.051
        86  -8.8214    156.5841     50.4599   7.1525232607e+01   3.9443753819e+01    0.2553646    0.2134669 -69.27 0.0009394826    1.253    0.202
        87  -8.8931    172.4670     48.1539   6.8209280275e+01   3.6072527895e+01    0.2305053    0.1707877  88.87   0.00082279    1.372    0.271
        88  -9.2088    220.9077     41.7117   6.0295420535e+01   2.6057253640e+01    0.3172556    0.2138177 -44.03  0.001009614    1.486    0.327
        89  -7.8190    166.4702     42.4961   6.7744958630e+01   3.8224998657e+01    0.1331249    0.1183065  73.55 -4.599824e-05    1.039    0.038
        90  -9.9674    191.7574     28.8119   6.0888338402e+01   3.4141155800e+01    0.4013304    0.3232626   5.71  0.002398063    1.983    0.496
        91 -10.2035    186.4429     34.3240   6.2825864375e+01   3.4669461525e+01    0.3671158    0.2149842 -28.44    0.0018831    2.148    0.534
        92  -9.5408    185.8245     28.7353   6.1610370491e+01   3.5491820988e+01    0.3312171     0.257446  69.56  0.002066196    1.166    0.142
        93  -8.0902    175.3130     35.6915   6.4691449308e+01   3.7049123121e+01    0.1347066   0.09028409 -75.36 0.0003215238    1.625    0.385
        94  -8.6441    194.0395     33.9945   6.1775045247e+01   3.2989061571e+01    0.1974742    0.1614973 -88.40 0.0004445669    1.037    0.036
        95  -6.9914    167.3896     24.4564   6.3061928043e+01   4.0191352730e+01    0.1257572    0.1070436  85.88 0.0001643279    1.048    0.045
        96  -8.2155    191.9652     22.2365   5.9391313926e+01   3.4864819411e+01    0.2331709    0.1543631  56.94  0.001181102    1.533    0.348
