#   1 NUMBER                 Running object number                                     
#   2 MAG_AUTO               Kron-like elliptical aperture magnitude                    [mag]
#   3 X_IMAGE                Object position along x                                    [pixel]
#   4 Y_IMAGE                Object position along y                                    [pixel]
#   5 X_WORLD                Barycenter position along world x axis                     [deg]
#   6 Y_WORLD                Barycenter position along world y axis                     [deg]
#   7 A_WORLD                Profile RMS along major axis (world units)                 [deg]
#   8 B_WORLD                Profile RMS along minor axis (world units)                 [deg]
#   9 THETA_WORLD            Position angle (CCW/world-x)                               [deg]
#  10 FWHM_WORLD             FWHM assuming a gaussian core                              [deg]
#  11 ELONGATION             A_IMAGE/B_IMAGE                                           
#  12 ELLIPTICITY            1 - B_IMAGE/A_IMAGE                                       
         1 -14.8193     43.6883    202.2587   1.2784679885e+02   2.9808410744e+01     7.782886     1.162976  52.06   0.02962312    5.029    0.801
         2 -15.0431      7.7473    147.8891   1.3117516218e+02   4.3232851165e+01     4.782282     1.020761 -82.85    0.0178339    4.897    0.796
         3 -12.9842    198.4555     33.2533   6.0342311275e+01   3.1327248897e+01      1.28704     1.097152  36.99  0.006067111    1.202    0.168
         4 -13.7670    212.8988     16.3247   5.3334595695e+01   2.9449172637e+01     1.761777     1.132906  25.79  0.008074313    1.911    0.477
         5 -11.2544      2.5340     15.5339   1.1404600718e+02   7.1296728337e+01    0.4140997     0.180593 -69.81    0.0021307    2.402    0.584
         6 -10.4282      1.9225      5.1913   1.1070732918e+02   7.3312550715e+01    0.5130642   0.09844279 -59.14  0.001939273    4.060    0.754
         7 -10.6612     16.9292     25.4666   1.1030999200e+02   6.8446994653e+01    0.2077555    0.1971769 -67.73 0.0005061896    1.280    0.219
         8 -11.0604    162.8133    249.4306   1.1218019457e+02   7.1127592454e+00    0.2796933    0.1246584  47.80  0.001710063    1.699    0.411
         9 -11.6679    139.3991    248.7998   1.1577398959e+02   1.0548913346e+01    0.3006472    0.2181969  46.18  0.002213828    1.049    0.046
        10 -11.7791    126.7159    246.3916   1.1754249321e+02   1.2626993862e+01    0.3648107    0.2287605  85.58  0.002473979    2.321    0.569
        11 -12.5163    107.4120    244.5681   1.2042228089e+02   1.5501050809e+01    0.6027984    0.2088836  52.22   0.00330449    2.319    0.569
        12 -12.1869     93.1235    249.6059   1.2301949389e+02   1.6698845043e+01    0.4269615    0.3401565 -85.35  0.003784787    1.465    0.317
        13 -11.4027    101.0004    249.2908   1.2178682519e+02   1.5725702760e+01    0.3507342    0.2225377 -80.96  0.002513773    1.930    0.482
        14  -8.9479     62.9630    250.5099   1.2762530156e+02   2.0233304198e+01    0.1428214    0.0673378  46.10 0.0004453274    1.547    0.353
        15 -11.5001     30.4146    249.0350   1.3229400503e+02   2.3950955866e+01    0.3995906    0.3071269  36.85  0.003636523    1.794    0.442
        16 -11.4862     38.8595    247.1582   1.3099922405e+02   2.3348957271e+01    0.4506588    0.2628911  50.31  0.003757292    1.283    0.220
        17 -12.4816      7.4940    226.2312   1.3479383854e+02   2.9497549027e+01    0.5377448    0.3583462  77.94  0.004868316    1.166    0.142
        18 -11.0173     19.9821    243.7870   1.3358463970e+02   2.5725521267e+01    0.4675703    0.1237855  62.60   0.00263903    3.038    0.671
        19 -11.6226     13.1313    245.6380   1.3461703967e+02   2.6108048495e+01    0.4962339    0.1845026  81.28  0.003369356    2.440    0.590
        20 -12.2317     12.3618    239.0007   1.3450937465e+02   2.7139403111e+01    0.5704721    0.2114648  74.01  0.003825918    2.278    0.561
        21  -9.9560      8.2076    250.3903   1.3544416476e+02   2.5889091064e+01    0.2546643   0.09205338  45.04  0.001491766    1.924    0.480
        22 -11.2776      2.0562    248.0495   1.3621955096e+02   2.6769702530e+01    0.6788914    0.1533369 -84.06  0.003784941    4.250    0.765
        23 -13.7765     10.1132    207.1262   1.3369098346e+02   3.2301051661e+01     1.434097    0.5974093  84.44  0.002991444    2.050    0.512
        24 -10.6661    248.8659    247.9958   9.8973124919e+01  -5.1292584782e+00    0.2258586    0.1467619  16.40  0.001758748    1.278    0.217
        25 -11.5226     59.2454    193.1015   1.2443167814e+02   2.9625808308e+01    0.2868918    0.2100846 -53.51 0.0008804086    1.887    0.470
        26 -11.6293     65.4215    185.6655   1.2265920651e+02   3.0200610538e+01    0.2283905    0.2034622 -66.57 0.0007391438    1.447    0.309
        27  -9.5634    191.9643    192.9485   9.9984382450e+01   9.2696930454e+00    0.2801453    0.1575789 -62.34    0.0011534    4.560    0.781
        28  -8.3325    181.5090    192.4608   1.0175100648e+02   1.1145357035e+01    0.1234639    0.1004372  36.94 3.604848e-05    1.012    0.012
        29 -10.2272    151.0051    228.9723   1.1186722661e+02   1.1295274861e+01     0.178737    0.1334114  45.02  0.001320047    1.022    0.021
        30 -10.8513     75.7063    173.7966   1.1950421188e+02   3.1068760845e+01    0.2055569    0.1768982  86.86 0.0004372176    1.138    0.121
        31 -13.1229     62.4997    171.1583   1.2187983637e+02   3.3236293217e+01    0.4040521    0.2439663 -49.14  0.001770661    2.272    0.560
        32 -11.8187     83.8153    165.2053   1.1687850266e+02   3.1597062240e+01    0.6725399    0.4343103  55.41   0.00410914    1.377    0.274
        33 -12.5020     31.5249    225.4029   1.3110845783e+02   2.7331032694e+01    0.2388533    0.2079406  67.33 0.0007740066    1.431    0.301
        34 -12.3383     67.4591    143.7867   1.1776846669e+02   3.8029702477e+01    0.7135308    0.4355218  73.15  0.003586867    1.744    0.427
        35 -11.4323     58.1929    133.7133   1.1861815430e+02   4.1263548103e+01     1.490999     0.487528 -79.67  0.003589759    9.516    0.895
        36  -9.1521     99.9478    145.9676   1.1074532119e+02   3.2981660976e+01    0.2194301    0.1741029 -38.30   0.00130078    1.617    0.382
        37 -11.8976     85.1532    148.7013   1.1445113176e+02   3.4643916733e+01    0.2439016    0.2153577 -60.88 0.0004779155    1.272    0.214
        38 -13.7812     37.8368    217.3276   1.2970367290e+02   2.7950427962e+01     0.723175    0.5088826  62.60  0.003154867    1.063    0.059
        39  -9.2585    108.9388    135.5508   1.0696572065e+02   3.3615765566e+01    0.2823345    0.2032426 -16.03  0.001367311    2.461    0.594
        40 -10.4020     96.0184    132.5765   1.0946613858e+02   3.6309958754e+01    0.2274829    0.2068156 -42.56 0.0004562713    1.300    0.231
        41  -9.0218    106.1646    122.8617   1.0526417715e+02   3.6671511287e+01    0.1866941    0.1653154  82.03 0.0003073142    1.099    0.090
        42 -10.5289     45.0625    232.8910   1.2938489336e+02   2.4768180583e+01    0.2595513    0.1452373  59.47  0.002011219    1.264    0.209
        43  -9.7858     96.8036    149.8311   1.1203179692e+02   3.2700222753e+01    0.2394241    0.2113509  83.22 0.0006960073    1.041    0.039
        44  -9.8995    167.7376    112.7997   8.8903165027e+01   2.6514767632e+01    0.3387643     0.267811 -74.00  0.001137211    1.666    0.400
        45  -9.2033    203.4505    111.4954   8.1541267774e+01   1.8808683325e+01    0.1457936    0.1328478  13.69 7.098124e-05    1.032    0.031
        46 -10.8725    243.7057     93.0032   7.0304479008e+01   1.2549007254e+01     0.207559    0.1777349 -12.59  0.001189831    1.066    0.062
        47 -10.3066    182.4826    249.5261   1.0913909327e+02   4.2333137427e+00    0.2019563   0.07131986  36.58  0.001036854    2.401    0.584
        48  -8.4839    184.5105     77.4605   7.6083084729e+01   2.8618814976e+01    0.1532985    0.1432124  15.13 4.548506e-05    1.055    0.052
        49 -10.8840    227.5772    203.7454   9.5734954418e+01   2.0208720144e+00    0.2805115    0.2254029 -55.24  0.001090432    2.123    0.529
        50 -10.6759    198.1464    246.2720   1.0634438677e+02   2.2601592295e+00    0.1803883   0.09962261  32.57  0.001144726    1.456    0.313
        51 -10.8701     55.2344    239.2414   1.2816508924e+02   2.2706374753e+01    0.3266172    0.1678666  85.07 0.0009215577    1.967    0.492
        52  -9.3018     48.5367    236.9857   1.2906610188e+02   2.3781149459e+01    0.1300827   0.07771274  89.95 0.0007673781    1.592    0.372
        53 -10.5021     19.9901    234.8921   1.3325514736e+02   2.7027767215e+01    0.1919065    0.1585228  22.88    0.0017019    2.149    0.535
