#   1 NUMBER                 Running object number                                     
#   2 MAG_AUTO               Kron-like elliptical aperture magnitude                    [mag]
#   3 X_IMAGE                Object position along x                                    [pixel]
#   4 Y_IMAGE                Object position along y                                    [pixel]
#   5 X_WORLD                Barycenter position along world x axis                     [deg]
#   6 Y_WORLD                Barycenter position along world y axis                     [deg]
#   7 A_WORLD                Profile RMS along major axis (world units)                 [deg]
#   8 B_WORLD                Profile RMS along minor axis (world units)                 [deg]
#   9 THETA_WORLD            Position angle (CCW/world-x)                               [deg]
#  10 FWHM_WORLD             FWHM assuming a gaussian core                              [deg]
#  11 ELONGATION             A_IMAGE/B_IMAGE                                           
#  12 ELLIPTICITY            1 - B_IMAGE/A_IMAGE                                       
         1 -13.0500    198.2175      3.0755   1.2833324266e+01   3.3921282540e+01     1.147003    0.3791012  77.86  0.004003826    3.241    0.691
         2 -14.3231    226.4771      9.6200   1.1645839225e+01   2.6223986788e+01     1.541605    0.9361256 -54.39  0.008163488    1.547    0.354
         3 -13.7742    246.5715     28.3422   1.4069987137e+01   1.9270465253e+01     1.005643     0.730116 -11.87  0.003320607    1.905    0.475
         4 -12.2915    208.4096     10.3567   1.3620666804e+01   3.0596914335e+01    0.3481686    0.2914877  65.38  0.002074691    1.186    0.157
         5 -12.7983    211.0598      4.9597   1.1994336353e+01   3.0502648315e+01    0.6908869    0.4447845 -85.19  0.003183483    1.490    0.329
         6 -13.8392    238.4400     14.0508   1.1583073235e+01   2.2881518883e+01     1.686014    0.2818397 -34.20  0.005537483    4.279    0.766
         7 -13.5285    248.5446      9.7321   9.7714813531e+00   2.1055283957e+01     1.438536    0.7246295 -31.30  0.007256251    2.039    0.510
         8 -11.7385    111.2222     19.2421   3.2746177103e+01   5.4126519656e+01    0.3726427    0.2650265  -8.61  0.001241492    1.514    0.339
         9 -12.5956    186.9941     13.7387   1.7032665402e+01   3.5708708755e+01    0.5186898    0.3251921 -19.58 0.0003893297    1.916    0.478
        10 -11.9504    182.7706     12.5943   1.7262198081e+01   3.6924689808e+01    0.3512067    0.2821494  70.23  0.000612238    1.107    0.097
        11 -10.8124    123.4101     10.9825   2.6782815147e+01   5.2154933341e+01    0.3993106    0.1857082  52.11  0.001775343    1.807    0.447
        12 -11.9342     30.7814     11.6535   5.7823738783e+01   6.8978641628e+01    0.2961863    0.2125238 -31.87   0.00104788    1.301    0.232
        13 -10.3208     39.5616      9.7176   5.2946360028e+01   6.8197847949e+01     0.213842    0.1890105 -42.72 0.0007463971    1.695    0.410
        14 -11.5071     43.6118     12.1501   5.2325497553e+01   6.7345054402e+01    0.2250088    0.1746779  -3.38 0.0003639647    1.025    0.024
        15 -10.7836     45.9573      9.2588   4.9973678932e+01   6.7404715411e+01    0.1887713    0.1416756 -15.56 0.0002367111    1.144    0.126
        16 -10.0806     20.2504     13.5862   6.3692944229e+01   6.9754992698e+01    0.1421691   0.09165419   1.66 0.0003678708    1.506    0.336
        17 -10.8530    157.8544     11.3448   2.0509204104e+01   4.3513412488e+01    0.2318579    0.1879871 -46.05 0.0007417367    1.360    0.265
        18 -11.2451    149.4361     12.1237   2.2159067858e+01   4.5594033624e+01    0.2989995    0.1847344  58.22 5.814144e-05    1.401    0.286
        19 -11.1431    153.0870      9.5014   2.0692659373e+01   4.4917980321e+01    0.2728584    0.2106883 -48.02 0.0008466066    1.452    0.311
        20 -11.0325    150.2495      6.0256   2.0031410441e+01   4.5968245002e+01    0.3160641     0.183419  70.80 0.0007126113    1.607    0.378
        21 -11.4079    153.7937      3.3946   1.8624645954e+01   4.5301009494e+01    0.3549595    0.2317484  58.83  0.001328288    1.310    0.236
        22 -10.3525    134.8712      9.8473   2.4043343778e+01   4.9476149530e+01    0.2037502    0.1604882  42.40 0.0002702166    1.159    0.137
        23  -9.5196    115.5694      8.0050   2.7393464446e+01   5.4288374089e+01    0.1716273    0.1303749 -14.09 0.0001401175    1.420    0.296
        24 -11.7201    167.8303      5.3346   1.7171268057e+01   4.1516680944e+01    0.3976841     0.323495  -9.88  0.001551174    1.467    0.318
        25 -11.8322    176.9342      3.9546   1.5555266158e+01   3.9294064978e+01    0.4394963    0.3158107 -71.87  0.002210547    1.474    0.322
        26 -12.0541    127.6791      4.2111   2.3436790985e+01   5.1751985496e+01      0.30299    0.2713938  89.91  0.001737644    1.266    0.210
        27 -11.7402      3.5111      4.3596   6.8200750648e+01   7.2498637314e+01    0.2437623    0.1776299 -33.50 0.0001434588    1.179    0.152
        28 -10.8982      7.6997      2.5889   6.5146758555e+01   7.2459549998e+01    0.2216806    0.1128183 -32.96  0.001408405    1.499    0.333
        29 -10.0944     76.9654      4.9592   3.6505255773e+01   6.2774046120e+01    0.1825864    0.1552665 -62.92  0.001113164    1.855    0.461
        30 -10.2332     47.8985      5.3488   4.7286109985e+01   6.7610451181e+01    0.3053376    0.1181349  32.85  0.001355107    2.585    0.613
        31 -10.1685     17.5038      4.5057   6.0931823019e+01   7.1349751576e+01    0.1128853   0.08265952 -16.16 0.0008106578    1.003    0.003
        32 -10.6400     88.9249      2.9480   3.2042445678e+01   6.0604027876e+01    0.3409842    0.1699473  58.68 0.0009376862    2.093    0.522
        33 -10.9079     41.0582      2.9509   4.9005943695e+01   6.8855913346e+01    0.1742953     0.133889  -1.31 0.0003186045    1.010    0.010
        34 -10.1620     34.1698      2.3163   5.1768877649e+01   6.9828246436e+01    0.1904551    0.1440306 -46.67  0.001228625    2.086    0.521
        35 -10.2983    117.1971      1.2476   2.4467656717e+01   5.4504655270e+01    0.2870446    0.1071865  64.53   0.00112179    2.593    0.614
        36 -10.3244     59.0397    125.0463   8.0258572128e+01   4.2874313569e+01    0.1906411    0.1701485 -73.40  0.001172206    1.019    0.019
        37 -13.2998    247.0587    247.5589   6.0620403046e+01  -1.2234273696e+01    0.7300263    0.4270002  21.52  0.004622931    1.404    0.288
        38 -10.8653     46.9343    116.3934   8.2125202208e+01   4.6333846678e+01    0.2299363    0.1631082 -66.17 0.0001423369    1.217    0.178
        39  -9.8485     15.3378    115.9139   9.0853835044e+01   4.9343403629e+01    0.1690875    0.1227684 -70.99 0.0004176355    1.088    0.081
        40  -9.4458    213.8642    114.5875   3.9777578221e+01   1.3568031199e+01     0.184909    0.1466755  67.91 0.0002547856    1.453    0.312
        41  -9.6849    187.2037    114.3959   4.4959307709e+01   1.9870719191e+01    0.1978686    0.1502897  62.21 0.0001510746    1.432    0.301
        42 -10.0862      2.2092    114.0281   9.4137714975e+01   5.0650518753e+01    0.1838021    0.1330886  55.04  0.001042232    1.556    0.357
        43  -9.9263     21.0005    118.2903   8.9636392014e+01   4.8364718859e+01    0.1579193    0.1335371 -75.63 0.0002644004    1.058    0.054
        44  -9.3633     71.5255    112.5524   7.4280214686e+01   4.4121163375e+01    0.1387619    0.1262154 -71.84 4.599748e-05    1.047    0.045
        45 -10.4159     62.7864    112.0075   7.6716999867e+01   4.5444679734e+01    0.2577249    0.1367692 -52.73 0.0002093899    1.676    0.403
        46  -9.9917     50.3520    112.0002   8.0346807852e+01   4.6972070500e+01    0.1844116    0.1446806 -62.38  0.000538999    1.102    0.093
        47 -10.7068     36.8897    109.7317   8.3861887225e+01   4.8921516968e+01    0.3110203    0.2493395  49.46  0.001965178    1.417    0.294
        48 -11.6244     45.7215    102.3450   7.9871547867e+01   4.9718547281e+01    0.2446085    0.1907335 -67.69 0.0002814082    1.153    0.132
        49 -10.2159      5.7254    109.0843   9.2604670392e+01   5.1535747941e+01    0.1665954    0.1162287 -68.18 0.0004039656    1.109    0.099
        50 -12.7005    249.3080    103.9952   3.1344184548e+01   7.5462783986e+00     0.655871    0.2742698 -32.23  0.002591714    2.284    0.562
        51 -11.7104     81.1563    103.2092   6.9315571776e+01   4.4831201354e+01     0.275506    0.2304818 -81.34 0.0002399073    1.332    0.249
        52 -11.7257    120.1858    107.9090   5.9347764447e+01   3.6623750675e+01     0.295976    0.2377917  39.22  0.001451077    1.273    0.215
        53  -9.4430     16.4977    104.4348   8.8937705280e+01   5.1855294497e+01    0.1206517   0.09647819 -68.32 0.0008070318    1.009    0.009
        54  -9.2622    143.6494    100.6750   5.1272037504e+01   3.3006056437e+01    0.1656261    0.1261488   8.92 0.0007048503    1.755    0.430
        55 -11.1259    101.2987     97.8370   6.1988545515e+01   4.2569066939e+01    0.3395186    0.2387817  55.68   0.00159181    1.631    0.387
        56 -10.2754     86.6587     95.9649   6.5843584927e+01   4.5573173928e+01    0.3792832    0.1301673 -52.14  0.001300806    2.815    0.645
        57 -10.2815     26.8951     96.9701   8.4626028004e+01   5.2736528377e+01    0.1830254    0.1502995 -65.38  0.000377595    1.029    0.028
        58 -10.7625    107.8546     95.9851   5.9591851199e+01   4.1718623267e+01    0.2424308    0.2111479  40.62 0.0003190001    1.179    0.152
        59  -9.4213    127.3382     91.2984   5.2855045739e+01   3.8642076836e+01     0.158776    0.1229402   7.50 -5.119154e-05    1.659    0.397
        60 -12.3732     34.9099     89.3700   8.0646464879e+01   5.3744396592e+01    0.2601875    0.1966229 -66.74   0.00140598    1.194    0.162
        61  -9.9474     33.9113     83.8636   7.9813525869e+01   5.5060717608e+01    0.2371914    0.1513119 -60.55 0.0007825618    1.329    0.247
        62  -9.5515    139.4531     89.2139   4.9086819995e+01   3.6312809998e+01    0.2171419    0.1482362 -52.83 0.0009321846    1.609    0.378
        63 -10.2599     54.0415     89.1681   7.4400328647e+01   5.1764379227e+01    0.2022014    0.1617563 -32.33 0.0005331532    1.265    0.209
        64 -11.3493     12.9218     88.1080   8.7443256585e+01   5.5748265638e+01    0.1830524    0.1454972 -64.53  0.001260597    1.028    0.027
        65  -9.3232    120.6974     88.2754   5.3785697296e+01   4.0711314360e+01    0.1482587    0.1227387  89.73 0.0002407468    1.540    0.351
        66 -10.0189     84.3259     87.4429   6.4277700253e+01   4.7834373364e+01    0.2749805    0.1675856 -52.88 0.0006958583    1.600    0.375
        67  -9.4813    131.4823     86.4346   5.0335792593e+01   3.8702993137e+01    0.1533787    0.1507818  25.24 0.0001010007    1.010    0.010
        68 -12.0514    105.2799     80.6960   5.5940969106e+01   4.5449248264e+01    0.6327454     0.359803 -25.99  0.001531949    2.344    0.573
        69 -10.5939     79.6351     81.5651   6.4115906278e+01   4.9860613877e+01    0.3607991    0.2074721 -31.38 -0.0001541599    2.017    0.504
        70  -9.5931    187.9717     83.0282   3.6453451630e+01   2.5494054041e+01    0.1798885    0.1758332  74.51 0.0009497133    1.011    0.011
        71 -11.2128     53.9972     80.9631   7.2397801219e+01   5.3580482303e+01    0.1958174    0.1697028 -45.96 0.0003050262    1.011    0.011
        72  -9.7978     86.8657     80.1449   6.1405525219e+01   4.8964183301e+01    0.1911226    0.1557152 -22.47  0.001012673    1.270    0.213
        73 -11.9933    250.0078     73.0243   2.4009847774e+01   1.2242415279e+01    0.4441554    0.1864583 -34.20   0.00181422    2.193    0.544
        74 -12.8195    238.1797     73.2032   2.5626923685e+01   1.4870652298e+01    0.4108767    0.3184828 -84.41  0.001963798    1.451    0.311
        75 -11.1754     45.4762     73.0010   7.3263423740e+01   5.6270653349e+01    0.2965935    0.1962936 -44.80  0.001672668    1.287    0.223
        76 -11.1309      8.2598     74.0216   8.6472431452e+01   5.9098921619e+01    0.1699419    0.1605864 -46.33  0.000434296    1.219    0.180
        77  -9.5897     83.7793     73.3416   6.0354160332e+01   5.0894352482e+01    0.1845237    0.1303435  26.12 0.0003692792    1.553    0.356
        78  -9.8201     57.0000     72.0177   6.8969200004e+01   5.5123841623e+01    0.2610823    0.1349967 -36.88 0.0003504514    1.943    0.485
        79 -10.5283     60.6891     70.8146   6.7345071894e+01   5.4896466918e+01     0.213114    0.1760644 -21.79 0.0003381951    1.186    0.157
        80 -10.7461     17.4729     70.6912   8.2607927845e+01   5.9232101229e+01    0.2430553    0.1623192 -51.46  0.000786212    1.174    0.148
        81 -10.5319     77.5292     74.6692   6.2792311588e+01   5.1643973469e+01    0.4420269    0.1315748  29.65  0.001102841    6.738    0.852
        82 -12.1412     51.4014     70.1051   7.0393595302e+01   5.6210238238e+01    0.2513215    0.2004353 -42.85 0.0003894619    1.078    0.072
        83 -10.3394     30.7714     71.1098   7.7986944328e+01   5.8109794051e+01    0.1684205    0.1427242 -56.08 0.0003406857    1.103    0.094
        84 -10.7691    155.9584     69.9667   3.9366956694e+01   3.5914337854e+01    0.2273123    0.2194596  49.91  0.001201232    1.007    0.007
        85  -9.7171     81.9569     70.2473   5.9991659277e+01   5.1825458509e+01    0.1831499     0.170068  -6.62 0.0002250253    1.052    0.050
        86  -9.1368    136.5193     69.4895   4.3859171506e+01   4.0763643916e+01    0.1550471    0.1468414  20.57 -0.0001061249    1.046    0.044
        87  -9.3876    213.3201     68.7395   2.8161936525e+01   2.1514665323e+01    0.1491583    0.1107007 -73.76 0.0002705116    1.548    0.354
        88 -10.4714     74.0234     67.7417   6.1849279035e+01   5.3605117355e+01    0.2362146    0.1771955 -44.28 0.0006402104    1.248    0.199
        89  -9.6670     35.7938     68.2174   7.5465934788e+01   5.8266530987e+01      0.16608     0.119698 -36.15  0.000374739    1.248    0.199
        90  -9.9746    194.8427     65.8195   3.0429545383e+01   2.6644436945e+01     0.211147     0.201672  27.71 0.0003057483    1.133    0.117
        91 -10.9672    111.0506     65.8520   4.9577376259e+01   4.7161765894e+01    0.2302958    0.2035318 -26.68 0.0002468359    1.112    0.101
        92 -10.3970      2.6777     65.3437   8.6764370203e+01   6.1236425851e+01    0.2247125    0.1636347  77.58 0.0008090412    1.783    0.439
        93 -10.5570    180.8863     64.2404   3.2512422087e+01   3.0495789170e+01    0.2866119    0.2680402  13.02   0.00151703    1.172    0.146
        94  -9.5725    153.0135     65.0101   3.8512166524e+01   3.7508543240e+01    0.1792905    0.1763447  34.93 0.0009572724    1.020    0.019
        95  -9.9263     89.4822     65.5663   5.6059998255e+01   5.1440337756e+01    0.2453543    0.1321535  52.80   0.00072524    2.401    0.584
        96 -13.3604    248.6907     58.9065   2.0876715790e+01   1.4629123879e+01    0.8007262    0.3832865 -36.32  0.003584764    1.892    0.471
        97  -9.4353     44.5747     63.5024   7.0983425316e+01   5.8352375672e+01    0.1279619    0.1080297 -40.37 8.483566e-05    1.035    0.034
        98 -10.2702     81.1645     62.2360   5.7684764237e+01   5.3529276430e+01    0.1852931    0.1607421 -57.31 0.0005745972    1.340    0.254
        99  -9.8357    147.0400     61.5195   3.8789058049e+01   3.9589656706e+01    0.2269242    0.1468945  52.17 0.0003208789    1.483    0.326
       100 -12.4256    150.8238     57.5918   3.6683735683e+01   3.9289224539e+01     0.339422    0.2935639 -45.24 0.0002666193    1.218    0.179
       101 -10.7959     58.9201     58.6081   6.4248772827e+01   5.7592815361e+01    0.3582039    0.3027583  77.31  0.002089073    1.769    0.435
       102  -9.7557    218.2289     59.2027   2.4947316365e+01   2.1774499633e+01    0.2025965     0.159715 -68.48 0.0005432019    1.308    0.236
       103 -10.5767    160.8555     57.5499   3.4499700242e+01   3.6744661741e+01     0.411735    0.2643701  54.95  0.001826693    1.481    0.325
       104 -10.3740      8.2250     56.9810   8.2957616033e+01   6.2674469875e+01    0.1641038    0.1162115 -51.28  0.001111996    1.071    0.066
       105 -11.8192     30.6442     53.7993   7.3453872334e+01   6.1690623310e+01    0.3534429    0.2631814 -81.05  0.002063817    1.958    0.489
       106 -10.8688     19.9328     55.4863   7.8090784990e+01   6.2221696490e+01    0.2142347    0.1424565 -52.38 0.0004359097    1.211    0.174
       107  -9.8518    200.7768     55.2308   2.6534204976e+01   2.6767723410e+01    0.1987633    0.1695303  34.18 0.0004020802    1.332    0.249
       108  -9.7743    107.1558     53.8849   4.6668272398e+01   5.0103767988e+01    0.1937384    0.1592346  13.24  0.001015729    1.256    0.204
       109  -9.3911     68.2652     54.3880   5.9489572212e+01   5.7069389672e+01     0.141836   0.09363219 -18.00 0.0006982016    1.700    0.412
       110  -9.7849    135.5703     53.1791   3.8816305300e+01   4.3767465129e+01    0.2003304     0.145431 -13.61 0.0003020022    1.602    0.376
       111  -8.9271     44.2941     53.6846   6.8134920222e+01   6.0343435813e+01    0.1135282   0.09942562 -83.65 0.0002626834    1.601    0.375
       112 -11.4182     10.8253     52.3913   8.0855912128e+01   6.3453153781e+01    0.2402176    0.2001488 -60.44 0.0005345643    1.210    0.173
       113 -10.8864      2.0773     51.1389   8.3989802965e+01   6.4181979017e+01    0.3627271   0.09720612 -53.15  0.001416553    2.328    0.570
       114 -11.9628    122.5767     49.9811   4.1026726271e+01   4.7345012893e+01    0.3880823     0.245126 -44.24  0.001456907    1.740    0.425
       115  -9.8139    117.7589     51.4007   4.2808459147e+01   4.8211832907e+01    0.1966125    0.1310372  38.55 0.0001850792    1.477    0.323
       116  -9.6454    113.1498     51.4152   4.4088988811e+01   4.9230251578e+01    0.1905705    0.1396088  60.76 0.0004299227    1.577    0.366
       117 -11.0404    211.5744     49.3949   2.3350867732e+01   2.4879546296e+01    0.3010447    0.2272689 -86.80 0.0005016758    1.403    0.287
       118 -10.1065    155.9656     50.1912   3.3228959309e+01   3.9139803420e+01    0.2773557    0.1578944  34.22  0.001086684    2.166    0.538
       119  -9.7474     35.4770     50.5463   7.0579326963e+01   6.1875987039e+01    0.1257342   0.09970888 -32.27 6.429906e-05    1.041    0.039
       120 -10.9291     19.3359     49.7697   7.6782659836e+01   6.3407829482e+01    0.2115982    0.1972481 -22.71 0.0008822904    1.226    0.184
       121 -10.7130    161.3820     63.4846   3.6205347751e+01   3.5644659024e+01    0.3895241    0.1341164 -38.93  0.001261617    2.887    0.654
       122 -11.4705    234.0205     48.3490   2.0131964141e+01   1.9526906066e+01    0.2324865    0.1982994 -22.28  0.001317363    1.333    0.250
       123  -9.9109    201.4561     49.6592   2.4911350372e+01   2.7415222672e+01     0.247687    0.1326696  62.90  0.001017506    1.802    0.445
       124 -10.0055    103.7965     49.1276   4.5980923047e+01   5.1598201422e+01    0.1966192    0.1894326 -35.63 0.0003608837    1.168    0.144
       125 -10.2636    194.0254     48.1793   2.5660643866e+01   2.9545619098e+01    0.2295009    0.1888536 -77.17 0.0004966073    1.264    0.209
       126 -11.6519    138.2821     47.5887   3.6305854046e+01   4.3974511202e+01    0.2551743    0.2520568 -64.02  0.000316354    1.095    0.087
       127 -10.2398     27.0482     47.8119   7.3106362934e+01   6.3179284777e+01    0.2233273    0.1424847 -46.85  0.000896467    1.271    0.213
       128 -13.2444    239.6356     41.2531   1.7777250668e+01   1.9183901729e+01    0.6311188    0.3707482 -75.48   0.00249741    2.022    0.505
       129 -12.8438    248.9051     40.6997   1.6647014863e+01   1.7127594799e+01     0.498132    0.4315536  28.44  0.002989296    1.528    0.346
       130 -10.2473    134.5613     43.6256   3.5847267764e+01   4.5472567639e+01    0.2634043    0.1695853  56.51 0.0003689218    1.506    0.336
       131 -11.3081     90.7101     43.8306   4.8080461119e+01   5.5065300014e+01    0.2353799    0.2102489   4.17 0.0002226169    1.009    0.009
       132 -12.1185    163.5506     42.5370   2.9310639022e+01   3.8296737398e+01    0.3417938    0.2542312  67.67  0.001670553    1.322    0.244
       133 -10.0323    218.0603     41.3143   2.0379433516e+01   2.4386702339e+01    0.1970748    0.1698156  86.93 0.0003616145    1.097    0.088
       134 -10.4631     28.0295     41.0688   7.0573434380e+01   6.4373503717e+01    0.1832611    0.1400379 -33.16 0.0003559225    1.035    0.034
       135 -12.5354    229.8282     38.3875   1.8207124259e+01   2.1898259287e+01    0.4470789    0.2922687 -64.29  0.001176056    1.567    0.362
       136 -10.1022    209.4767     40.4658   2.1294755762e+01   2.6658649293e+01    0.1432305    0.1323459 -86.44 0.0002148047    1.015    0.015
       137 -12.4684    140.2509     37.8729   3.2591669409e+01   4.4884979826e+01    0.3002101     0.282096  22.28 0.0003947709    1.066    0.062
       138 -10.1444     84.8303     39.0707   4.8195192374e+01   5.6921886150e+01     0.186211    0.1780413 -15.58 0.0003277866    1.197    0.165
       139 -10.3615     55.3925     38.8240   5.8682641496e+01   6.1691020600e+01    0.2040747    0.1761443 -36.10 0.0006875473    1.243    0.196
       140 -11.1285     33.9243     37.8826   6.7017922202e+01   6.4396835016e+01    0.3125551    0.2529495  51.31 0.0009459718    1.874    0.466
       141 -10.4783    126.6710     37.5469   3.5642037706e+01   4.8236162204e+01    0.3164219    0.2579546  71.96 0.0009580443    1.400    0.286
       142  -9.6551    126.7309     34.2857   3.4473410271e+01   4.8666038655e+01    0.1915863    0.1556604  18.64            0    1.275    0.216
       143  -9.4440     88.8314     38.3654   4.6622682947e+01   5.6281367023e+01    0.1823727    0.1175682  32.23 9.167559e-05    1.534    0.348
       144 -10.6213    115.1130     35.5176   3.7855082051e+01   5.1199145067e+01     0.299057    0.1930934 -30.78 0.0009326069    1.602    0.376
       145 -11.9488    231.1896    248.4243   6.3479921595e+01  -1.0002059158e+01    0.2598078    0.1655309   2.47  0.001618655    1.664    0.399
       146 -12.2525    222.9028    247.5013   6.4784941925e+01  -8.6389730404e+00     0.303918    0.2170271 -15.69  0.002045831    1.534    0.348
       147 -10.0930    197.5013    246.4966   6.9170912771e+01  -4.4853602793e+00    0.1226926   0.09456408  32.32 0.0008105967    1.021    0.020
       148 -10.9032     98.7418    117.4073   6.7600275887e+01   3.8616333392e+01    0.2354082    0.2085241 -65.66 0.0002820436    1.104    0.094
       149 -13.1426      2.0901    241.5345   1.0293992445e+02   2.4640636121e+01    0.6183556    0.3248866 -68.91  0.004392228    2.070    0.517
       150 -13.7374     23.1937    248.3351   1.0002554105e+02   2.1271466805e+01      1.01195    0.3147439  58.07  0.005466779    2.452    0.592
       151 -13.7084      7.8638    248.7045   1.0237581598e+02   2.2837644734e+01    0.8023928    0.4607733  55.03  0.006171146    1.326    0.246
       152 -10.6944    154.4607     35.0287   2.8692786049e+01   4.1665599108e+01    0.2868868      0.20886  56.94 0.0004846542    1.262    0.208
       153 -10.3706    169.9934     33.7095   2.5425250088e+01   3.7803181470e+01    0.2046912    0.1821193  71.85 0.0004218427    1.057    0.054
       154 -10.3267     54.0939     33.3556   5.7082079369e+01   6.2779169979e+01    0.2054157    0.1465185 -21.86 0.0003575427    1.240    0.194
       155 -11.9625    132.2473     29.3489   3.1444143078e+01   4.7973415905e+01    0.2857697    0.2575856 -25.23 0.0002467521    1.191    0.161
       156 -10.6971    123.8917     30.5946   3.3838663253e+01   4.9823993494e+01    0.2262328    0.2010475 -28.18 0.0003435471    1.209    0.173
       157 -11.7003    221.1213     15.5728   1.3593302257e+01   2.6858414944e+01    0.3062745    0.2219426  85.95  0.000279145    1.265    0.210
       158 -10.7142    194.4597     37.8369   2.2714081352e+01   3.0868745310e+01    0.2758802    0.2074566 -67.93  0.001122315    1.412    0.292
       159 -10.8127      1.9741     29.2612   7.8207536178e+01   6.8393248552e+01    0.2289593    0.1107543 -31.75  0.001361649    1.784    0.439
       160 -10.2947     47.2377     28.7423   5.7997814014e+01   6.4431127378e+01    0.1680806    0.1456863  -9.35  0.001138693    1.129    0.114
       161 -10.6594     35.1735     26.9336   6.2377660548e+01   6.6149492136e+01    0.2623025    0.1575432 -38.41  0.001561429    1.423    0.297
       162  -9.4778     82.3184     27.3338   4.4386294923e+01   5.9109460070e+01    0.1414057   0.09315745  10.74 0.0003961725    1.696    0.410
       163  -9.8018     99.8313     23.1723   3.7337510102e+01   5.6160808170e+01    0.1954996    0.1453961  19.99  0.001063899    1.315    0.239
       164 -13.0932    236.4807     29.6233   1.5374379814e+01   2.1452801019e+01    0.5648252    0.3641007 -38.35  0.002388362    1.487    0.328
       165 -11.1470    178.3892     19.7505   1.9928521350e+01   3.7288244869e+01    0.4147039    0.2004502 -49.55  0.000998227    2.359    0.576
       166 -11.6034     84.4366    113.4367   7.0738348849e+01   4.1958082492e+01    0.3766291    0.2635767 -81.80 2.426118e-05    1.810    0.448
       167 -10.1392    188.3026     20.6748   1.8798906577e+01   3.4600958542e+01    0.2113038    0.1809686 -84.78 0.0003958879    1.115    0.103
       168 -11.9411    192.6451     18.0922   1.7508967489e+01   3.3768907788e+01    0.4297873    0.2863406  57.00  0.002189476    1.422    0.297
       169 -10.7954      7.9908     20.8932   7.2568834016e+01   6.9521690565e+01    0.2263869    0.1695101  -5.08  0.001521294    1.317    0.241
       170 -11.2772     55.2814     19.4705   5.0827263612e+01   6.4709095283e+01    0.2107514    0.1719746  -5.07  0.000403424    1.024    0.023
       171 -11.4015    151.4552     18.9203   2.4027814646e+01   4.4370151783e+01    0.4152478    0.2428971  71.36  0.001495164    1.722    0.419
       172 -10.2925     37.7062     17.3850   5.7264348980e+01   6.7350476498e+01    0.1527441   0.09844086  13.95  0.000291919    1.531    0.347
       173 -10.1312     10.4995     15.9253   6.9449714929e+01   7.0180307219e+01    0.1627586   0.08822062 -45.51 0.0005513987    1.532    0.347
       174  -9.6552    196.4417    229.5517   6.6784768530e+01  -2.0680627257e+00     0.127549    0.1024094  30.28 0.0001404375    1.003    0.003
       175 -10.0026     74.0098    221.2222   8.9342661499e+01   1.9786466477e+01    0.1665272    0.1412915   8.29  0.001064274    2.008    0.502
       176  -9.9405    131.9785     13.9684   2.6068151421e+01   4.9782447733e+01    0.2165761     0.165366 -71.35  0.001127277    1.689    0.408
       177 -10.0377    125.9509     14.0439   2.7357400727e+01   5.1239781313e+01    0.1969677    0.1824801 -85.47  0.000310465    1.254    0.202
       178 -11.4158     68.7418    218.0088   9.0036217769e+01   2.1140851661e+01     0.401785    0.2101389 -82.09 0.0009874882    2.049    0.512
       179 -10.4208     78.8297    218.7585   8.8184109459e+01   1.9561907250e+01    0.2006216    0.1433013  39.88   0.00124359    1.474    0.322
       180 -10.1931    103.1216     13.0936   3.2417199969e+01   5.6597863593e+01    0.2104301    0.1534606  27.27 0.0002762583    1.279    0.218
       181 -10.7971     83.5818     12.9522   3.7944830225e+01   6.0659656521e+01    0.1971395    0.1510969  26.70 0.0003953798    1.135    0.119
       182  -9.8466     58.5995     13.2051   4.6726728390e+01   6.5034004793e+01    0.1720104    0.1029787 -17.01 0.0006721005    1.604    0.377
       183  -9.7122     56.0072    216.9712   9.2338224323e+01   2.3053684029e+01    0.1359091    0.1035646  78.62 0.0009299943    1.075    0.070
       184  -9.0784    123.8091    205.9998   7.7619297015e+01   1.4768563921e+01     0.139811    0.1036784 -61.21            0    1.513    0.339
       185  -9.5871    101.0009    176.0284   7.8160002899e+01   2.4852474491e+01    0.1555657    0.1386996  80.53            0    1.036    0.034
       186 -10.6082     24.6511     12.9148   6.1280225912e+01   6.9438312812e+01    0.1858294    0.1302119   0.51  0.000412876    1.296    0.228
       187 -10.0249    234.7463    175.5905   4.9702836648e+01  -1.0134851276e+00    0.1791098    0.1256675  47.85 0.0009458432    1.572    0.364
       188 -10.8232      4.7648    163.0264   9.8062270749e+01   3.9697480932e+01    0.1664075    0.1323672  76.81 0.0004152179    1.132    0.117
       189  -9.4780      6.3253    159.2985   9.7446223122e+01   4.0374274265e+01    0.1069521   0.07433579 -55.01 0.0007026215    1.631    0.387
       190 -10.0228      3.9773    152.4478   9.7401249374e+01   4.2042620560e+01    0.1821116    0.1141174 -82.37 0.0004773376    1.225    0.184
       191 -10.3624     29.4084    146.3324   9.0985920791e+01   4.1216690851e+01    0.2459627    0.1438588  55.14    0.0010028    1.760    0.432
       192 -10.3130     11.8362    145.1040   9.4989278216e+01   4.3044552862e+01    0.1676394     0.122771  86.06  0.001132752    1.137    0.120
       193  -9.7063      2.0099    142.4979   9.7004149500e+01   4.4360266319e+01      0.15757   0.06679227  54.98 0.0008100458    2.506    0.601
       194  -9.5286    200.0671    136.1963   4.7672167465e+01   1.2760440141e+01    0.1975559    0.1165856  46.12 0.0004929129    1.672    0.402
       195 -11.1389    246.2086    135.6022   3.9072284775e+01   3.0881740076e+00     0.196062    0.1252083  35.55 0.0009548233    1.683    0.406
       196 -10.8785     12.9112    135.0027   9.3718535145e+01   4.5216466541e+01    0.1723797     0.135123 -80.90 0.0003117219    1.013    0.013
       197 -10.8082    184.7859    134.0668   5.0338102027e+01   1.6622495420e+01    0.2462695    0.2128013  47.23 0.0002856291    1.142    0.124
       198 -10.4568    176.1353     12.4731   1.8126278807e+01   3.8660733608e+01    0.2108254    0.1245083  67.65 0.0004637464    1.499    0.333
       199 -10.3977     17.1659    133.2444   9.2480387495e+01   4.5274820348e+01    0.3044985    0.1531409  77.09 0.0009349185    2.344    0.573
       200  -9.4916      4.5179    131.4687   9.5395757331e+01   4.6620757620e+01    0.1166875   0.08909446 -81.45 4.713039e-05    1.002    0.002
       201 -10.3175     27.1078    130.0908   8.9582603257e+01   4.5141742993e+01    0.1891267    0.1243416  74.01 0.0004406036    1.600    0.375
       202  -9.4988     33.3969    126.7917   8.7490876420e+01   4.5314887590e+01    0.1735074   0.09565154 -59.72 0.0003067429    1.533    0.348
       203 -11.5913     98.7425    125.8881   6.9505866585e+01   3.6656275343e+01    0.2671436    0.2336807  49.88 0.0004942304    1.168    0.144
       204 -10.5545    229.4525    124.6350   3.9401802854e+01   8.3499544033e+00    0.3398868    0.2602135  78.75  0.001656479    1.808    0.447
       205 -12.0232    250.0603    120.6649   3.5069396667e+01   4.7184446942e+00    0.5207926    0.1691637 -36.48  0.001872234    2.750    0.636
       206 -11.1075     41.5223    119.4437   8.4164011723e+01   4.6204947983e+01    0.2194726    0.1840369 -80.06 0.0002458246    1.078    0.073
