#   1 NUMBER                 Running object number                                     
#   2 MAG_AUTO               Kron-like elliptical aperture magnitude                    [mag]
#   3 X_IMAGE                Object position along x                                    [pixel]
#   4 Y_IMAGE                Object position along y                                    [pixel]
#   5 X_WORLD                Barycenter position along world x axis                     [deg]
#   6 Y_WORLD                Barycenter position along world y axis                     [deg]
#   7 A_WORLD                Profile RMS along major axis (world units)                 [deg]
#   8 B_WORLD                Profile RMS along minor axis (world units)                 [deg]
#   9 THETA_WORLD            Position angle (CCW/world-x)                               [deg]
#  10 FWHM_WORLD             FWHM assuming a gaussian core                              [deg]
#  11 ELONGATION             A_IMAGE/B_IMAGE                                           
#  12 ELLIPTICITY            1 - B_IMAGE/A_IMAGE                                       
         1 -14.1285      7.3869     23.5108   1.1564633871e+02   7.1390473524e+01     1.296692    0.6905958 -32.73  0.007838515    1.528    0.345
         2 -11.4075     64.9789     17.5244   8.4791144178e+01   6.4827901614e+01    0.4111585    0.2333417  29.39  0.002140744    1.706    0.414
         3 -12.8063     87.2679      2.5830   7.0919957417e+01   6.1786960392e+01    0.6812378    0.3608907  49.84  0.003580353    1.531    0.347
         4 -11.7509     79.5150      3.7820   7.3597404871e+01   6.3342843659e+01     0.400355    0.2986068 -63.00  0.002098631    2.075    0.518
         5 -11.8547     75.7160     13.5322   7.9187163874e+01   6.3206658528e+01    0.3488057     0.254457  48.85 0.0009251886    1.290    0.225
         6 -11.4392     82.0418     13.9661   7.7376680720e+01   6.1869481172e+01    0.2897319    0.1754616  41.46 0.0007023163    1.422    0.297
         7 -12.3919     87.2388     11.6819   7.4852404937e+01   6.0995129481e+01     0.535076    0.3442793  68.60  0.001736135    1.837    0.456
         8 -11.7353    123.9881     10.4146   6.5809067912e+01   5.2602158081e+01    0.2648109    0.2114942  48.64 0.0004361108    1.133    0.117
         9 -10.7593    137.8559      5.8806   6.1886336804e+01   4.9570906502e+01    0.2474497    0.1815186  78.92   0.00140104    1.255    0.203
        10 -10.7499     33.2429      4.8155   9.2226948972e+01   7.1434770307e+01     0.237718    0.1422005 -20.86  0.001454943    1.555    0.357
        11 -10.6523    112.5220      4.2046   6.5778529677e+01   5.5892344833e+01    0.2574963     0.156034  63.04  0.001202827    1.412    0.292
        12 -11.5245     73.4216      1.5281   7.4384641251e+01   6.4785067428e+01    0.2232321    0.1324299  52.88 0.0005642512    1.486    0.327
        13 -10.9376    138.8119    152.4658   1.0452732760e+02   2.3537789033e+01    0.2865752    0.2255019 -49.80 0.0009687406    1.303    0.233
        14 -12.5815    202.0390    150.6337   8.9876656814e+01   1.0698913611e+01    0.5634238    0.3885601  11.32  0.002532425    1.978    0.494
        15 -14.4446    214.7776    125.2835   8.1730051792e+01   1.2788084348e+01     1.538856     1.292799  64.06  0.008354186    1.344    0.256
        16 -13.3320    196.0981    137.0194   8.7965476013e+01   1.4536166403e+01     1.011879    0.8492311  21.18  0.005247412    1.306    0.234
        17 -13.9566    202.3199    125.1879   8.3980932903e+01   1.5459552571e+01     1.454897    0.9151774 -32.06  0.006550044    1.629    0.386
        18 -12.8292     47.4949    142.4806   1.2803206068e+02   4.1337300251e+01    0.5066819    0.3987406  36.75  0.002674764    1.375    0.273
        19 -10.1485     90.3632    145.8418   1.1619974809e+02   3.4350626823e+01    0.2264719    0.1296517 -48.34 0.0009527186    1.790    0.441
        20 -13.2286    214.5518    140.4478   8.5225085262e+01   1.0069755331e+01    0.9201237    0.7923669  53.33  0.004914673    1.284    0.221
        21 -10.5268     33.7062    135.9824   1.3113544513e+02   4.4440754979e+01    0.1958404    0.1569555 -78.14 0.0008246439    1.089    0.082
        22 -13.1689    247.1151    154.6077   8.2695570056e+01   1.6097130227e+00     1.708489    0.9298198  25.14  0.007680297    2.592    0.614
        23 -13.3972    193.7484    147.5195   9.0842650657e+01   1.2993915249e+01    0.6631304    0.6014307 -56.60  0.002512417    1.194    0.163
        24 -11.2752    122.0042    127.3830   1.0318590934e+02   3.2828696167e+01    0.3787901    0.3042521  33.84   0.00168869    1.300    0.231
        25 -10.9980    171.0235    122.5101   8.9738644036e+01   2.3002459608e+01    0.2510504    0.2138797 -43.06  0.000785374    1.166    0.142
        26 -10.2186     82.1340    116.0963   1.1229103985e+02   4.3052304935e+01    0.1979109    0.1726838  84.64 0.0003542873    1.263    0.208
        27 -10.7570    147.9910    115.2883   9.3287536255e+01   2.9828644452e+01    0.2316079    0.2126159  53.95  0.001164313    1.084    0.078
        28 -13.2612    165.5463    152.3525   9.8055229537e+01   1.7953453779e+01    0.9292258    0.6575118 -24.88   0.00416441    1.690    0.408
        29 -11.6313    179.9279    110.7093   8.4842509724e+01   2.3310157980e+01    0.6019145    0.4227055  21.20  0.002557521    2.005    0.501
        30 -10.8030     74.6069    110.7299   1.1344623435e+02   4.5561504967e+01    0.2763275    0.1901429 -65.95  0.001300291    1.527    0.345
        31 -12.7239    188.7258    105.7866   8.1825067902e+01   2.2200888738e+01    0.4312834    0.2912662 -20.09  0.001854105    1.913    0.477
        32 -12.1494     58.2699    144.4901   1.2521368687e+02   3.9503746134e+01    0.6299235    0.3509556  50.34  0.002865599    1.913    0.477
        33 -12.0742    107.5144    104.7272   1.0150600372e+02   4.1038573637e+01    0.5193105    0.3372868 -25.26  0.002108132    2.070    0.517
        34 -11.9546    142.0463     97.4354   8.9913896607e+01   3.4969264945e+01    0.3523527    0.3148176 -81.47  0.001762089    1.223    0.182
        35 -11.2383    114.0914     97.0246   9.7396959863e+01   4.1375252885e+01    0.3658339    0.2307824 -50.25 0.0009098299    1.634    0.388
        36 -12.4297    188.1224     94.7757   7.9114022790e+01   2.4392469011e+01    0.4626039     0.323692  59.47   0.00141315    1.468    0.319
        37 -11.0715     71.5645     93.8290   1.1018646714e+02   5.0020378767e+01    0.2418224    0.1783945  39.29  0.001220586    1.433    0.302
        38 -13.7625     32.6351     86.3050   1.2262463840e+02   5.6597203063e+01    0.7997066    0.6812709  78.77  0.004896643    1.413    0.293
        39 -12.7041      5.0934     84.1965   1.3272496831e+02   5.9054618621e+01    0.5242159    0.2392932 -49.21  0.002720656    1.774    0.436
        40 -13.5104    135.2878     74.0611   8.4686693353e+01   4.1118486817e+01     1.686211     0.383389 -36.45  0.004283018    4.947    0.798
        41 -10.1358     89.3778     82.7313   1.0086368791e+02   4.9412920613e+01    0.1908223    0.1354062 -35.35 0.0001498522    1.428    0.300
        42 -12.3787     32.8042     77.0042   1.2033077262e+02   5.8694928337e+01    0.4012551    0.1932748 -49.78  0.001457793    1.730    0.422
        43 -13.3384     35.0148     70.2839   1.1765130377e+02   5.9959100154e+01    0.6214491    0.3578172 -77.04  0.002730065    2.796    0.642
        44 -13.3384     96.1411     72.0061   9.5216150795e+01   5.0271407966e+01    0.6399195    0.4874609  24.28  0.001817009    1.407    0.289
        45 -15.2963     82.1580     67.2688   9.8341779598e+01   5.3883104356e+01     2.557841     1.128247  27.79  0.008699928    3.377    0.704
        46 -13.9579     59.6301     70.8735   1.0788739379e+02   5.6842249765e+01    0.8235898    0.4432105  31.95  0.002451363    1.946    0.486
        47 -12.6698     61.6965     66.9539   1.0582380462e+02   5.7346241592e+01    0.3508437    0.3010917  46.52 0.0005591484    1.367    0.268
        48 -12.7450    117.4996     74.0326   8.9413111512e+01   4.5294655017e+01    0.3562676    0.2238273 -46.30  0.001561518    1.678    0.404
        49  -9.4930    250.4035     74.4582   6.5047745146e+01   1.3897440667e+01    0.1317079    0.1085636 -53.91 0.0001875708    1.020    0.020
        50 -11.2004    144.4008     73.8697   8.2419661365e+01   3.8931336557e+01    0.2519849    0.2056089  67.06 0.0004093051    1.254    0.202
        51 -14.6715     47.9369     63.6570   1.1028812831e+02   5.9903322609e+01     0.940302    0.8565298  18.40  0.005957419    1.190    0.160
        52 -13.1114     42.3734     47.7744   1.0723447692e+02   6.3689748978e+01     0.488617    0.3284524  27.72 0.0009194444    1.537    0.349
        53 -13.2135     41.9248     42.3518   1.0539167802e+02   6.4728630815e+01    0.6751441     0.356778  13.75  0.002462719    2.385    0.581
        54 -10.6188    169.8761     63.0807   7.3893126424e+01   3.4364537376e+01    0.2614846    0.2093646  58.91 0.0007730063    1.206    0.171
        55 -10.2472    214.5343     61.3802   6.6433645248e+01   2.3681704009e+01     0.242542    0.1376697 -21.98  0.001028016    2.421    0.587
        56 -11.8747    124.8651     57.6653   8.2052069230e+01   4.6447342681e+01    0.3181054    0.2721678  43.89 0.0006855137    1.113    0.102
        57 -10.1590    174.9695     56.4952   7.1115792240e+01   3.4098702047e+01     0.216772     0.138973  64.66 0.0005943881    1.497    0.332
        58 -13.5140     67.7886     54.0897   9.8973279561e+01   5.8857446968e+01    0.4775592    0.4052733  63.19  0.001735513    1.602    0.376
        59 -11.3497    133.1018     53.8527   7.8760781307e+01   4.5054088090e+01    0.3167407    0.2319015  48.04 0.0005190727    1.292    0.226
        60 -13.0174     36.4810     55.1233   1.1243309660e+02   6.2958144860e+01    0.5914811    0.3402079 -27.43  0.002783865    1.800    0.444
        61 -10.2961    210.5533     54.5041   6.5272801018e+01   2.5634020953e+01    0.1367837    0.1261834 -75.50 2.816847e-05    1.071    0.067
        62 -12.6955      2.6744     46.0520   1.2559873659e+02   6.7427966904e+01    0.6219583    0.4547653  81.41  0.003449667    2.081    0.519
        63 -11.6338    193.8870    249.1414   1.0981087819e+02  -4.4385341415e+00    0.1881953    0.1539296  35.98  0.001262043    1.263    0.208
        64 -11.2007    145.4776     51.0231   7.5088354227e+01   4.2399711745e+01    0.2332683    0.1958008  60.86 0.0007570762    1.113    0.101
        65 -12.0094     77.4322     48.1243   9.3119799413e+01   5.8198193499e+01    0.2951887    0.1975729  -2.39  0.001408501    1.909    0.476
        66 -12.4596     56.5312     43.5274   9.9462726036e+01   6.2497629691e+01      0.46661    0.2756467 -17.25  0.002228111    2.062    0.515
        67 -11.5387     53.8034     40.8998   9.9565857582e+01   6.3350681026e+01    0.1864983    0.1762198 -27.61 0.0003519757    1.275    0.216
        68 -10.9134    157.0094     43.9713   7.0637675676e+01   4.0478982725e+01    0.2146424    0.2013312  68.08 0.0006299611    1.046    0.044
        69 -12.2324     25.8989     36.1329   1.1066425633e+02   6.7625218040e+01    0.5681491    0.3356717  -2.47  0.003122487    1.897    0.473
        70 -10.1772    218.4059     38.4781   6.0480688120e+01   2.6008228318e+01    0.1333506    0.1136646 -70.70 -1.948526e-06    1.018    0.018
        71 -12.6370     38.7511     33.2859   1.0321228457e+02   6.6677805125e+01    0.4779416    0.3129971  25.76  0.002821951    1.509    0.337
        72 -10.8746    176.5748     33.4428   6.4391982232e+01   3.6870986705e+01    0.2133942    0.2039554 -69.93  0.001292394    1.126    0.112
        73 -11.1136     82.8985     33.6202   8.5448002753e+01   5.9343183021e+01    0.2857556    0.2344015  19.04 0.0007564195    1.136    0.119
        74 -11.5677     79.5722     30.0804   8.5106643872e+01   6.0483304398e+01    0.2820885    0.2266134 -27.07 0.0005187501    1.309    0.236
        75 -12.1885     83.8517     22.6804   8.0572476858e+01   6.0540655571e+01    0.3384078    0.2988063  33.51 0.0009441735    1.068    0.064
        76 -11.8927    188.2203    232.5575   1.0835675294e+02  -1.1462002752e+00     0.336105    0.1088512  35.73    0.0013193    2.726    0.633
        77 -10.9930    192.0079    217.4994   1.0510869708e+02   6.1261682481e-01    0.1919302    0.1030133  18.09  0.000809842    2.479    0.597
        78 -11.8717    187.8515    197.8834   1.0245345630e+02   4.6605593405e+00    0.3052848    0.2739137  45.67   0.00180315    1.235    0.190
        79  -9.9728    178.3103    184.6846   1.0195841735e+02   8.8512365128e+00    0.1389167     0.116033  78.80 0.0004547758    1.634    0.388
        80  99.0000    242.9310    168.7520   8.6272724517e+01   3.0239236493e-02     5.009885     1.076654 -33.20   0.01296952    6.337    0.842
        81 -13.4454    239.7665    155.2336   8.4026178802e+01   2.7673180579e+00     1.727756    0.9227362 -28.19  0.008072817    1.867    0.464
        82 -12.1615    197.9767    167.6999   9.4378102975e+01   8.2938270328e+00    0.3451558    0.3176962  -1.50  0.001492979    1.021    0.021
        83 -13.5536    170.4810    157.8129   9.8137266131e+01   1.5776036924e+01     0.659718    0.5177389 -62.85   0.00320106    1.505    0.335
        84 -11.5348    218.5054    157.8252   8.8302256882e+01   6.1734741347e+00    0.2708977    0.1942494  62.66  0.001333812    1.912    0.477
        85 -12.6857     19.5402    153.1340   1.3714988035e+02   4.1535644022e+01    0.4628158    0.3357925 -32.59  0.002696969    1.832    0.454
