#   1 NUMBER                 Running object number                                     
#   2 MAG_AUTO               Kron-like elliptical aperture magnitude                    [mag]
#   3 X_IMAGE                Object position along x                                    [pixel]
#   4 Y_IMAGE                Object position along y                                    [pixel]
#   5 X_WORLD                Barycenter position along world x axis                     [deg]
#   6 Y_WORLD                Barycenter position along world y axis                     [deg]
#   7 A_WORLD                Profile RMS along major axis (world units)                 [deg]
#   8 B_WORLD                Profile RMS along minor axis (world units)                 [deg]
#   9 THETA_WORLD            Position angle (CCW/world-x)                               [deg]
#  10 FWHM_WORLD             FWHM assuming a gaussian core                              [deg]
#  11 ELONGATION             A_IMAGE/B_IMAGE                                           
#  12 ELLIPTICITY            1 - B_IMAGE/A_IMAGE                                       
         1  -9.2703    211.3692     20.7163   3.5592401857e+02   2.9273859735e+01    0.6268572    0.4489757  -2.60  0.003536183    2.078    0.519
         2 -14.6492    197.0738     80.6966   1.2262053655e+01   2.4508908368e+01     2.449511     1.774324  -0.36   0.01156371    1.991    0.498
         3 -12.2682    232.0041     35.0018   3.5776715492e+02   2.3366309786e+01    0.8919233    0.2991664 -58.02  0.002735988    3.399    0.706
         4 -12.7006    224.8029     24.0312   3.5579402725e+02   2.6059935866e+01     1.029394     0.438234  53.38  0.004759824    3.154    0.683
         5 -13.1454    189.0817     44.4993   3.9907192117e+00   3.1497218252e+01     1.117191    0.9951913  19.81  0.003847727    1.460    0.315
         6 -13.5482    202.6320     39.2788   1.2153382488e+00   2.9048087616e+01     2.182122     1.022611 -66.82  0.009250998    2.593    0.614
         7 -12.7097    221.3688     38.2358   3.5931059947e+02   2.5135082227e+01    0.7600212    0.4692146 -49.78  0.001268225    1.341    0.254
         8 -12.9208    178.9646     38.3402   3.4877824358e+00   3.4726311992e+01    0.9259279    0.6657252  31.53  0.003767597    1.968    0.492
         9 -14.1253    228.7203     65.8465   4.9466020076e+00   2.0174317243e+01      1.78413      1.11562 -63.21  0.009935049    1.718    0.418
        10 -11.9550     76.0126      7.0290   1.0304175660e+01   6.5542120344e+01    0.7421529    0.5844386  54.78  0.002690946    1.104    0.094
        11 -12.1167     64.7325      4.5232   1.2542177571e+01   6.8600246942e+01    0.5858697    0.4115874   1.85  0.001005906    1.697    0.411
        12  99.0000     35.6515     21.1479   3.8140109000e+01   7.2449669115e+01     3.331281    0.8580647  40.06   0.01100129    3.678    0.728
        13 -13.7208    118.0249     62.7962   2.2450711660e+01   4.6666373273e+01     1.420522     1.019822 -69.23  0.004468084    1.702    0.413
        14 -14.3524     36.0226     56.9109   5.4034715087e+01   6.4856885495e+01     2.339381     1.777673  16.00   0.01224024    1.351    0.260
        15 -13.9943      4.0415     55.3664   7.3332147451e+01   6.7897522407e+01      2.43121    0.8419722 -86.86  0.008433247    3.680    0.728
        16 -13.8289     23.1453     41.9265   5.6921545763e+01   6.9838857252e+01     2.063803     1.335824 -13.20  0.009547359    1.753    0.429
        17 -12.5863     79.9353     22.3803   1.7147747929e+01   6.2791638622e+01     1.374888    0.5224383  47.20  0.002891435    2.442    0.590
        18 -12.2618     52.6388     20.9206   2.7829051693e+01   6.9299272726e+01    0.9258932    0.6142448  84.59  0.001160642    3.341    0.701
        19 -12.9735     50.8105     31.5218   3.4663503286e+01   6.7896881085e+01      1.69079    0.8887191  41.67  0.007496789    1.794    0.443
        20 -13.8279     54.4020     57.4912   4.4296388748e+01   6.1961319392e+01     1.820332     1.170362  78.33  0.006772625    3.122    0.680
        21 -13.4710      6.1160     37.6190   6.7997965955e+01   7.2142047079e+01     1.139701    0.5084153 -84.36   0.00155285    2.998    0.666
        22 -13.5746     13.5645     35.0345   6.1439393961e+01   7.2273102145e+01     1.039276    0.5795971 -76.93  0.004694926    2.244    0.554
        23 -13.8513     62.0103     42.3436   3.4225091955e+01   6.3679730269e+01     1.522838    0.9547216 -12.53  0.002585646    2.674    0.626
        24 -10.9617    151.0518     23.9055   2.6273769612e+00   4.3631778220e+01    0.6382655    0.4285575 -85.26   0.00274353    1.454    0.312
        25 -11.6779     97.5153     22.1058   1.1838329214e+01   5.8289041900e+01     0.346645    0.2745359  68.54 0.0007064507    1.151    0.132
        26 -13.5369    243.8381      8.7580   3.5144741556e+02   2.3902895651e+01     1.108832    0.4362504 -71.63  0.005524135    2.615    0.618
        27 -11.8772    244.1213     22.5881   3.5432240487e+02   2.2415461792e+01    0.5284969    0.3066403 -86.76  0.001774372    1.798    0.444
        28  99.0000    228.4684     15.7037   3.5369857450e+02   2.6206194057e+01    0.6663683    0.2798835 -79.35  0.003141575    2.674    0.626
        29  99.0000    228.4977      9.9160   3.5241269088e+02   2.6796039468e+01    0.7164999    0.2319178 -63.35  0.002995345    3.177    0.685
        30 -11.3738    220.2438     12.2722   3.5338217233e+02   2.8263429950e+01    0.3484275    0.2556779  64.30  0.001056726    1.606    0.377
        31 -11.9633    220.9510      7.4236   3.5223495476e+02   2.8605080496e+01    0.2282374    0.1640307 -55.40 0.0003669406    1.084    0.078
        32 -12.3311    135.3511     22.4904   4.3999271135e+00   4.8006335253e+01    0.5983253    0.4732859   3.41  0.002603328    1.671    0.401
        33 -11.5769    123.7492     23.6785   6.7967544253e+00   5.1021839809e+01    0.4115164       0.3179  -9.80  0.001229443    1.622    0.384
        34 -11.1327    203.0724     18.0821   3.5586567487e+02   3.1404569823e+01    0.4281825    0.3694983  28.52  0.002306044    1.616    0.381
        35  -9.0130    111.3387      3.6918   9.2562888638e-01   5.6430044595e+01    0.2762695    0.1767728 -73.26 0.0008438015    1.655    0.396
        36 -11.5312    114.3405     12.6726   4.1499421351e+00   5.4785920385e+01     0.367345    0.3423826 -45.87  0.002154814    1.187    0.158
        37 -12.2620    116.1371      8.4282   2.1139959783e+00   5.4702392672e+01    0.7585217    0.4655176 -18.06  0.003339326    1.949    0.487
        38 -10.0077    156.3251     12.1306   3.5823320860e+02   4.3504795588e+01    0.2952392    0.1946467 -28.52  0.001189017    1.636    0.389
        39 -10.6367    156.7853      7.8691   3.5684658870e+02   4.3799235898e+01    0.2113551    0.1701143  67.01 0.0005773407    1.254    0.203
        40 -13.1149     65.1423     14.9723   1.8604140770e+01   6.7337350805e+01     1.312285     1.012199  54.40  0.007164991    1.178    0.151
        41 -10.6749    150.3260     13.1568   3.5921408222e+02   4.4984448733e+01    0.2585162    0.2138626 -49.96 0.0007506403    1.202    0.168
        42  -8.6743    145.0352     10.6096   3.5897488392e+02   4.6646986768e+01    0.4174235    0.1903477 -88.17  0.001094844    2.380    0.580
        43 -10.0709     14.6793     13.6558   5.0530186249e+01   7.6714227507e+01    0.2262552    0.1642112  53.97  0.001243999    1.990    0.498
        44 -10.5766     38.1083     12.3641   3.0887537289e+01   7.3454083994e+01    0.2101357     0.167874  -3.44 0.0003133205    1.288    0.224
        45 -10.0864    124.6455     11.4902   1.9897337823e+00   5.2086496519e+01    0.4445857    0.3080044  66.10  0.002277584    1.284    0.221
        46 -10.3645     88.6738     12.0532   9.3919167514e+00   6.1757832954e+01    0.1839871    0.1735376   1.88 0.0004324498    1.200    0.167
        47  -9.8283    179.9691     10.4569   3.5559790778e+02   3.7657519213e+01    0.1950288    0.1661606 -49.93  0.001205898    1.159    0.138
        48 -13.5915    172.9244      6.1715   3.5494153949e+02   3.9824286162e+01    0.4194597    0.3089783 -19.41  0.001658706    1.621    0.383
        49 -10.1825     92.8829     11.3666   8.0070768811e+00   6.0715111500e+01    0.2455366    0.1800168 -43.81 0.0006426146    1.504    0.335
        50  -9.8339    108.7318     11.0326   4.4885311681e+00   5.6476651481e+01    0.1960661     0.182219  85.70 0.0007601603    1.072    0.067
        51  -9.3875    102.2504     10.6433   5.5908825576e+00   5.8273407871e+01    0.2122022    0.1852697 -79.60 0.0004243373    1.155    0.134
        52  -9.9830    100.4415      6.4350   4.0553017035e+00   5.9155430636e+01    0.3359002    0.2057464 -52.96   0.00158653    1.831    0.454
        53 -10.9467     26.4759      9.6093   3.7410752342e+01   7.5876837466e+01    0.3318339    0.2051693  16.21  0.001233602    1.815    0.449
        54  -9.8858      9.3187     10.0898   5.3696167480e+01   7.7935065912e+01    0.1654462    0.1345281 -33.16   0.00037286    1.130    0.115
        55 -11.7045    193.9501      8.0685   3.5395394522e+02   3.4539500278e+01    0.2655717    0.2314442 -86.35  0.000936007    1.158    0.136
        56 -10.9725     48.0804      6.5002   2.1020392194e+01   7.2233511649e+01    0.5571482    0.2546288  38.08  0.001924615    2.205    0.547
        57 -11.4857     46.1010      2.6186   1.9293181079e+01   7.3108232058e+01    0.3906556    0.2425753  -2.93 0.0001240265    2.023    0.506
        58 -10.6480      3.2656      6.2738   5.8060917301e+01   7.9173717426e+01    0.3922482    0.1999746 -21.36  0.001952306    2.065    0.516
        59 -10.4415    209.7429      6.3110   3.5256838703e+02   3.1125692817e+01    0.2425598    0.1379479  73.76   0.00135635    1.771    0.435
        60  -9.6099    188.6707      4.8844   3.5346761529e+02   3.6095809638e+01    0.2601648    0.1134974 -56.51 0.0004785399    2.021    0.505
        61  -8.9082    184.5666      3.0289   3.5323987757e+02   3.7255076866e+01    0.2987216    0.1461338  67.05 0.0009290221    1.996    0.499
        62  -9.0656    149.4875      5.5462   3.5681616824e+02   4.5936457671e+01    0.1396811    0.1185555 -86.20 3.554103e-05    1.018    0.018
        63 -10.4134    133.7282      5.0759   3.5837770962e+02   5.0206989304e+01    0.1768691     0.163335 -71.71 0.0001899099    1.120    0.107
        64 -11.7683     87.6999      1.5605   4.3758417823e+00   6.2985171205e+01    0.4610615    0.1512793  57.41 0.0006673841    2.363    0.577
        65 -10.9610     56.3417      3.2414   1.4967319664e+01   7.0731753596e+01    0.4467844     0.244103  40.65 0.0007122001    1.710    0.415
        66 -10.8800    154.8108      2.5669   3.5535868176e+02   4.4800387691e+01    0.2128623    0.1879086 -28.22 0.0004488033    1.322    0.243
        67  -9.4591    122.5564      3.5885   3.5924209765e+02   5.3375377874e+01     0.142547    0.1201209  88.34  5.14373e-05    1.033    0.032
        68  -9.4723    217.5796      2.5118   3.5127692384e+02   2.9798142561e+01    0.2486908    0.1165583 -72.93 5.550368e-05    1.975    0.494
        69 -10.7596    213.9484      1.7883   3.5128310979e+02   3.0646129404e+01    0.2169417    0.1602207  69.45 0.0009620727    1.527    0.345
        70 -10.2079    126.9391      1.9279   3.5804220433e+02   5.2319313781e+01    0.2142941    0.1770953 -88.22 0.0004787725    1.053    0.050
        71 -10.3983    234.8345     24.2545   3.5521379926e+02   2.4019021181e+01    0.3316962    0.2842944  -0.43  0.002287013    1.635    0.388
        72 -10.5765    250.5042     93.5374   8.6214774521e+00   1.2661610488e+01    0.2224687    0.1470684 -39.72 0.0009048706    1.222    0.182
        73 -10.3967    203.6515    116.3986   1.9656208128e+01   1.7564744428e+01    0.3369656    0.2353773  84.94  0.001623231    2.434    0.589
        74 -10.2148     17.0044     96.7990   7.2620271444e+01   5.6351468499e+01    0.1834635    0.1806448  84.87  0.001111081    1.058    0.055
        75  -9.7273    165.7204     96.2049   2.1528015395e+01   2.8889734492e+01    0.1984749    0.1726827  10.88 0.0009851592    1.348    0.258
        76 -15.3659     60.9417     84.6194   5.0055963265e+01   5.4385846866e+01     2.918759     1.802831  48.13  0.008255201    1.693    0.409
        77 -10.8701    171.9681    116.5068   2.5359900894e+01   2.3847320219e+01    0.2821507    0.1993619 -39.68  0.001397803    1.377    0.274
        78 -10.1234    173.2879    112.4507   2.4123433748e+01   2.4304145642e+01    0.3311613    0.1309216  42.74  0.001195505    2.758    0.637
        79 -13.8558     39.8991     77.8771   5.8060574260e+01   5.9164860796e+01     1.182512    0.8285186 -49.01  0.002281525    1.401    0.286
        80 -11.5056    126.5600    115.9515   3.5862287268e+01   3.3752364631e+01    0.4022832    0.2350594  43.93 0.0006550162    1.652    0.395
        81  -9.9276    182.5316    115.4188   2.3071329814e+01   2.1863170889e+01    0.1383148    0.1315909 -16.35 9.750417e-06    1.022    0.022
        82 -11.8825     99.7467     54.7240   2.4817001970e+01   5.2735595914e+01      1.21549    0.6906607  35.65  0.004714454    2.157    0.536
        83 -10.4100    163.0183    115.2517   2.6898187258e+01   2.5971296945e+01    0.2021833    0.1965209  40.38 0.0004482205    1.042    0.040
        84  -9.3324    211.0299    112.0000   1.7533697110e+01   1.6880100686e+01    0.1995036   0.07556883  51.91 0.0008051383    2.961    0.662
        85  -9.7458    113.2570    111.6540   3.8552158550e+01   3.7582872732e+01    0.1579224    0.1247678  89.77 0.0002727007    1.593    0.372
        86 -11.1518    196.2132    107.9662   1.8942028100e+01   2.0363237081e+01    0.3679505    0.2213059 -54.39   0.00171958    1.948    0.487
        87 -11.3122     63.5693    108.3011   5.4856991511e+01   4.7878254807e+01    0.2800281    0.1546854 -67.62 0.0006803572    1.974    0.493
        88 -13.4618     97.7627     74.8722   3.2681971534e+01   4.9234866698e+01     1.310658    0.8954448 -71.73  0.002798302    2.026    0.506
        89 -12.6657    105.0269     65.8981   2.7263102926e+01   4.9331517225e+01     0.769894    0.4160127  43.39            0    1.869    0.465
        90 -12.1908    160.8294    104.8106   2.4752073958e+01   2.8411216285e+01    0.4668138    0.2653153 -43.50 0.0002919214    1.740    0.425
        91 -13.6962      6.9697     67.3672   7.3542013677e+01   6.4715323377e+01     1.033057    0.9388498  73.89  0.002505823    1.158    0.136
        92 -13.3905     17.7871     63.8765   6.6647311278e+01   6.4958555806e+01      1.56024    0.5340426  47.92  0.002444528    4.203    0.762
        93 -10.2869     15.4792    106.8353   7.4473924196e+01   5.3760677559e+01    0.2222969     0.182609 -37.38 0.0004267772    1.322    0.244
        94 -13.0562     51.7367     44.6420   4.0443967337e+01   6.5192145734e+01     1.033758    0.5542659  19.40  0.003812855    2.871    0.652
        95 -10.9944    210.5081    104.7541   1.5992334097e+01   1.8093331770e+01     0.369103    0.2984475  70.90  0.002189426    1.503    0.335
        96 -11.7740    215.9557     99.8725   1.4122843808e+01   1.7804631291e+01     0.487624    0.2583649 -38.48  0.001988741    1.636    0.389
        97 -14.1839     76.4290     58.7962   3.4784241044e+01   5.7384453009e+01    0.9110506     0.460658  46.97  0.002541693    1.906    0.475
        98 -13.5032     79.0759     50.1988   3.0278773188e+01   5.8503567797e+01     1.380747    0.7410023  43.68  0.001395426    1.781    0.439
        99 -12.9821     81.3560     40.9401   2.5428786525e+01   5.9639945745e+01     0.779794    0.6454827  78.29  0.002053199    1.376    0.273
       100 -12.7476     75.3077     41.8404   2.8169561619e+01   6.0893455832e+01    0.5256657    0.3291877  58.88  0.001240875    1.700    0.412
       101 -10.2985    158.7667     95.5476   2.2765146248e+01   3.0599818536e+01    0.3675605    0.1495063  55.63  0.001291806    2.629    0.620
       102 -11.8579     95.0851     89.9419   3.8349858267e+01   4.6498581137e+01    0.5700434    0.4306693  60.26  0.001288472    1.409    0.290
       103 -11.9252     45.1319     92.9385   5.9163887504e+01   5.4577567352e+01    0.4700863    0.2307215  21.50  0.001819442    2.255    0.557
       104 -10.6145    227.2726     92.0058   1.0914379186e+01   1.6855330688e+01     0.176639    0.1452185 -35.45 0.0003370424    1.045    0.043
       105 -11.9469    213.1819     90.0880   1.2276858910e+01   1.9792933980e+01    0.3645907    0.2385423 -58.23  0.001155989    1.702    0.413
       106 -10.1419    167.4380     90.2789   1.9634404197e+01   2.9549638411e+01    0.3488573    0.2356462  78.97  0.001236648    1.947    0.486
       107 -12.7430    179.3532     79.8697   1.4768028521e+01   2.8567955649e+01    0.7897061    0.6146662  21.07  0.003102697    1.705    0.413
       108 -10.8446    172.8437     90.8415   1.8773044693e+01   2.8217970005e+01    0.3447253    0.3342575 -56.34  0.001642783    1.016    0.016
       109 -10.8328    172.4757     87.0527   1.7846315723e+01   2.8950486746e+01    0.2523798    0.2329144  70.59 0.0006821037    1.109    0.098
       110 -11.6572    175.9634     85.9984   1.6950425790e+01   2.8332161951e+01    0.4738438    0.2500052  50.37  0.002048591    1.971    0.493
       111 -12.1134    248.9687     83.0521   6.6297351116e+00   1.4281750114e+01    0.2407992    0.1979935 -56.31  0.001690868    1.216    0.178
       112 -12.0496    236.1261     86.2516   8.6413133057e+00   1.6064612209e+01    0.6244596    0.3754936  89.79  0.002834543    2.774    0.639
       113 -10.9461    242.3475     80.7967   6.8214497817e+00   1.5704543862e+01    0.2941604    0.1689635  53.74  0.001687111    2.093    0.522
       114 -12.0666    232.1682     79.1995   7.5450208236e+00   1.7736443948e+01    0.4464196    0.1899468  61.69  0.002117028    2.781    0.640
       115 -12.1537    223.1799     86.8937   1.0279727102e+01   1.8338524748e+01    0.3795037    0.2390148 -37.97  0.002114991    1.349    0.259
       116 -13.0113    217.7717     83.4576   1.0165425910e+01   1.9865117122e+01    0.5041932    0.3832811  43.32  0.002146479    1.564    0.361
       117 -11.7903    162.2565     83.6328   1.8833750631e+01   3.1923022158e+01    0.4642165    0.3813648  67.67  0.001430061    1.248    0.199
       118 -10.8330    156.0278     85.6586   2.0637470688e+01   3.3045035737e+01    0.3770989    0.2274293  61.66  0.001574124    1.760    0.432
       119 -11.5631    147.9578     84.3375   2.1977878811e+01   3.5224732511e+01    0.4811743    0.3995089  78.52  0.001323374    1.285    0.222
       120 -11.5653    147.3322     79.1272   2.0605173771e+01   3.6328664479e+01    0.3853181    0.2935943 -53.60 0.0009687811    1.341    0.254
       121 -10.9503     18.4494     82.3959   6.9824228663e+01   6.0092179043e+01    0.3947401    0.1722103 -29.10  0.001419467    3.131    0.681
       122 -10.6788     82.9484     79.4579   3.9487539244e+01   5.1485721056e+01    0.5422778    0.2028742  43.28  0.001780825    2.564    0.610
       123 -11.2832     86.6911     75.9904   3.6953724183e+01   5.1472706516e+01    0.4860663    0.2904224 -45.47  0.001351675    1.747    0.428
       124 -11.7358     82.8594     72.5580   3.7238615070e+01   5.3057962985e+01     0.533896    0.3707439  35.82  0.001960006    1.463    0.317
       125 -11.2525     65.9276     70.4222   4.3479668436e+01   5.6940153334e+01    0.6049278    0.2399733  37.22  0.001744973    2.477    0.596
       126 -12.1125     74.4105     75.3179   4.1507227684e+01   5.4175062926e+01    0.6962238    0.5216343  50.85  0.002215856    1.347    0.257
       127 -10.2818     74.4636     70.5622   3.9886250083e+01   5.5250084267e+01    0.2635655    0.1977261 -37.89 0.0001116353    1.438    0.304
       128  -9.8205    155.5302     76.9364   1.8269880715e+01   3.4708098816e+01    0.2608531    0.1967869  88.71  0.001234414    1.544    0.352
       129  -9.4666    151.4041     76.4806   1.8972738456e+01   3.5799216589e+01    0.1513292    0.1414856 -73.41 -0.0001501341    1.040    0.038
       130 -11.8894    249.7081     73.0797   4.4981741317e+00   1.5437359840e+01    0.5382567    0.2165643 -32.64  0.002659559    2.036    0.509
       131 -10.5328    126.8621     59.0414   1.8931243536e+01   4.5057100899e+01    0.5140763    0.2952882  34.67  0.001943768    2.417    0.586
       132 -12.1497    173.5940     56.8607   9.4077565601e+00   3.3496525731e+01    0.3276797    0.2744771  82.45 0.0004320848    1.173    0.147
       133 -12.8337    208.9420     68.1682   7.6511527285e+00   2.3830051684e+01    0.6055898    0.3260753 -31.98  0.001362487    1.738    0.425
       134 -11.6048    123.3678     53.5909   1.7887241059e+01   4.6882098457e+01     0.398385    0.2563516  66.31 0.0005726315    1.542    0.351
       135 -10.2445    207.9181     52.8645   4.0509529867e+00   2.6140159760e+01    0.2310235    0.1737167 -89.60 0.0008719634    1.385    0.278
       136 -10.5916    131.0328     51.5339   1.5415036658e+01   4.5203298587e+01    0.3456007    0.1688447 -53.03  0.001267568    2.442    0.590
       137 -12.8048     87.4580     60.9563   3.1355141851e+01   5.4487398556e+01     1.222807    0.5786996 -30.12 0.0008837234    3.193    0.687
       138  -9.7693    199.7192    106.0104   1.7922655205e+01   1.9984519484e+01    0.1950299    0.1580939 -33.55 0.0004133926    1.132    0.117
       139 -12.6997    161.8435     65.2713   1.3713980281e+01   3.5098476299e+01      1.58732    0.6540482  65.26  0.004377332    2.668    0.625
       140 -11.5931    162.1767     20.8825   3.1863700073e-01   4.1056761553e+01    0.4134331    0.3035569  87.23 0.0005999143    1.238    0.192
       141 -11.5898    158.9344     27.0276   2.6004668177e+00   4.1195385348e+01    0.4005848    0.2675256  -6.98  0.001611428    2.127    0.530
       142 -11.2808    144.6573    102.7437   2.7822695997e+01   3.2467459084e+01    0.3800934    0.3206362  26.23  0.001457714    1.320    0.242
       143 -10.4808    143.5188     45.9646   1.1045072710e+01   4.2756478355e+01    0.5008169    0.2472747  46.03  0.001943328    2.316    0.568
       144 -11.4420    163.6181     30.3233   3.0220818167e+00   3.9586779908e+01    0.9776567    0.2523766 -44.75  0.003175909    3.518    0.716
       145 -11.3496    155.0469     42.3421   7.9315560122e+00   4.0249282114e+01    0.7118925    0.4530782   5.11  0.002853899    2.874    0.652
       146 -12.2229    150.2236     41.5339   8.4473184897e+00   4.1620630988e+01    0.6632578    0.5445526  25.75   0.00344176    1.564    0.361
       147 -10.7953    146.4487     39.5606   8.4316118106e+00   4.2885865162e+01    0.2242351    0.2185675 -14.06 0.0005371743    1.204    0.169
       148 -12.2120    161.6924     40.0177   6.2214645697e+00   3.8846310581e+01    0.4888513    0.3450483  61.47 0.0007135878    1.400    0.286
       149 -11.6302    161.4906     35.5174   4.8798897278e+00   3.9486240256e+01    0.3764895     0.257095  73.35  0.000529292    1.387    0.279
       150 -10.4249    132.9761     46.3065   1.3205292161e+01   4.5495765128e+01    0.3031749     0.202389 -51.71 0.0007049207    1.560    0.359
       151 -11.4731    133.3434     40.3608   1.1066876439e+01   4.6264371288e+01    0.4987306    0.3521572 -72.64  0.002206497    1.566    0.362
       152  -9.8118     99.4084     46.7201   2.1794402275e+01   5.4219357930e+01    0.2685222    0.1827465 -49.86 0.0007924961    1.611    0.379
       153 -12.0434     95.9142     41.9729   2.0931026841e+01   5.5886796977e+01    0.6380144    0.2859085  55.34  0.001275919    2.051    0.512
       154  -9.9516    104.7844     42.6192   1.8588069314e+01   5.3507215012e+01    0.2740364    0.1798276  76.27 0.0009637851    1.750    0.429
       155  -9.5475     94.1777     47.2438   2.3652131764e+01   5.5441737749e+01    0.2038918    0.1697697 -67.47 0.0004612661    1.360    0.265
       156 -11.0197    126.3067     45.4365   1.4319535088e+01   4.7398437890e+01    0.3491886    0.2795595  26.71 0.0006008699    1.549    0.354
       157  -8.9963    121.3375     45.3142   1.5400810517e+01   4.8736127522e+01    0.1579438    0.1147203  32.24 0.0007046972    1.694    0.410
       158 -12.1113     56.6236     99.5091   5.5682044005e+01   5.1245791764e+01    0.5317613    0.1610501  34.66  0.001680573    2.986    0.665
       159 -10.5492    225.9436     99.3146   1.2676502090e+01   1.6052194227e+01    0.1716337    0.1504963 -32.67 0.0005058828    1.032    0.031
       160  -9.5852    112.1442     38.6828   1.5098749977e+01   5.2172286667e+01    0.2256395    0.1209815  52.66 0.0004069118    1.729    0.422
       161 -11.6366     90.9750     34.3077   1.9179886304e+01   5.8332915185e+01    0.6608654    0.3196016  46.46  0.002617497    1.988    0.497
       162  -9.4227    211.2746     34.2843   3.5920650443e+02   2.7746887743e+01    0.1100957   0.09884644  26.18            0    1.506    0.336
       163 -11.1162    131.8592     33.3886   8.8842610027e+00   4.7613804870e+01    0.3461499    0.2184136 -44.93 0.0003824602    1.614    0.380
       164 -10.3562    121.6819     33.0930   1.0776129117e+01   5.0400134746e+01    0.2344558    0.1936768  68.05 0.0006294235    1.104    0.094
       165  -9.9321    112.5312     32.1351   1.2418329847e+01   5.2991939106e+01    0.3332232    0.2018122  42.24  0.001444622    1.812    0.448
       166  -9.7065    114.5078     28.4164   1.0490817919e+01   5.2948768944e+01    0.1819711     0.150318  -4.46 7.434549e-05    1.499    0.333
       167 -10.8617    103.8771     29.3455   1.3371374948e+01   5.5677407354e+01    0.4319311    0.3485712 -68.76  0.001458262    1.356    0.262
       168 -11.5347    141.7058     96.2093   2.6753854736e+01   3.4445417095e+01    0.4823608    0.3080428  45.31  0.001356277    1.568    0.362
       169 -10.1763     80.4503     30.5192   2.0957725207e+01   6.1522741283e+01    0.2076401    0.1971308  78.93 0.0001229751    1.108    0.098
       170 -10.7678     85.2273     28.8388   1.8528177667e+01   6.0582518652e+01    0.5738591     0.224225  53.51  0.001930815    2.237    0.553
       171  -9.5111    237.8854     31.0000   3.5648929325e+02   2.2676823482e+01    0.1699113   0.06448963  74.89  0.000798505    2.915    0.657
       172  -9.7961    138.4480     29.7993   6.4698358507e+00   4.6297055007e+01      0.17413    0.1458857  -2.32  0.000251232    1.519    0.342
       173 -12.2778    238.1480     51.1589   8.4673882424e-01   2.0252581122e+01    0.4095146    0.2359827 -49.98  0.001992842    1.450    0.310
       174 -13.1603    121.0614     99.9823   3.3169741509e+01   3.8452549332e+01    0.9061494    0.3614462 -44.82  0.003057602    2.594    0.614
       175 -12.0272    137.5765     81.6408   2.3559807315e+01   3.8259113861e+01    0.6975329    0.6076825  75.15  0.001565372    1.165    0.142
       176 -13.7488    128.9737     95.7922   2.9836563955e+01   3.7512409045e+01     1.229095    0.5728142  51.77  0.004362511    2.150    0.535
       177 -12.8347    121.7948     87.2856   2.9302177736e+01   4.0966586996e+01    0.6286459    0.5187989  -8.01  0.002955979    1.552    0.356
       178 -12.5536    127.3192     90.2837   2.8693145253e+01   3.9036136188e+01    0.6821746    0.3531556  39.42  0.001841802    2.152    0.535
       179 -11.6870    131.9985     87.0087   2.6519908758e+01   3.8575199392e+01    0.5569788    0.3045372  61.20  0.001622756    2.074    0.518
       180 -12.1795    125.3656     81.8782   2.6697343802e+01   4.1200634711e+01    0.7565661     0.417825  30.46  0.002601883    2.839    0.648
       181  -9.4027    130.5422     19.4583   4.0607736042e+00   4.9651911646e+01    0.2501101    0.1321234  73.91 0.0005923517    1.735    0.424
       182 -11.8425    176.1377     24.1349   3.5978799501e+02   3.7143811933e+01    0.3360949    0.2099108 -39.80  0.000709928    1.497    0.332
       183  -9.5248    180.1756     20.6346   3.5841005888e+02   3.6536864459e+01    0.2050817    0.1546877 -78.60 0.0008441697    1.181    0.153
       184 -11.3699    128.0155     76.0275   2.4194678409e+01   4.1687397922e+01    0.3873612    0.3059523  51.12  0.001022758    1.232    0.188
       185 -10.0461    128.6911     24.0144   6.0446916682e+00   4.9637929593e+01    0.2313742    0.1897208  74.58 0.0007762369    1.094    0.086
       186 -10.8629    112.9855     22.5709   8.4595064427e+00   5.4078691866e+01    0.4712631    0.2908766  40.70  0.002119318    1.826    0.452
       187 -12.8467    229.8933     47.3302   6.8373032561e-01   2.2310159524e+01    0.6088675    0.4904318  47.08  0.003204019    1.611    0.379
       188  -9.7514     90.6579    104.2833   4.3881351845e+01   4.4024549167e+01    0.1652396    0.1218672  69.25 0.0003982422    1.635    0.389
       189  -9.9868    102.0299     20.0028   9.7929618003e+00   5.7335070708e+01    0.3676716    0.2634203 -26.26  0.001842732    1.574    0.365
       190  -9.7740    170.7852     19.3526   3.5894911642e+02   3.9020698545e+01    0.1925295    0.1112585  65.53 0.0009345245    1.668    0.400
       191  -9.7683     14.4935     19.1049   5.3768359860e+01   7.5651247536e+01    0.1788657    0.1225719 -55.21 0.0006034607    1.509    0.337
       192  -9.9681    194.5317     18.1994   3.5653428465e+02   3.3357015847e+01    0.2103916    0.1387674 -60.81   0.00117346    1.312    0.238
       193 -10.7590    118.6145     17.1696   5.1990347034e+00   5.3153536117e+01     0.326538    0.2676524  73.79 0.0008942906    1.078    0.073
       194 -11.1108    169.4003     98.4769   2.1396967470e+01   2.7654874489e+01    0.5220031    0.3886636   0.38  0.002446511    1.880    0.468
       195 -10.7091     87.9037     97.8498   4.3123113331e+01   4.6133818849e+01    0.4557888    0.3429856 -13.03  0.001832866    1.869    0.465
       196 -11.3627     82.9672    101.9392   4.5993195390e+01   4.6104681657e+01    0.3053384    0.2807701  32.55            0    1.095    0.087
       197  -9.9442    154.0256     16.0928   3.5974225313e+02   4.3703713664e+01    0.2408052    0.1902665  19.55  0.001019003    1.722    0.419
       198 -11.6485     83.0222     98.1724   4.4974067374e+01   4.7020931339e+01    0.5678461    0.3195108  27.36  0.001485362    2.120    0.528
       199 -12.1992    152.1606     98.2471   2.4904544544e+01   3.1617754976e+01    0.7386305    0.4210614 -61.22   0.00279698    2.481    0.597
       200 -12.5538    146.4846     65.0796   1.6560222759e+01   3.8988173471e+01     1.061935    0.8466237 -26.17  0.005289764    1.415    0.293
       201 -10.7552     46.9752    101.0378   6.0080468588e+01   5.2191891337e+01    0.2485388    0.1712636 -35.46  0.001125575    1.682    0.405
       202 -10.4775    160.0803     14.0490   3.5844312454e+02   4.2329919910e+01    0.2018974    0.1761532 -84.28            0    1.043    0.042
       203 -12.8366    199.6549     96.4815   1.5699955825e+01   2.1514087125e+01    0.3818367    0.2766187 -37.60 0.0005368759    1.255    0.203
       204 -11.5189    144.0433     53.7125   1.3464694086e+01   4.1452476093e+01    0.5821728    0.3461219  33.59  0.002170382    2.465    0.594
       205  -9.5194    102.2721     14.6788   7.3849087955e+00   5.7858632822e+01    0.1451372    0.1035501 -66.25 0.0006974647    1.570    0.363
       206 -11.4139    248.6749     43.2632   3.5837150103e+02   1.9258752880e+01    0.7405125    0.2289504 -38.84  0.002675956    2.262    0.558
       207 -10.7560    181.0245    244.0418   4.6724063104e+01   1.7567408471e+00    0.1833232    0.1333938  15.49  0.001105275    1.026    0.026
       208  -9.6299    218.5246    239.5339   3.9421616900e+01  -1.9956229444e+00    0.1091605    0.0776574   5.61  0.000223277    1.017    0.016
       209 -12.6902    168.6696     78.8535   1.6328292955e+01   3.1221088935e+01     1.205777    0.5060847 -52.24  0.001702529    2.959    0.662
       210 -12.8467    194.9154     56.2614   6.3797784836e+00   2.8559354837e+01    0.6889808    0.4794111  55.15  0.002844244    1.584    0.369
       211 -10.0701     16.0217    238.4829   8.1931494514e+01   2.2545683117e+01    0.1711576   0.09114203  29.68 0.0004859482    1.530    0.346
       212  -9.7536    101.1516    176.0132   5.5015723866e+01   2.5021027334e+01    0.1859069    0.1683349  40.51  0.001049559    1.034    0.033
       213 -11.7272    160.6973     54.0989   1.0618159615e+01   3.7111648333e+01     1.263967    0.9233832  41.52  0.006226057    1.616    0.381
       214  -9.8619    236.7234    145.9508   2.0772877826e+01   7.6663116093e+00    0.1649685    0.1286308 -23.09 0.0003859994    1.059    0.056
       215 -12.6479    177.4635     70.3316   1.2529892726e+01   3.0524619103e+01     1.822688    0.5377741  64.28  0.005520155    4.195    0.762
       216 -13.1292    183.6056     61.6099   9.2659565736e+00   3.0404426743e+01    0.9956715    0.7651033  86.27  0.005386202    1.359    0.264
       217 -12.1263    137.3156     71.1373   2.0418465589e+01   4.0261941669e+01    0.8710726    0.4825779  62.09  0.002488863    1.862    0.463
       218 -11.6852    137.0924     59.3611   1.6714154442e+01   4.2351867996e+01     0.686582    0.4517587 -48.54  0.002425995    1.556    0.357
       219 -12.8598    241.2480     60.7849   2.6627781048e+00   1.8482871421e+01     0.732884    0.5134544 -89.74  0.002534029    1.671    0.402
       220 -12.7816    245.7287     51.6028   3.3883761715e-01   1.8801386194e+01    0.7982092    0.1606272 -42.57  0.001027776    3.278    0.695
       221  -9.6390    222.4491    124.5415   1.8541881669e+01   1.2967365058e+01    0.2039287    0.1673237 -30.83 0.0006587545    1.067    0.063
       222 -13.7303    219.2706     69.7906   6.8434979288e+00   2.1492285713e+01    0.7937461     0.756937 -17.54  0.004744832    1.205    0.170
       223 -13.4688    206.8785     60.1893   5.9564499895e+00   2.5377246015e+01       1.3576    0.5975736  48.16  0.005394738    2.891    0.654
       224 -12.6805    219.1383     54.5217   3.3058326231e+00   2.3561638963e+01     1.036964    0.7346145 -11.62  0.005191048    1.854    0.461
       225 -10.3251    221.7751    121.5689   1.8016411675e+01   1.3522353281e+01    0.2964488    0.1619882  52.69  0.001156115    2.185    0.542
       226 -12.1271    172.3400     44.3495   6.0270339310e+00   3.5571842167e+01    0.4284094    0.3676839 -87.71 0.0003623921    1.089    0.082
       227 -10.2359    228.7863    118.9498   1.6481365331e+01   1.2724805639e+01    0.2612656    0.1503618  48.26  0.001044953    2.008    0.502
       228 -12.7073    105.8901     87.1975   3.3971470433e+01   4.4708292656e+01    0.8743495    0.5927165  53.86   0.00379856    1.470    0.320
       229 -12.9441    102.5644     96.0450   3.7641078263e+01   4.3472829398e+01    0.7096156    0.4771594  43.24 0.0005432631    1.434    0.303
       230 -12.0816    114.8007     86.4236   3.1030441067e+01   4.2804121444e+01    0.4583153    0.3548978  58.00  0.000344538    1.284    0.221
       231 -12.7538    114.8293     80.8805   2.9309105097e+01   4.3951543757e+01    0.6902056    0.5535014 -55.37  0.002685615    1.312    0.238
       232 -11.2106     11.5512     98.3184   7.5247196564e+01   5.6303292839e+01    0.2582207    0.2406234  81.78 0.0006007392    1.033    0.032
       233 -11.1092    250.2298     97.6372   9.4825460096e+00   1.2166696595e+01    0.2657678    0.1410638 -35.59 0.0006137987    1.492    0.330
