#   1 NUMBER                 Running object number                                     
#   2 MAG_AUTO               Kron-like elliptical aperture magnitude                    [mag]
#   3 X_IMAGE                Object position along x                                    [pixel]
#   4 Y_IMAGE                Object position along y                                    [pixel]
#   5 X_WORLD                Barycenter position along world x axis                     [deg]
#   6 Y_WORLD                Barycenter position along world y axis                     [deg]
#   7 A_WORLD                Profile RMS along major axis (world units)                 [deg]
#   8 B_WORLD                Profile RMS along minor axis (world units)                 [deg]
#   9 THETA_WORLD            Position angle (CCW/world-x)                               [deg]
#  10 FWHM_WORLD             FWHM assuming a gaussian core                              [deg]
#  11 ELONGATION             A_IMAGE/B_IMAGE                                           
#  12 ELLIPTICITY            1 - B_IMAGE/A_IMAGE                                       
         1 -12.9140    112.7376     28.4718   2.9073295854e+02   6.7530984038e+00   0.06325526   0.05480562 -52.76  0.005501683    1.138    0.121
         2 -10.3073    216.0129      8.7967   2.8942874433e+02   6.3543892886e+00   0.02710724   0.01262016  57.63   0.00193314    3.695    0.729
         3 -11.3179    118.8861      9.5645   2.9054532180e+02   6.9316732722e+00   0.03055158   0.02635225 -13.47  0.002752414    1.254    0.202
         4  -8.4502      2.3235      8.6565   2.9187681318e+02   7.6414430207e+00  0.007013571  0.004959132  64.80 0.0007050519    1.733    0.423
         5  -9.5294    178.8318      5.8268   2.8983561404e+02   6.6128603919e+00  0.009450678  0.007806955  65.07 0.0006781769    1.347    0.258
         6  -9.4402    172.0012      2.6523   2.8989409109e+02   6.6902622714e+00   0.01239554  0.009180599  77.61  0.001227959    1.675    0.403
         7  -9.6793    237.1680      2.1658   2.8914576600e+02   6.3019440346e+00   0.01723178  0.004140782  31.10  0.001130523    3.738    0.732
         8  -9.4610     47.9888    222.9429   2.9267396358e+02   4.9204384441e+00   0.01292011  0.008637595 -46.35  0.000448246    1.503    0.334
         9 -10.8857    154.6726    250.1624   2.9162222433e+02   3.9694249437e+00   0.03244419   0.01036101  29.42  0.001966358    3.024    0.669
        10  -9.5893    160.7986    249.3804   2.9154746481e+02   3.9415454041e+00   0.01343891   0.01103918  29.72 0.0006099134    1.220    0.180
        11 -18.8038    143.9213    170.1273   2.9125186098e+02   4.9483392667e+00    0.3082689    0.2951956  69.76   0.01773638    1.081    0.075
        12 -10.5498     44.0043    220.0434   2.9270172182e+02   4.9774364360e+00   0.02625727   0.01943756  26.57  0.002909026    1.364    0.267
        13 -10.9392    207.7444    111.4290   2.9015956301e+02   5.2341180605e+00   0.02521773   0.01767979 -60.66  0.001965237    1.413    0.292
        14  -9.6473    237.3497    109.7295   2.8981087619e+02   5.0748302047e+00   0.01987607   0.01127129  87.24  0.001586152    3.079    0.675
        15 -11.1565     17.9262    195.0129   2.9284631654e+02   5.4196023009e+00   0.02970224   0.02428395 -22.83  0.002219701    1.343    0.255
        16 -11.4264    215.6654    199.1555   2.9061143446e+02   4.1849886473e+00   0.02915152   0.02207457  82.87  0.002422285    1.602    0.376
        17 -10.7692    181.8295     89.2775   2.9031865546e+02   5.6431938427e+00   0.01963568   0.01182352  35.76  0.001599227    1.637    0.389
        18 -11.1066    184.7350     96.6645   2.9033116542e+02   5.5413792427e+00    0.0218677   0.01147687 -61.26  0.001464922    1.888    0.470
        19  -8.0115      5.4097    233.4941   2.9322555510e+02   5.0544737204e+00  0.006511462  0.006292571 -45.13 0.0002472908    1.025    0.024
        20 -14.9045    174.6960    162.9208   2.9085560533e+02   4.8454661111e+00   0.04228199   0.02928065  14.17  0.002406128    1.609    0.378
        21 -11.4934    101.2473     90.2964   2.9124716555e+02   6.1166740637e+00   0.03164845   0.02051621 -43.90  0.002002686    1.584    0.369
        22  -9.6352     50.7801    181.7982   2.9238916358e+02   5.3740432032e+00   0.01255347   0.01038818 -88.72  0.000525296    1.346    0.257
        23 -11.0991     50.6740    177.6385   2.9236478807e+02   5.4222250964e+00   0.02286066   0.01540587   4.20  0.002299458    1.835    0.455
        24  -8.8017    209.3689     93.9247   2.9003261628e+02   5.4240409949e+00   0.02105623   0.00765934  49.11  0.001394126    3.992    0.750
        25 -10.9137    151.7234     83.2982   2.9062603433e+02   5.8928685446e+00   0.02200999   0.01463342 -66.81  0.002091933    1.559    0.359
        26 -10.4996     81.9090     99.5930   2.9152608782e+02   6.1266665103e+00   0.01966461   0.01286692  22.84  0.001534322    1.591    0.371
        27  -9.2134    234.1869     79.6193   2.8966043812e+02   5.4373556054e+00   0.02310753  0.007228877  30.99  0.001704797    3.003    0.667
        28  -9.7060    232.8541    215.2059   2.9051437162e+02   3.8982249648e+00   0.01825537   0.01109044 -46.41  0.001356993    1.660    0.398
        29 -11.9475    104.8138    231.1004   2.9207450261e+02   4.4865958837e+00   0.04752409   0.01963528  43.20  0.002668382    2.574    0.611
        30 -10.5085     93.4875    222.5361   2.9215128559e+02   4.6524206703e+00   0.01060558   0.01034032 -86.08  0.000256876    1.046    0.044
        31 -11.6352    145.0229     72.6875   2.9063703980e+02   6.0543163643e+00   0.02298496   0.01569933   9.17  0.002361438    1.720    0.418
        32 -10.6345     38.6435    214.6953   2.9273018804e+02   5.0706599169e+00   0.04066809   0.01115253  33.52   0.00288841    3.254    0.693
        33 -11.1410    157.7751     74.3340   2.9050129144e+02   5.9587069426e+00   0.01744288   0.01373684  65.00  0.001950189    1.451    0.311
        34  -8.8609    191.7124     67.1033   2.9006829110e+02   5.8365553817e+00   0.01159453  0.008775888  42.67 0.0008739044    1.346    0.257
        35 -11.0942    144.3210     59.6500   2.9056434902e+02   6.2073060796e+00   0.01937257   0.01515457  64.28  0.001372414    1.462    0.316
        36 -10.6053    160.0959     60.6213   2.9038980769e+02   6.1011728249e+00   0.02196481   0.01390358  57.57  0.001157914    1.935    0.483
        37  -9.2383      2.5697    212.8458   2.9313144399e+02   5.3075098723e+00   0.01208973  0.009559869 -29.26 0.0006443934    1.376    0.273
        38  -9.3131    196.7690     54.9768   2.8993530750e+02   5.9443338884e+00   0.01034124  0.009377962  19.69 0.0002873426    1.119    0.106
        39 -10.7270    177.3028     54.1730   2.9015297008e+02   6.0709692768e+00   0.02022659   0.01265373  16.19  0.001995804    1.811    0.448
        40 -10.4726    210.8776    208.1423   2.9072155948e+02   4.1112210968e+00   0.02127486    0.0138377 -39.73  0.001604663    1.647    0.393
        41  -9.2687    213.9438     50.2060   2.8970937042e+02   5.8950152652e+00   0.01235037   0.01004686  17.03 0.0004389236    1.283    0.220
        42  -9.5120    193.3323     50.3085   2.8994566474e+02   6.0183114883e+00    0.0114663  0.009067294 -11.93 0.0005711576    1.454    0.312
        43  -9.6618    195.0769     46.9339   2.8990478930e+02   6.0462568070e+00   0.01449645   0.01063612 -34.13 0.0005328147    1.484    0.326
        44 -11.6781    115.8452     47.7099   2.9081650688e+02   6.5149582740e+00   0.02649936   0.01409216 -67.77 0.0007147877    2.047    0.512
        45 -11.2182     48.9632    147.0574   2.9219612584e+02   5.7819878093e+00   0.02786542   0.01569467  26.87  0.002578878    1.799    0.444
        46  -9.3895    182.6836     46.0855   2.9004128200e+02   6.1307335128e+00   0.01195413  0.008628455  39.55  0.001029386    1.392    0.282
        47  -9.5934    136.8890     45.7037   2.9056305914e+02   6.4111674524e+00   0.01084705  0.008660297 -45.25 0.0003112069    1.253    0.202
        48  -9.6913    223.5087     43.5109   2.8955852213e+02   5.9135395536e+00   0.01297631   0.01097882   6.15 0.0005777464    1.267    0.211
        49 -10.1221    221.9104     40.1377   2.8955586154e+02   5.9616447865e+00    0.0196061   0.01300372  55.27  0.001140014    1.750    0.428
        50  -8.8566    250.6767     40.3609   2.8922861582e+02   5.7851679466e+00    0.0107901  0.006144372 -65.05 0.0004255151    1.816    0.449
        51 -10.0299    132.9545     39.2305   2.9056801380e+02   6.5086970745e+00   0.02368884  0.007383062  32.17  0.001757171    2.965    0.663
        52  -9.0765    196.5841     32.6678   2.8979907004e+02   6.1997897008e+00   0.01795674   0.01031882  68.62  0.001489881    2.819    0.645
        53  -9.1875    177.0692     33.8267   2.9002950334e+02   6.3043826104e+00   0.01374421  0.009289285  28.19  0.001446414    1.485    0.327
        54  -9.9954    178.7382     30.2479   2.8998820991e+02   6.3351098635e+00   0.01806046   0.01241047  63.91  0.001832915    1.807    0.447
        55  -9.9227    241.3067     32.6535   2.8928779429e+02   5.9296589905e+00   0.01490441   0.01049184  61.86  0.001544081    1.704    0.413
        56  -8.7721    202.8568     23.0928   2.8966792197e+02   6.2710271774e+00   0.01040078  0.008902363  61.87 0.0006404732    1.264    0.209
        57 -10.2577    145.5131     21.7064   2.9031557120e+02   6.6328660327e+00   0.01128487   0.01114913  -2.33 0.0002561957    1.014    0.014
        58 -11.4279     50.2774    207.1330   2.9255067517e+02   5.0874598132e+00   0.02606086   0.02032021 -13.06  0.001523366    1.487    0.327
        59 -10.4001     39.5215    210.9598   2.9269720496e+02   5.1081083124e+00   0.01423841   0.01151854 -46.34  0.001223125    1.231    0.188
        60  -8.0860    190.2984     15.3283   2.8976338010e+02   6.4353602188e+00   0.00692327  0.004889981 -28.92 0.0007028333    1.637    0.389
        61 -10.7733     10.5389    206.9422   2.9300406439e+02   5.3273848311e+00   0.03149528   0.01744004  14.40  0.002841284    2.223    0.550
        62 -10.1556    238.6412    130.3121   2.8992356620e+02   4.8322145671e+00   0.02618236   0.01331786 -75.49  0.002169493    2.641    0.621
        63  -9.9027    234.0678    122.9898   2.8993045631e+02   4.9433619579e+00    0.0218102   0.01303134 -88.98  0.001911059    2.513    0.602
        64  -9.4528    223.4728    128.9625   2.9008841068e+02   4.9391467433e+00   0.01258348  0.008696704  46.74  0.000761388    1.523    0.344
        65  -8.8910     70.0922    244.0291   2.9255076501e+02   4.5470308259e+00  0.009744684  0.008895516 -35.68 0.0002931092    1.108    0.097
