#   1 NUMBER                 Running object number                                     
#   2 MAG_AUTO               Kron-like elliptical aperture magnitude                    [mag]
#   3 X_IMAGE                Object position along x                                    [pixel]
#   4 Y_IMAGE                Object position along y                                    [pixel]
#   5 X_WORLD                Barycenter position along world x axis                     [deg]
#   6 Y_WORLD                Barycenter position along world y axis                     [deg]
#   7 A_WORLD                Profile RMS along major axis (world units)                 [deg]
#   8 B_WORLD                Profile RMS along minor axis (world units)                 [deg]
#   9 THETA_WORLD            Position angle (CCW/world-x)                               [deg]
#  10 FWHM_WORLD             FWHM assuming a gaussian core                              [deg]
#  11 ELONGATION             A_IMAGE/B_IMAGE                                           
#  12 ELLIPTICITY            1 - B_IMAGE/A_IMAGE                                       
         1 -12.6157      2.9961    151.7410   1.2691771460e+02   4.2333142004e+01     2.986661          nan -73.44   0.00731697    9.301    0.892
         2 -12.7099      2.3725    124.6942   1.2510499405e+02   4.8478044809e+01      2.30365    0.1926986 -76.00  0.005825127    7.756    0.871
         3 -12.3022      9.3347     25.8981   1.0469154916e+02   7.0586656347e+01     1.621469    0.2769707 -49.93  0.006245277    3.244    0.692
         4 -11.6930      2.8196     21.6310   1.0667921255e+02   7.1843973444e+01     1.106339    0.2752276 -58.93  0.004612445    2.971    0.663
         5 -11.4989    208.0565     28.2108   4.7730450772e+01   2.9252230031e+01    0.7327546     0.582119 -40.37  0.003962053    1.171    0.146
         6 -10.8041    214.2642     21.5065   4.5151180358e+01   2.8481747975e+01     0.473608    0.2973091  32.31  0.001213035    2.170    0.539
         7 -10.4152    227.2096     11.2026   4.1163389542e+01   2.6447586089e+01    0.4284773    0.2391067  35.59  0.001700458    2.658    0.624
         8 -11.4466    224.9267      8.0658   4.0517842524e+01   2.7323350056e+01    0.6560702    0.5826226 -62.69  0.003214422    1.018    0.018
         9 -10.7001    201.2344    231.5540   9.5971480790e+01  -1.0760386256e-01    0.5554054    0.3116953 -18.80  0.003147335    2.379    0.580
        10  -9.7941    220.6967    249.8853   9.5354615880e+01  -4.9051254859e+00     0.499738    0.1370623  36.50   0.00231086    2.866    0.651
        11 -10.2855    209.1201    248.8100   9.7075590502e+01  -3.1823507512e+00    0.3599996    0.2688849  28.52  0.002726748    1.062    0.058
        12  -9.4913    198.6727    249.5828   9.8889181278e+01  -1.7797063664e+00    0.2295775     0.177188  10.32  0.001739662    1.261    0.207
        13  -9.7159    186.0294    244.3603   1.0031438378e+02   6.4977426188e-01    0.3746773    0.3108475 -88.25  0.002644327    2.085    0.520
        14 -11.1197    182.8389    249.7615   1.0153976803e+02   4.8713483165e-01    0.7440216    0.2532153  47.93   0.00336584    3.084    0.676
        15 -13.6731     62.3759    164.4467   1.1454099521e+02   3.3415557243e+01     1.405469     1.134268 -85.80   0.00187174    1.098    0.089
        16 -11.9536     73.6868    239.2751   1.1927960110e+02   1.7523257000e+01     0.898609    0.2571087  45.46  0.004129587    2.481    0.597
        17 -12.8139     85.7266    248.9467   1.1795894580e+02   1.4437008893e+01     1.746751    0.2045039  41.25  0.006170846    4.964    0.799
        18 -13.6222     57.6180    241.8316   1.2218142325e+02   1.9103478630e+01      1.69055    0.5523843  54.69  0.008828293    2.447    0.591
        19 -12.2399     70.0041    224.9999   1.1883809270e+02   2.0400270521e+01    0.8098005    0.4561377  62.82  0.003852461    1.529    0.346
        20 -15.5868     52.4824    197.7413   1.1994386368e+02   2.7669521286e+01     4.223919     2.021512  52.28   0.02167744    1.746    0.427
        21 -11.1875      5.4763    249.5293   1.3081512974e+02   2.3460915769e+01    0.3804615    0.1570884  51.84  0.001354499    1.604    0.377
        22 -10.8592      3.8435    241.1666   1.3079870413e+02   2.4968386985e+01    0.3519008    0.2544859  42.47  0.002991267    1.570    0.363
        23 -10.5600      2.8024    236.2477   1.3080119214e+02   2.5882373992e+01    0.3630331    0.1637313  61.70  0.002412509    1.522    0.343
        24 -11.0559      1.8733    227.4505   1.3065620559e+02   2.7467755205e+01    0.6138968    0.1563405 -87.66  0.002936953    3.759    0.734
        25 -10.5794    160.8031    231.3278   1.0300434445e+02   6.1412076292e+00    0.4426475    0.3327718   8.85    0.0028999    1.648    0.393
        26  -9.9324     26.2678    234.0499   1.2695795904e+02   2.3938003178e+01    0.1660943    0.1046076  58.00 0.0003778984    1.149    0.130
        27 -10.9253    207.7611    218.7288   9.2915894883e+01   4.4276371435e-01    0.7899553    0.3269742 -40.35  0.003921425    2.908    0.656
        28  -8.7983     30.4329    224.2826   1.2577264454e+02   2.5195880967e+01    0.1932999   0.09613842  45.76 0.0009397339    1.618    0.382
        29  -9.9850    114.4409    204.3486   1.0830250230e+02   1.7735081998e+01    0.4739022    0.2914897 -42.36  0.002575906    2.209    0.547
        30 -10.5107    124.5199    216.9107   1.0788413663e+02   1.3996923970e+01    0.5860125    0.3955028 -43.56  0.003562175    1.923    0.480
        31 -11.1022    117.8005    214.3984   1.0886513750e+02   1.5457526493e+01    0.5784341    0.4260667  54.09  0.003741991    1.150    0.131
        32 -10.7136     39.2674    249.4833   1.2560210741e+02   1.9990970506e+01    0.4054517    0.1531514  50.02  0.001827653    1.816    0.449
        33 -11.0248    143.0870    216.1486   1.0427523287e+02   1.1186154808e+01    0.2893275    0.2368265  26.47  0.001921841    1.274    0.215
        34  -9.2761      1.4723    214.6524   1.3026920207e+02   2.9775912045e+01    0.1907827   0.07841218 -84.29 0.0007733498    2.045    0.511
        35 -10.4549    103.4948    211.6286   1.1130073942e+02   1.8106744782e+01    0.5695352      0.50024  40.58  0.003976156    1.250    0.200
        36 -10.4475    101.8086    207.5850   1.1117685915e+02   1.9082822827e+01    0.3657997    0.2899531 -60.17  0.002426005    1.464    0.317
        37  -9.2680     11.9317    216.0971   1.2855081399e+02   2.8544497806e+01    0.1935261    0.1307165  61.18  0.001322268    1.127    0.112
        38 -10.6549     31.0900    249.6645   1.2689956971e+02   2.0853078711e+01    0.3798982    0.1763698  43.94  0.002023145    1.681    0.405
        39 -11.4149     10.5846    206.6374   1.2836452982e+02   3.0424395716e+01    0.5317738    0.2938511  34.38  0.002793013    2.007    0.502
        40  -9.7230      3.9900    203.4821   1.2939476746e+02   3.1623775219e+01      0.23535    0.1693823  33.56  0.001789407    1.755    0.430
        41 -10.7237      1.9272    197.5216   1.2951251183e+02   3.2945071314e+01    0.5232623    0.1493836 -84.05  0.002537626    2.998    0.666
        42 -11.1002    200.5124    199.8895   9.1110544844e+01   4.0800160267e+00    0.4924507    0.3073016   6.74  0.002537763    2.102    0.524
        43  -9.7420     77.3671    167.6627   1.1151091307e+02   3.0669746079e+01    0.2248615    0.2027462 -76.00 0.0005168631    1.185    0.156
        44 -11.4885     84.5182    161.1867   1.0897399940e+02   3.1046592838e+01    0.6890379    0.4110413 -44.68  0.002247883    2.127    0.530
        45 -11.0058     94.8585    155.8235   1.0571647876e+02   3.0633849643e+01    0.6991851    0.4557941 -45.74  0.003529502    1.779    0.438
        46 -11.5408    129.2009    244.7169   1.1013163590e+02   9.0220124882e+00    0.7291875    0.6072913 -32.61   0.00547472    1.695    0.410
        47  -9.9439    211.7737    240.6917   9.5516603870e+01  -2.6964514593e+00    0.3237258    0.2321776   4.65  0.002305819    1.379    0.275
        48 -11.3780     70.3305    145.3115   1.1008396768e+02   3.6693046757e+01    0.4036574    0.3654639 -47.47  0.001442045    1.329    0.247
        49 -11.8562     67.5205    142.5299   1.1037718474e+02   3.7725669046e+01    0.4609657     0.387725  53.27   0.00165876    1.219    0.179
        50 -10.4198     86.5020    144.3101   1.0586868065e+02   3.4551104280e+01    0.2778977    0.2442549 -53.04  0.000555854    1.245    0.197
        51 -12.0756     58.2688    131.1563   1.1105794422e+02   4.1623814371e+01    0.7515001    0.2380493 -64.75  0.002827902    2.788    0.641
        52 -11.6863     13.4667    160.5785   1.2519551419e+02   3.9545620959e+01     0.630375    0.2268938  84.70  0.002622944    2.954    0.661
        53  -8.5903    109.3416    133.3097   9.8035105313e+01   3.3237280515e+01    0.2218457    0.1759634 -17.30  0.001091187    1.754    0.430
        54  -9.4828    243.9917    132.0000   6.9864626834e+01   6.0884665114e+00    0.2058558   0.07669675  49.27 0.0008019201    2.939    0.660
        55  -9.0710     96.7671    129.5916   1.0052092951e+02   3.6293880085e+01    0.2597236    0.2131945 -33.09  0.001058676    1.466    0.318
        56  -7.8873    106.6929    121.2616   9.6128277139e+01   3.6472508892e+01    0.1451294    0.1118046  79.17 0.0003328992    1.525    0.344
        57 -11.6722     12.2446    152.3079   1.2487441718e+02   4.1471246483e+01    0.5077756    0.2631001  47.38  0.003006823    1.826    0.452
        58 -10.3769     59.4098     78.4607   9.9873241968e+01   5.4108804121e+01    0.4045205    0.1188186 -55.65  0.001388843    2.926    0.658
        59 -10.3673     32.7915     34.8453   9.6384039017e+01   6.6774330050e+01    0.7295145    0.1123806 -54.09  0.001677206    8.302    0.880
        60 -10.3083    199.1131     34.5615   5.0686683965e+01   3.0742590020e+01    0.3235531     0.235377  50.82   0.00122466    1.460    0.315
        61 -10.0549    169.1499    238.9434   1.0250884885e+02   3.8440772157e+00    0.5046981     0.279225  20.20  0.002644669    2.493    0.599
        62 -11.8106     35.2397    214.5424   1.2437924541e+02   2.6439875672e+01    0.3341556     0.304374  76.97  0.001039888    1.398    0.285
        63 -12.2332    245.4222    210.9326   8.5357825064e+01  -4.3342372150e+00     0.939315    0.6254551 -36.86   0.00601878    1.909    0.476
        64 -10.9082    248.1512    231.6405   8.8311619763e+01  -6.8594619982e+00    0.6057124    0.3507964 -22.62  0.004046798    1.759    0.431
        65 -11.7159    238.7772    226.1016   8.8921302485e+01  -5.0053066942e+00     0.967793    0.4235503  33.82  0.005396969    1.884    0.469
