#   1 NUMBER                 Running object number                                     
#   2 MAG_AUTO               Kron-like elliptical aperture magnitude                    [mag]
#   3 X_IMAGE                Object position along x                                    [pixel]
#   4 Y_IMAGE                Object position along y                                    [pixel]
#   5 X_WORLD                Barycenter position along world x axis                     [deg]
#   6 Y_WORLD                Barycenter position along world y axis                     [deg]
#   7 A_WORLD                Profile RMS along major axis (world units)                 [deg]
#   8 B_WORLD                Profile RMS along minor axis (world units)                 [deg]
#   9 THETA_WORLD            Position angle (CCW/world-x)                               [deg]
#  10 FWHM_WORLD             FWHM assuming a gaussian core                              [deg]
#  11 ELONGATION             A_IMAGE/B_IMAGE                                           
#  12 ELLIPTICITY            1 - B_IMAGE/A_IMAGE                                       
         1 -12.5860    210.1802     43.5798   3.4229112360e+01   2.8656915070e+01     1.173661     0.950798  38.36  0.007456941    1.780    0.438
         2 -11.9025    227.1438     29.3202   2.9740786423e+01   2.7077076663e+01    0.6643936    0.5284491 -72.06  0.002784631    1.033    0.032
         3 -10.6038      2.0000     34.4685   9.1474409183e+01   6.9397672207e+01     0.550528   0.09231158 -53.02  0.001973296    4.349    0.770
         4 -10.3415      2.0013     11.3044   8.2002699403e+01   7.3171606417e+01    0.3802459    0.1415649 -48.33  0.001847922    3.113    0.679
         5  -9.3755      1.8421      4.7684   7.8885387690e+01   7.4096185718e+01    0.2953289     0.134591 -37.40  0.001726114    2.032    0.508
         6 -10.0187    249.3082     10.0345   2.4677590623e+01   2.5182248754e+01    0.3320046    0.2158345 -44.66  0.002244433    1.454    0.312
         7 -10.4185    248.4780      5.8599   2.4014636692e+01   2.5778406636e+01    0.3799865    0.2921934 -20.70  0.002784142    2.127    0.530
         8 -11.5627     15.9695    248.9031   1.1737063542e+02   1.7806895727e+01    0.2991302    0.2221769  76.99 0.0008035717    1.156    0.135
         9 -11.5230     29.5691    196.9902   1.1049408595e+02   2.8331608656e+01    0.5247886    0.3673001 -34.58  0.001129499    1.835    0.455
        10 -14.4952     39.5459    188.2822   1.0702185107e+02   2.9485949715e+01     11.86565     4.931063  82.82    0.0346921    4.958    0.798
        11 -13.9549      8.7551    207.6897   1.1636201980e+02   2.7667778533e+01     2.961016     1.280397 -78.47   0.01281167    2.063    0.515
        12  -7.9684     99.2004    181.3486   8.9729637648e+01   2.3234603782e+01    0.2167712    0.1339436  41.16 0.0009366656    1.621    0.383
        13 -10.4972     58.5720    172.0644   9.9656986595e+01   3.1472010757e+01     0.500555    0.3048865 -38.81  0.002087187    1.895    0.472
        14 -10.2131     63.8260    167.3144   9.7402178719e+01   3.2044088127e+01    0.3881112    0.2736823 -33.10 0.0006211295    1.639    0.390
        15  -9.0528     96.7588    169.5923   8.8285815640e+01   2.6599482514e+01    0.2211148    0.1399868  43.29 0.0009484155    1.628    0.386
        16 -11.0015     81.9772    152.0361   8.9256345896e+01   3.3470774323e+01     1.050348    0.5285406 -42.25  0.003054339    2.124    0.529
        17 -11.4571     59.0407    134.9076   9.3145913427e+01   4.1220445590e+01     1.632798    0.6059913 -72.45  0.004104681    5.475    0.817
        18 -12.1729     68.5996    145.0078   9.2029905545e+01   3.7280326256e+01     1.484102    0.8915218  79.69  0.002936398    2.924    0.658
        19  -9.8446     32.8912    157.0914   1.0508584366e+02   3.8298325770e+01    0.3031624    0.2428725 -89.39 0.0004735035    1.228    0.185
        20 -11.8389     61.1141    153.8570   9.5984405211e+01   3.5955866798e+01    0.5677773    0.3720501 -42.40   0.00137719    1.564    0.361
        21 -10.0235     23.2112    147.3226   1.0673371530e+02   4.1750083005e+01    0.2920845    0.2576338 -81.98  0.001120875    1.073    0.068
        22 -13.4493     54.4094    233.9589   1.0802584656e+02   1.6817367725e+01     2.223099     1.938617 -59.59  0.009912081    1.282    0.220
        23  -9.3725     97.5878    138.6461   8.1684814832e+01   3.4349829716e+01    0.6149147    0.3767842 -12.74  0.002153315    2.881    0.653
        24 -10.7846     84.4893    137.6891   8.5508615127e+01   3.6787834079e+01    0.3345881    0.2965512 -31.82 0.0004890732    1.123    0.110
        25  -9.2828    107.2032    130.0605   7.6800560801e+01   3.4742007756e+01    0.4697245    0.3248859  15.53   0.00179541    1.811    0.448
        26  -9.5493     36.6811    160.6451   1.0443402302e+02   3.6983026831e+01    0.3694031    0.2443679  61.96  0.001020654    1.709    0.415
        27  -8.1197    115.2582    123.7052   7.2888244539e+01   3.4723351028e+01    0.2550035    0.1214919 -37.96 0.0008859198    2.352    0.575
        28  -7.6204     96.4797    124.5030   7.8700296033e+01   3.8053766097e+01    0.1570623    0.1495183 -25.49 8.266562e-05    1.014    0.014
        29  -8.1767    105.8820    118.3614   7.4287649061e+01   3.7787914501e+01    0.2126122    0.1909469  28.22  0.000350023    1.130    0.115
        30  -8.5488    231.0199    114.0258   4.6368073920e+01   1.3664097420e+01    0.2046171    0.1689818 -50.27 0.0007806417    1.034    0.033
        31  -8.0392    205.5262    110.5118   4.9505872897e+01   1.8978942170e+01    0.1390893    0.1230028 -49.88 7.184837e-05    1.007    0.007
        32  -7.5960     73.6966    109.3107   8.2369781547e+01   4.5579460170e+01    0.1472213    0.1209452  75.31 0.0004156544    1.610    0.379
        33 -14.6325      8.0855    244.6819   1.1871336583e+02   1.9447301934e+01      5.90441      2.25901  15.22  0.009343412    5.584    0.821
        34 -10.8748     74.2512    158.3233   9.2777111455e+01   3.2974534012e+01    0.6001694    0.4841105 -52.31 0.0006070633    1.186    0.157
        35  -8.7750     53.6760     91.4711   8.4992761467e+01   5.2672440386e+01    0.2627948    0.1254786 -52.82  0.001084282    1.993    0.498
        36  -7.9107     59.0272     78.5054   7.9169920296e+01   5.4763915847e+01    0.1982228    0.1153491  52.42  0.000810253    2.600    0.615
        37 -10.6964      7.4241     61.7240   9.6925956445e+01   6.3725990765e+01     0.377697    0.1450068 -54.65  0.001750444    2.089    0.521
        38  -8.2648     32.5112     61.5426   8.5058929798e+01   6.1632845293e+01    0.2171443    0.1535098 -36.23 0.0007341808    1.249    0.199
        39  -8.6087     29.6576     60.3276   8.5982207666e+01   6.2178138237e+01    0.2211613    0.1474791  32.92  0.000757598    1.682    0.405
        40  -9.8576     13.3722     59.9772   9.3588278207e+01   6.3691083319e+01    0.2506967    0.2135246 -49.88  0.000664079    1.255    0.203
        41 -11.6941    201.8467     49.4311   3.6432059566e+01   2.9599821619e+01    0.5263669    0.4021126  65.18  0.002367389    1.349    0.259
        42 -10.9678     78.3361    241.1859   1.0328977305e+02   1.2223924629e+01    0.5315311    0.4590763 -16.34  0.002588917    1.422    0.297
        43 -10.7293    220.6994     35.3047   3.1482111033e+01   2.7601309347e+01     0.368255    0.3082204  54.73  0.001059812    1.554    0.357
        44  -8.1777     94.0000    237.9247   9.9309607484e+01   1.0801054240e+01    0.2053826   0.07698162 -61.05 0.0008024985    2.943    0.660
        45  -8.7566     34.1750     55.7314   8.2375246271e+01   6.2575498986e+01    0.2201934     0.185673  -0.78 0.0006642349    1.087    0.080
        46 -10.6763      2.4765     49.4434   9.5994418789e+01   6.6532081100e+01    0.3992502    0.2485976 -54.30  0.002378379    1.479    0.324
        47 -10.3921    127.0009    229.6368   9.0463723182e+01   7.7923064029e+00    0.2885977    0.2764529  51.49  0.001771094    1.159    0.137
        48  -8.9882      8.5022     50.5015   9.3212339880e+01   6.5945860074e+01    0.1258584   0.09859701 -26.86 0.0003418601    1.004    0.004
        49  -7.6394    124.3041    202.6916   8.6849894236e+01   1.4079561004e+01    0.1457121    0.1145532  66.60 0.0003047525    1.606    0.378
        50  -9.7525     31.6247    222.8671   1.1225895057e+02   2.1912240998e+01    0.3517956    0.2447625 -62.04  0.001972842    1.491    0.329
        51  -8.3040    197.6483     24.5651   3.1444521488e+01   3.3610268117e+01    0.1978291    0.1145042 -15.02 0.0009453971    3.206    0.688
        52  -7.7766     86.8640    206.3858   9.6941413581e+01   1.8937118658e+01    0.1902115    0.1354932  16.41 0.0003908591    1.591    0.372
