#   1 NUMBER                 Running object number                                     
#   2 MAG_AUTO               Kron-like elliptical aperture magnitude                    [mag]
#   3 X_IMAGE                Object position along x                                    [pixel]
#   4 Y_IMAGE                Object position along y                                    [pixel]
#   5 X_WORLD                Barycenter position along world x axis                     [deg]
#   6 Y_WORLD                Barycenter position along world y axis                     [deg]
#   7 A_WORLD                Profile RMS along major axis (world units)                 [deg]
#   8 B_WORLD                Profile RMS along minor axis (world units)                 [deg]
#   9 THETA_WORLD            Position angle (CCW/world-x)                               [deg]
#  10 FWHM_WORLD             FWHM assuming a gaussian core                              [deg]
#  11 ELONGATION             A_IMAGE/B_IMAGE                                           
#  12 ELLIPTICITY            1 - B_IMAGE/A_IMAGE                                       
         1 -14.7232    240.5695     66.0174   4.5665445583e+00   1.8469550029e+01     1.236259     1.098783  -9.55  0.008661957    1.474    0.321
         2 -14.3039    247.8732     41.6094   3.5902268671e+02   2.0323700658e+01     1.051041    0.4102225 -45.47  0.005531432    1.906    0.475
         3 -14.1964    248.5175     31.0069   3.5689383181e+02   2.1478654316e+01    0.8911834    0.4550258 -27.80  0.004954664    2.191    0.544
         4 -13.4739    233.1450     31.3867   3.5801398740e+02   2.4292339354e+01    0.6459665    0.2501298 -43.07  0.003298257    1.968    0.492
         5 -12.9621    245.8429      8.3102   3.5265204688e+02   2.4475485123e+01    0.4764169    0.2833906  82.51  0.003208241    1.684    0.406
         6 -11.2175    184.6008    227.8360   4.5243669676e+01   1.5738422302e+00    0.1562564    0.1156913 -46.77 0.0009529767    1.762    0.432
         7 -10.2347    198.6388    215.3323   4.0517205639e+01   1.6509031621e+00    0.1099565   0.09920429  55.54 0.0007039523    1.806    0.446
         8 -10.7735     92.3768    213.1762   6.3960890960e+01   1.7252080858e+01    0.1808405    0.1313779 -83.64 0.0009528297    1.736    0.424
         9 -10.4530     76.4990    213.0056   6.7912892976e+01   1.9460832093e+01    0.1898203    0.1072997  74.73 0.0008105738    2.571    0.611
        10 -11.1694     85.5164    208.5157   6.5119780922e+01   1.9208472071e+01    0.2360735    0.1359659 -82.58  0.001040093    2.463    0.594
        11 -11.6370     98.6499    205.0943   6.1350825047e+01   1.8074508419e+01     0.289783    0.1820887 -77.81  0.001347689    2.188    0.543
        12 -10.8907    197.5139    204.1339   3.8845926804e+01   3.5406263949e+00    0.1910394    0.1727173  22.61  0.001159099    1.342    0.255
        13 -11.7851    184.8366    203.6303   4.1249439050e+01   5.3961505370e+00    0.2949717    0.1935452  56.01  0.001406854    2.747    0.636
        14 -11.3881    123.9204    197.8980   5.3966726476e+01   1.5759622562e+01    0.3699111    0.2095628 -61.84  0.001640859    2.257    0.557
        15 -12.3283     88.2488    197.3813   6.3005919940e+01   2.1288335258e+01    0.4455417     0.257475 -84.42  0.001869297    2.589    0.614
        16 -10.1974    216.0194    195.5061   3.3928302722e+01   2.3887545756e+00    0.1463929    0.1075868  55.23 0.0008085298    2.405    0.584
        17 -10.7692    184.8667    194.5265   3.9650491875e+01   6.9283807887e+00    0.2178949    0.1502525 -40.59  0.001200932    1.497    0.332
        18 -11.0778    246.5144    193.5006   2.8545745650e+01  -1.1165844478e+00    0.2148733     0.178875 -65.54  0.001385423    2.426    0.588
        19 -10.8868    224.7979    193.3458   3.2025614711e+01   1.5677102847e+00    0.2759552    0.1502944 -47.88  0.001411507    2.379    0.580
        20 -11.3570    102.7894    193.2105   5.8609353299e+01   2.0054668974e+01    0.2507194    0.1410594  63.41 0.0009573328    2.817    0.645
        21 -11.9843     77.2252    192.1341   6.5260700137e+01   2.4063676034e+01    0.3372624    0.1956772 -61.29  0.001572486    1.840    0.456
        22 -11.3264    129.4324    188.2635   5.1026418164e+01   1.6893179340e+01    0.3127748     0.273785  87.79  0.001716683    1.463    0.316
        23 -11.8163     95.6786    188.5274   5.9794158084e+01   2.2200088096e+01    0.3109314    0.2152597 -74.95  0.001496951    1.758    0.431
        24 -11.6736     93.8592    182.5306   5.9386435720e+01   2.3868882370e+01    0.4637833     0.216486 -51.51  0.001871536    2.256    0.557
        25 -11.1917    112.1061    197.2237   5.6815656101e+01   1.7742001196e+01    0.3265708    0.1925407  66.18  0.001275934    2.933    0.659
        26 -10.1460    165.0000    184.9901   4.2108599498e+01   1.1728253021e+01    0.2237931   0.07699339 -45.50 0.0008067326    2.972    0.664
        27 -11.1542    120.0000    183.9331   5.2671111074e+01   1.9369206151e+01    0.2302785   0.08438031 -53.66 0.0008029783    2.946    0.661
        28 -10.4164     83.3229    181.6365   6.2162379200e+01   2.5672063223e+01    0.1584455    0.1043169  62.95 0.0007040512    1.786    0.440
        29 -11.2329    147.6825    179.7085   4.5079991171e+01   1.5631210013e+01    0.2770683    0.1862033 -73.06  0.001182962    2.551    0.608
        30 -10.9319    150.0211    169.0641   4.2496912486e+01   1.7411097533e+01    0.3904596    0.2025786 -51.66  0.001619758    2.134    0.531
        31 -10.8664    120.7079    170.1535   5.0046376545e+01   2.2321454327e+01    0.2322128    0.1965208 -81.56  0.001053225    1.447    0.309
        32 -11.2952     54.8084    168.1084   6.8571336948e+01   3.2961248844e+01    0.3736997    0.1952644 -83.49  0.001504104    2.323    0.570
        33 -11.5938    212.9101    162.2135   2.8268944932e+01   8.1486607242e+00    0.3380033    0.1761169 -40.40  0.001673044    1.745    0.427
        34 -10.2353    132.3216    163.6482   4.5782828902e+01   2.1725974890e+01    0.1527117     0.119764  74.62 0.0007047852    1.750    0.428
        35 -10.6053     91.5123    158.9942   5.6165646613e+01   2.9929721115e+01    0.2348429    0.1525962 -60.37  0.001039958    1.617    0.381
        36 -10.3327     81.3220    154.6669   5.8463277256e+01   3.2651719074e+01    0.1623295    0.1134435  65.38  0.000705002    1.703    0.413
        37 -11.0221    199.1492    148.8657   2.8021888091e+01   1.2666249520e+01    0.2551073    0.1543427 -45.13  0.001260258    1.620    0.383
        38 -11.3182    105.8991    144.1587   4.9037341987e+01   3.1085770527e+01     0.398288    0.2464566  78.68  0.001342752    3.244    0.692
        39 -11.2431     54.8932    144.7717   6.5249054123e+01   3.9035806014e+01    0.3087616    0.1863087  74.45  0.001255792    2.170    0.539
        40 -10.3416    203.6652    140.6808   2.5500211334e+01   1.3327473825e+01    0.1389283   0.09996026  -3.81 0.0007049115    1.700    0.412
        41 -11.6193      2.0000    138.9774   8.2221071068e+01   4.5564316767e+01    0.3774676   0.06815843 -78.95  0.001049891    4.921    0.797
        42 -10.4938    148.3322    144.6692   3.7815257636e+01   2.2858794794e+01    0.1517201    0.1223553  84.42 0.0004573287    1.723    0.419
        43 -13.0825    193.0872    129.4636   2.4960308261e+01   1.7225295383e+01    0.3768086    0.3244671  89.07  0.002123031    1.503    0.335
        44 -12.8499    192.6652    136.3107   2.6542664631e+01   1.6063169630e+01    0.3167004     0.206628 -33.77  0.001588141    1.435    0.303
        45 -12.3776    188.0898    135.3565   2.7191326437e+01   1.7082325250e+01    0.2915818    0.1992089 -45.93  0.001471426    1.426    0.299
        46 -10.3036     69.0386    135.7952   5.8966007739e+01   3.9424360209e+01     0.205464    0.1972414  45.20 0.0003985756    1.034    0.033
        47 -10.2736    207.6671    137.3111   2.4100240040e+01   1.3219494408e+01    0.1294104    0.1037417 -69.00 0.0007043619    1.676    0.403
        48 -12.2374    179.9247    132.9881   2.8249875048e+01   1.9071622978e+01    0.4158517    0.2466057 -54.83  0.001821296    2.002    0.501
        49 -11.1851    143.7967    131.4414   3.5901031283e+01   2.6599972025e+01    0.3048981    0.2541359 -81.84  0.001486161    1.508    0.337
        50 -12.0358    153.1297    129.0592   3.3105771070e+01   2.5195104446e+01    0.4954849    0.2854912 -55.92  0.002010192    2.056    0.514
        51 -10.4288     82.4044    130.6207   5.3466557595e+01   3.8629156856e+01    0.3080385    0.1520792 -73.56 0.0009615589    3.343    0.701
        52 -11.4678     22.0134    136.7218   7.5296926799e+01   4.4722891405e+01    0.3079183    0.1462987  71.93  0.001171523    2.690    0.628
        53 -12.8890    169.3956    128.4922   2.9374055960e+01   2.2008698600e+01    0.5712122    0.3185133 -49.66  0.002439987    1.868    0.465
        54 -11.7423     11.8170    128.3419   7.7948694011e+01   4.7738468918e+01    0.3497212    0.1655807  82.32  0.001415117    2.409    0.585
        55 -10.8235     98.3307    127.8374   4.7732018308e+01   3.6487375769e+01    0.3208221    0.1511079 -61.47  0.001089363    2.611    0.617
        56 -13.2919    180.7164    124.3593   2.6128689675e+01   2.0547731263e+01    0.4947577    0.2978638 -54.48  0.002203038    1.902    0.474
        57 -12.0685    188.2564    123.6321   2.4535072238e+01   1.9205699970e+01    0.2743998    0.1608393 -48.75  0.001003248    1.716    0.417
        58 -12.7228    172.7127    121.0215   2.6936990606e+01   2.2790981475e+01    0.4585701    0.2696771 -47.98  0.002040222    1.696    0.410
        59 -11.2339     57.5126    121.0256   6.0129649974e+01   4.4986262936e+01    0.3844679    0.1561135 -76.08  0.001042775    4.544    0.780
        60 -10.8828    158.8144    121.2084   2.9933050518e+01   2.5628724262e+01     0.258066    0.1715929 -84.02 0.0009616021    2.900    0.655
        61 -11.7884    130.3415    115.9295   3.5530120664e+01   3.2799641738e+01    0.5034667    0.2187957 -46.86  0.001785286    2.320    0.569
        62 -11.3332     41.4014    117.5959   6.5497790726e+01   4.7938107080e+01     0.296194    0.1368841 -84.95 0.0009578944    3.387    0.705
        63 -12.7871    185.9102    115.5341   2.3099933859e+01   2.1147065681e+01    0.5111935    0.1896046 -42.54  0.001894851    2.488    0.598
        64 -11.5545      1.9923    114.8872   8.0189939687e+01   5.1887845933e+01    0.5062913    0.1493318 -88.36  0.001552265    4.216    0.763
        65 -11.2201    108.5153    112.9990   4.0955874962e+01   3.8055692869e+01     0.365706     0.157908 -55.14  0.001210934    2.668    0.625
        66 -10.7197     91.8330    112.4859   4.6106665612e+01   4.1482880835e+01    0.2868899    0.2041729 -69.60  0.001239389    1.685    0.407
        67 -11.8258     77.8517    110.0671   5.0298475031e+01   4.4630388808e+01    0.6103731    0.2479104 -62.23  0.001923544    3.123    0.680
        68 -11.4164    121.9952    109.9867   3.6251045576e+01   3.5905175253e+01    0.3773888    0.2001702 -33.19  0.001363679    2.374    0.579
        69 -12.3858    128.6890    101.2109   3.2065005397e+01   3.6340987075e+01    0.5618703    0.3304118 -57.58  0.002218281    2.041    0.510
        70 -12.0604     94.6266     95.0382   4.0445481283e+01   4.5063262298e+01     0.712193    0.3078423 -48.76  0.002519647    2.359    0.576
        71 -11.8821      4.7206     89.5234   7.6103258872e+01   5.8370383079e+01    0.5929574    0.2592012 -77.16  0.002526937    2.169    0.539
        72 -12.4490    124.8057     88.1586   2.9387123553e+01   3.9924632176e+01    0.7604349    0.3865161 -34.96  0.002858694    2.236    0.553
        73 -11.8956     34.5184     86.6380   6.2017839603e+01   5.6781927697e+01    0.7983919    0.2577803 -61.86  0.002755066    2.871    0.652
        74 -12.4444     86.4092     85.0423   4.0283520980e+01   4.8985898477e+01    0.7968575     0.381445 -56.26  0.002846851    2.538    0.606
        75 -11.6261     48.2332     83.7904   5.5151507357e+01   5.5810880099e+01    0.6211003    0.3435013  70.95  0.001854097    4.830    0.793
        76 -12.4638    104.5586     81.5677   3.3186565782e+01   4.5876882055e+01     0.781234    0.3472542 -51.88  0.002707036    2.647    0.622
        77 -12.4160    119.3372     79.3488   2.8207635404e+01   4.2944797216e+01    0.4399378    0.2480942 -48.55  0.001792531    1.879    0.468
        78 -11.0665     74.4305     79.1600   4.2871226077e+01   5.2627090598e+01    0.5074043    0.1546645 -53.49  0.001445093    3.974    0.748
        79 -11.5203     23.7038     77.4837   6.4957075425e+01   6.0137539574e+01    0.5886956    0.1162834 -61.52  0.001786083    3.879    0.742
        80 -11.7855    167.8242     77.3515   1.6840141935e+01   3.1849961360e+01    0.2105887    0.1783634 -60.38   0.00104458    1.147    0.128
        81 -12.4246    127.7551     75.0263   2.4679308952e+01   4.1777251119e+01     0.438817    0.2743167 -59.11   0.00182967    1.963    0.490
        82 -12.3712     82.7720     73.3557   3.7835530836e+01   5.2253532334e+01    0.5841106    0.3731642 -77.41  0.002096024    3.142    0.682
        83 -12.1606     62.5383     71.3893   4.5160255633e+01   5.6494451647e+01    0.6861162    0.1958102 -51.01  0.002089066    3.620    0.724
        84 -10.5210    156.3239    247.6530   5.3846478179e+01   2.1989068031e+00     0.116132    0.0879674  48.74 0.0005438104    1.743    0.426
        85 -11.5817    115.6748     71.4681   2.6725447737e+01   4.5312679432e+01    0.3921598    0.1881752 -41.86  0.001504159    2.146    0.534
        86 -11.5865    105.8850     71.1848   2.9441528224e+01   4.7650470175e+01    0.3734144    0.2132345 -51.24  0.001272229    1.976    0.494
        87 -11.7169     94.9513     70.4025   3.2613119715e+01   5.0268669769e+01     0.590982    0.2485277 -51.82  0.001978614    3.001    0.667
        88 -11.0109    161.0894    241.2258   5.1986555911e+01   2.5720803140e+00     0.201617    0.1692295  75.33   0.00124346    2.114    0.527
        89 -11.3340    156.8636     68.7006   1.6474170825e+01   3.5877205026e+01    0.4644298    0.2489476  78.20  0.001721952    2.795    0.642
        90 -11.6772    121.6767     64.7532   2.2967738979e+01   4.5091813773e+01    0.4245014    0.1442747 -36.05  0.001365493    3.197    0.687
        91 -11.3183     51.2269     69.1048   4.9402844305e+01   5.8837167701e+01    0.6053488    0.2881006 -69.32   0.00181629    4.602    0.783
        92 -10.9648    109.8052     62.4346   2.5368081458e+01   4.8351163068e+01     0.291303    0.1150633 -41.47  0.001022675    2.624    0.619
        93 -11.2815     36.5535     62.7492   5.4438103872e+01   6.2298172339e+01    0.2797886      0.12218 -50.72  0.001146669    2.116    0.527
        94 -11.7009     72.9148     57.1607   3.5810399242e+01   5.7500994143e+01    0.6343437    0.2067309 -43.61  0.002107437    3.202    0.688
        95 -11.7853     22.2459     54.4270   5.9474396141e+01   6.5746210005e+01    0.4669764     0.255021 -86.80  0.001649161    4.261    0.765
        96 -11.5925     62.6070     52.9163   3.8438317131e+01   6.0305881491e+01    0.5201696    0.1390828 -45.32  0.001592789    3.921    0.745
        97 -11.1716     42.3853     71.5897   5.4322944115e+01   5.9516626415e+01    0.2782065     0.139808 -72.59 0.0009604022    3.387    0.705
        98 -11.1339     53.6528     52.7423   4.2413816572e+01   6.1928584610e+01    0.4205947    0.1794145 -58.29  0.001351767    4.076    0.755
        99 -11.4324     27.8869     45.8984   5.3277121774e+01   6.7008523556e+01    0.2452321    0.1662877 -37.11 0.0004993253    1.372    0.271
       100 -10.5343     28.4707     42.4795   5.1610815288e+01   6.7645132884e+01    0.1357427    0.1169604 -13.26 9.310373e-05    1.019    0.018
       101 -10.5152    194.4897    239.4731   4.5092572289e+01  -1.3546925126e+00    0.1189304   0.09271301   6.57  0.000111701    1.059    0.056
       102 -11.6878    159.0297     54.5132   1.2051680755e+01   3.7581555235e+01    0.2135315     0.134883  64.87 3.787193e-05    1.541    0.351
       103 -11.4797    184.5216     41.4911   4.8851679752e+00   3.3341735355e+01    0.1342733    0.1159782 -71.45 0.0001492788    1.005    0.005
       104 -10.9525     36.5533     39.7649   4.5841454083e+01   6.7121307614e+01    0.3153299    0.1685652 -53.26  0.001439143    2.170    0.539
       105 -10.8200     38.4759     35.4792   4.2868410959e+01   6.7637350417e+01    0.2419197    0.1477287  -8.12 0.0001019988    2.227    0.551
       106 -10.2723    133.3326    232.6615   5.6793364871e+01   7.7159761486e+00    0.1292991    0.0922731  53.36 0.0007051838    1.744    0.427
       107 -11.1419    176.6196     33.1970   3.6587631193e+00   3.6242027764e+01    0.1698371    0.1276793 -21.68 0.0004681092    1.618    0.382
       108 -11.2374     26.6043     31.5969   4.8090531762e+01   6.9996139752e+01    0.2660526   0.08844084 -37.52 0.0009585688    3.357    0.702
