#   1 NUMBER                 Running object number                                     
#   2 MAG_AUTO               Kron-like elliptical aperture magnitude                    [mag]
#   3 X_IMAGE                Object position along x                                    [pixel]
#   4 Y_IMAGE                Object position along y                                    [pixel]
#   5 X_WORLD                Barycenter position along world x axis                     [deg]
#   6 Y_WORLD                Barycenter position along world y axis                     [deg]
#   7 A_WORLD                Profile RMS along major axis (world units)                 [deg]
#   8 B_WORLD                Profile RMS along minor axis (world units)                 [deg]
#   9 THETA_WORLD            Position angle (CCW/world-x)                               [deg]
#  10 FWHM_WORLD             FWHM assuming a gaussian core                              [deg]
#  11 ELONGATION             A_IMAGE/B_IMAGE                                           
#  12 ELLIPTICITY            1 - B_IMAGE/A_IMAGE                                       
         1 -17.2698    245.2238    117.2228   7.5036614841e+01   8.1069388565e+00     2.644586     1.072626 -41.74  0.008476486    2.138    0.532
         2 -15.1655     17.3330     67.7727   1.2445582384e+02   6.2001880338e+01     1.701403    0.6242428 -63.90   0.00735381    2.519    0.603
         3 -14.6038      8.7027     59.3759   1.2618911679e+02   6.4353830122e+01     1.252188    0.3658777 -50.71  0.004955735    2.365    0.577
         4 -16.4113     88.8242     60.4411   9.3679667474e+01   5.3894220222e+01      2.46648     1.663571 -18.17   0.01099801    1.768    0.434
         5 -16.5558    142.4304     62.2537   7.9292209680e+01   4.1409686018e+01     2.464992     1.945642 -43.02   0.01242397    1.321    0.243
         6 -15.8047    180.4324      5.9492   5.6443404866e+01   3.8914119299e+01     1.676575    0.6998883  62.88  0.005160172    2.044    0.511
         7 -15.8114    178.7429     31.9559   6.3674099233e+01   3.6507175659e+01     2.092684    0.9268727 -31.98  0.008863185    2.374    0.579
         8 -17.9900    211.1824     33.2669   6.0022800801e+01   2.8375601415e+01      3.94618     2.038159 -65.69   0.01472911    2.148    0.535
         9 -14.9756    130.4578     36.4093   7.3522469850e+01   4.8176355329e+01     1.136846    0.9035877  64.56  0.005453994    1.188    0.158
        10 -14.7185     80.7234      2.8098   7.2810848452e+01   6.3170014397e+01     1.328231     0.270657  56.12  0.004613304    3.690    0.729
        11  99.0000     37.0258     16.6027   9.6448123698e+01   6.9421235828e+01     1.557616    0.8990638 -18.18  0.008090202    1.739    0.425
        12 -15.7951     58.3638     36.3419   9.5773291223e+01   6.3385272977e+01     1.464461      1.00736  40.17  0.008267339    1.516    0.340
        13 -16.5375     59.4255     15.4358   8.5945866094e+01   6.6068377286e+01     2.051169     1.020643  30.35  0.007716197    2.011    0.503
        14 -15.1580     89.1788     20.7879   7.8143441426e+01   5.9635224380e+01    0.9065603    0.3660024  48.24   0.00391812    2.110    0.526
        15 -13.2920    220.6960     13.7690   5.4577871713e+01   2.8474358641e+01    0.6681252    0.2375808 -53.98  0.002808202    2.707    0.631
        16 -13.1535    161.3354      3.1766   5.7831513531e+01   4.3924332054e+01    0.3845064    0.3065912  72.94  0.002342432    1.070    0.066
        17 -13.0140    202.1590      1.8662   5.3385323795e+01   3.4036329845e+01    0.6648253    0.1685957  76.55  0.002329236    3.697    0.729
        18 -12.3221    223.8665      1.4529   5.1627714630e+01   2.9066181527e+01    0.3277769    0.1057592  78.07  0.001343866    2.846    0.649
        19 -16.4364     97.9878    209.2790   1.2438032419e+02   1.8245090031e+01     1.279568    0.9692222 -45.85  0.004914471    1.613    0.380
        20 -15.6746    242.8606    184.5412   8.9415124720e+01  -2.4339578992e+00      1.29017     1.071446  55.15  0.007922824    1.701    0.412
        21 -16.7139    243.4388    213.7233   9.4769406447e+01  -6.7814144686e+00     2.257933       1.0672 -18.15   0.01022866    2.712    0.631
        22 -16.9403    232.3678    245.3835   1.0210565369e+02  -9.4124320419e+00     1.711481    0.9668679  24.33  0.006898141    1.500    0.333
        23 -15.5735    245.4811    243.8606   9.9564321357e+01  -1.0940454079e+01    0.7645859    0.5394442 -22.92   0.00392059    1.390    0.280
        24 -14.9545    105.0166    249.8225   1.2761176489e+02   9.2435215524e+00     1.733886    0.2786813  41.25  0.005623891    4.167    0.760
        25 -15.8999    117.5918    247.4389   1.2480708798e+02   7.7358817280e+00      1.60685     0.684052  39.04  0.007635196    1.894    0.472
        26 -13.5441     23.4057    227.6212   1.4204450521e+02   2.4360367571e+01    0.2198337    0.1833917  76.74  0.001616543    1.175    0.149
        27 -12.9827      5.9911    180.8248   1.4273874999e+02   3.6170564512e+01    0.4105901    0.2199179 -87.99  0.001438202    1.556    0.357
        28 -15.1779     15.6052    187.6032   1.4105317963e+02   3.3778932808e+01     0.926033    0.6435016  74.28   0.00309401    1.189    0.159
        29 -13.8346     14.5968    180.1529   1.4073323661e+02   3.5575859124e+01    0.4781384    0.3234622 -51.45  0.002529817    1.772    0.436
        30 -15.2050      5.8058    213.3721   1.4468295343e+02   2.9069905640e+01    0.9294459    0.6106551  84.54  0.005333311    1.209    0.173
        31 -14.2105    239.3694     58.9498   6.2880291537e+01   1.8482116722e+01    0.6270762    0.2932469 -47.24  0.002932773    1.858    0.462
        32 -13.6202     56.3488     62.5811   1.0649274725e+02   5.8999412435e+01    0.4105522    0.2390501 -40.83  0.002027604    1.592    0.372
        33 -11.8805    250.6393     61.8452   6.2311060082e+01   1.5709993654e+01    0.2845646   0.09858241 -41.60  0.001047136    2.334    0.572
        34 -13.1312    249.9805     56.9835   6.1339586675e+01   1.6539758215e+01    0.4517523    0.2158218 -53.30  0.001786677    1.912    0.477
        35 -14.1950    197.4694     39.8189   6.3269273882e+01   3.0834484860e+01    0.7245082    0.4937691 -80.33  0.002542338    1.506    0.336
        36 -14.4687     89.7043    174.8658   1.2146969426e+02   2.7382538323e+01    0.6567324    0.3199942  55.74  0.002566174    2.381    0.580
        37 -16.4385     47.0881    132.5426   1.2659504534e+02   4.3870237755e+01     2.775951      1.41411 -40.23   0.01174678    2.429    0.588
        38  99.0000     25.3012     30.8617   1.0887262362e+02   6.8604596867e+01    0.8480991    0.3824238  11.05  0.003821705    3.000    0.667
        39 -15.6695     26.3992    126.5067   1.3200842843e+02   4.7464616281e+01     1.683789     1.134555 -39.52  0.006943959    1.650    0.394
        40 -16.4684     39.0468    109.8589   1.2519349030e+02   5.0363913243e+01     1.790973     0.784663 -57.23  0.006747453    1.909    0.476
        41 -14.9303     45.9884     32.1278   9.9352406430e+01   6.5903615000e+01    0.8444434    0.5700569  22.82  0.003789192    1.418    0.295
        42 -15.2259    100.0342    227.4207   1.2616524338e+02   1.4196544548e+01     0.851654    0.4686575 -61.21  0.004352013    2.049    0.512
        43 -12.8483    248.1210     36.0061   5.7075102125e+01   1.9768622964e+01    0.4877041    0.2011856  71.66   0.00229261    2.478    0.596
        44 -16.4648    242.1456     87.5662   6.8919964779e+01   1.3543154386e+01      1.75159     1.207474 -79.32  0.006979522    1.781    0.439
        45 -13.5804      8.1217    126.4563   1.3751037054e+02   4.8874169567e+01    0.7070089    0.3223343 -49.00  0.003460765    2.151    0.535
        46 -14.5539     42.8202     87.1842   1.1895062991e+02   5.5364590362e+01    0.7097475    0.3526103 -46.32  0.003280437    1.793    0.442
        47 -16.9535     79.3255    215.1074   1.2929511010e+02   1.9867603668e+01     2.366603     1.083907  39.01  0.009707599    1.929    0.482
