#   1 NUMBER                 Running object number                                     
#   2 MAG_AUTO               Kron-like elliptical aperture magnitude                    [mag]
#   3 X_IMAGE                Object position along x                                    [pixel]
#   4 Y_IMAGE                Object position along y                                    [pixel]
#   5 X_WORLD                Barycenter position along world x axis                     [deg]
#   6 Y_WORLD                Barycenter position along world y axis                     [deg]
#   7 A_WORLD                Profile RMS along major axis (world units)                 [deg]
#   8 B_WORLD                Profile RMS along minor axis (world units)                 [deg]
#   9 THETA_WORLD            Position angle (CCW/world-x)                               [deg]
#  10 FWHM_WORLD             FWHM assuming a gaussian core                              [deg]
#  11 ELONGATION             A_IMAGE/B_IMAGE                                           
#  12 ELLIPTICITY            1 - B_IMAGE/A_IMAGE                                       
         1 -14.3394     50.4231    147.1532   1.1713666030e+02   3.8911018195e+01     6.012084      3.84281  48.22   0.03514186    1.521    0.342
         2 -14.6019    196.0801     33.7511   5.3198124068e+01   3.1842528019e+01     2.406229     1.585191  23.24  0.007877317    2.018    0.505
         3 -14.6576    207.1156     20.5364   4.7871898045e+01   3.0571618763e+01      1.86288     1.329581  23.09  0.009156534    1.782    0.439
         4 -12.1443     19.1211     33.9358   1.0587644910e+02   6.7754769339e+01    0.3224527    0.2722062  39.76  0.002238893    1.540    0.351
         5  -9.7546     64.0109      9.0111   7.3945146553e+01   6.6516780050e+01    0.1842708    0.1608776 -60.92 0.0006788388    1.674    0.403
         6 -11.6282     29.7814      2.4058   8.6164900768e+01   7.2530844266e+01     0.321806    0.1857314  37.01  0.001872565    2.050    0.512
         7 -10.4542     49.5082      6.5145   7.8691442685e+01   6.9241808262e+01    0.1261774    0.1047985 -11.39 -6.436304e-05    1.048    0.045
         8 -10.4813    163.8867    215.5048   1.0207427147e+02   8.7081689747e+00    0.2040318    0.1796353 -58.85 0.0008694155    1.444    0.308
         9 -15.7318     69.7596    244.3400   1.2177450465e+02   1.7953665577e+01     6.078966     1.154089  39.63   0.02557392    3.851    0.740
        10 -13.4759     35.5324    209.6695   1.2550502017e+02   2.7793907253e+01     1.123064    0.2824832  53.66  0.004730674    3.141    0.682
        11 -13.6236     22.6958    194.0496   1.2695984915e+02   3.2034458076e+01    0.6853092    0.5150603  50.70 0.0004818556    1.307    0.235
        12 -15.7298     50.1352    208.7760   1.2278412532e+02   2.6327839344e+01     11.87792          nan  41.56   0.02548701    8.704    0.885
        13 -17.4550      5.0717    238.4833   1.3183258583e+02   2.5867506887e+01     11.24437      1.50495 -78.79   0.01533929    6.261    0.840
        14  -9.8025    164.2577    206.0558   1.0065706123e+02   1.0040624285e+01    0.1727814     0.149144  20.35 0.0003948797    1.177    0.151
        15 -14.4173     57.6032    197.6495   1.2052156987e+02   2.7521687172e+01     1.367756     1.009557  64.23  0.009595249    1.072    0.067
        16 -11.2379    204.0498    198.9171   9.2191363262e+01   4.3548501501e+00    0.2623548     0.186778  26.85  0.001399152    1.213    0.176
        17  -9.5254     81.8539    195.1652   1.1548631446e+02   2.4849850958e+01    0.2240504    0.1715813 -18.25  0.001286787    2.482    0.597
        18  -8.7533    153.4408    195.4538   1.0115776807e+02   1.3537644669e+01    0.1271795    0.1093105  40.75 0.0003171835    1.014    0.014
        19  -9.2512    180.2148    192.4205   9.5498967704e+01   9.3712855576e+00    0.1781669    0.1086396  49.09 0.0004112247    1.603    0.376
        20  -9.6092    167.1113    187.8961   9.7277749367e+01   1.2386917745e+01    0.1925294    0.1677629  63.37 0.0006904694    1.290    0.225
        21 -11.3406    206.0448    180.9706   8.8662535064e+01   6.4949321224e+00      0.41649     0.338112 -67.22  0.002396178    1.965    0.491
        22 -10.5719    210.8779    178.8295   8.7385779375e+01   5.9419157843e+00    0.3437181    0.2504448  36.46  0.001680158    1.243    0.195
        23 -12.0833     71.6722    180.2800   1.1602699184e+02   2.9157267507e+01    0.3801875    0.2585766 -41.69  0.002151147    2.197    0.545
        24 -12.0077     76.0488    174.7059   1.1446803918e+02   2.9707400148e+01     0.275699    0.2266095 -54.01  0.000853909    1.469    0.319
        25  -9.8127     99.5719    180.6862   1.1013082581e+02   2.5081114203e+01     0.213841    0.1785747  49.50 0.0005647723    1.135    0.119
        26 -10.1225    144.0067    179.0043   1.0048483178e+02   1.8011962347e+01    0.2073513    0.1619209   8.59  0.001140141    1.690    0.408
        27 -10.2260     47.3752    173.3250   1.2051546388e+02   3.3589725644e+01    0.2695363     0.195875 -62.39   0.00168346    1.513    0.339
        28 -11.2474    195.3030    169.3555   8.8468873600e+01   1.0189510804e+01    0.5448763    0.3650098 -51.10  0.001909543    1.922    0.480
        29 -10.1934    191.3367    161.2605   8.7635434463e+01   1.2232813631e+01    0.3136696    0.2409564 -67.12  0.001621123    1.935    0.483
        30 -10.9188    189.5038    154.9585   8.6707592184e+01   1.3628873507e+01    0.4290095    0.3761077  28.09  0.001886748    1.054    0.051
        31  -9.2910    166.7345    173.9729   9.4955038995e+01   1.4771082484e+01    0.2011059    0.1545004 -84.25 0.0008698782    1.948    0.487
        32 -10.2182    174.0101    248.0445   1.0447489317e+02   2.8863301295e+00    0.1742915    0.1300853  38.36  0.001288078    1.043    0.041
        33 -13.7864     72.7231    160.3757   1.1348006948e+02   3.3190654305e+01    0.6683004    0.5245318 -56.63  0.002613001    1.414    0.293
        34 -13.2451     90.7060    157.6920   1.0893322151e+02   3.1182320216e+01     2.816695      1.41355  75.48  0.002472757    3.983    0.749
        35 -10.2500    145.9487    168.3195   9.8270579513e+01   1.9621319872e+01    0.1966189    0.1634704  43.36 0.0004467572    1.101    0.092
        36 -12.6898     69.9697    144.7442   1.1204210464e+02   3.7018067676e+01    0.4873117    0.3163535  72.48  0.001761992    1.639    0.390
        37 -12.6094     84.3163    164.6222   1.1137656765e+02   3.0651594235e+01    0.7414917    0.3819646  59.47 0.0004967414    2.102    0.524
        38  -8.8920    223.7043    164.3290   8.2271863884e+01   5.6905832258e+00    0.1182237    0.1071738 -69.48 0.0004383898    1.633    0.388
        39 -11.0360    133.7849    144.3500   9.6497695788e+01   2.6607685832e+01    0.9830961    0.2556328 -53.92  0.002710712    5.025    0.801
        40 -10.7186    174.4214    148.2891   8.8359342393e+01   1.7798280827e+01     0.349384    0.2773038 -51.36  0.001057588    1.413    0.292
        41 -10.1922    144.3180    146.1817   9.4452403663e+01   2.4205560353e+01    0.4313734    0.2416075 -77.16  0.001251708    5.367    0.814
        42 -12.4307     91.5762    142.1862   1.0628374687e+02   3.4449613961e+01    0.2574489     0.245624 -63.10 0.0004248138    1.169    0.144
        43 -11.0303    103.9934    141.8297   1.0315194971e+02   3.2511164304e+01    0.5188013    0.3422162 -28.60  0.002339406    2.394    0.582
        44 -13.2722     44.6322    129.1816   1.1637713895e+02   4.3658540341e+01     0.912446    0.4524557 -79.55   0.00441834    1.949    0.487
        45 -10.1996    112.5726    131.6001   9.9056487797e+01   3.3270974998e+01      0.29637    0.2407237  15.33 0.0007083475    1.587    0.370
        46 -10.2059    105.9518    130.7669   1.0056462492e+02   3.4628185412e+01    0.3121096    0.2717585 -85.69  0.001230846    1.144    0.126
        47 -11.1435    100.0379    128.0874   1.0155407605e+02   3.6244748228e+01     0.340114    0.2506821 -44.96 0.0007838907    1.449    0.310
        48 -11.0538    160.2594    128.1900   8.6939633849e+01   2.4512401164e+01     0.509585    0.3014993 -35.93    0.0022122    1.803    0.445
        49 -10.6216    135.0000    119.9977   9.0913362099e+01   3.1467376764e+01    0.4015772   0.08435688 -46.47  0.001032682    4.766    0.790
        50 -11.0223    135.6124    128.3529   9.2687412882e+01   2.9581904607e+01    0.4133275    0.2096259 -52.85  0.001668444    2.097    0.523
        51 -11.3532    118.6897    126.2675   9.6396626604e+01   3.3317817643e+01    0.8476784    0.3861096 -40.99  0.003192517    2.576    0.612
        52 -12.4319     64.8509    141.8958   1.1291320889e+02   3.8337940956e+01    0.3558089    0.3140218 -61.69   0.00100252    1.235    0.190
        53  -9.7600    125.5070    127.1180   9.4878837665e+01   3.1833518587e+01    0.2417444    0.1987432  72.99 0.0006853986    1.340    0.254
        54 -10.3455     86.9008    145.6687   1.0800759508e+02   3.4392179858e+01    0.2738081    0.2126794  74.94  0.000355106    1.274    0.215
        55 -12.1196     45.5848    116.1000   1.1428202814e+02   4.6614872862e+01    0.3434608    0.2679023  79.82  0.001435881    1.233    0.189
        56  -9.8313    108.7319    120.0244   9.7597589912e+01   3.6540175769e+01    0.2191704     0.197262  53.08 0.0004101488    1.124    0.111
        57 -11.5666     21.0252    111.3347   1.2057306639e+02   5.0014276414e+01    0.3983684    0.1452456  37.05  0.001567113    2.822    0.646
        58 -10.9162     24.3167    120.5533   1.2073078221e+02   4.7607346921e+01    0.2108544    0.1193256  29.77 0.0008044698    2.080    0.519
        59 -11.3299     23.4337    116.4353   1.2050097447e+02   4.8634857951e+01    0.2896182    0.1729643 -76.79 0.0009747589    1.358    0.263
        60 -10.3695    167.6692    112.5357   8.1471081039e+01   2.5922480520e+01    0.3831428    0.2873576 -71.27  0.001246192    1.803    0.445
        61 -11.6961    119.5674    110.5372   9.2546761160e+01   3.6604174816e+01    0.5547178    0.3921738  69.95  0.002524548    1.807    0.447
        62 -10.2416    205.4305    110.3115   7.3327514806e+01   1.7804452652e+01    0.3453822    0.2337901  35.20  0.001034308    1.566    0.362
        63 -15.0767     10.7041    206.4426   1.2973998886e+02   3.0847940784e+01    0.6634997    0.5777267  54.51  0.002279166    1.435    0.303
        64 -10.4499    134.4226    103.9324   8.7040919924e+01   3.4983416741e+01    0.5571319    0.1743595 -43.56  0.001724243    3.165    0.684
        65 -11.2809     52.2760    103.2861   1.1019198215e+02   4.8902101782e+01    0.3069041    0.1955927 -37.59  0.001563607    1.918    0.479
        66 -10.4836    241.9736    101.4885   6.5084247615e+01   1.1283374055e+01    0.2008427    0.1398603  52.58  0.001000913    1.595    0.373
        67 -10.3125     86.4080     99.3857   9.9088400328e+01   4.5095491531e+01    0.2674769    0.2200576  80.24 0.0004587326    1.366    0.268
        68 -10.8209    239.0027     98.2928   6.4741226846e+01   1.2369788562e+01     0.196494    0.1845281  -8.55 0.0008464328    1.066    0.062
        69  -9.4353    121.5092     98.5254   8.8951027932e+01   3.8832981602e+01    0.1505312    0.1451032 -66.01 7.143622e-05    1.027    0.026
        70 -10.8708     53.7716     94.7402   1.0807491954e+02   5.0751431503e+01    0.2547048    0.1790127 -65.59  0.001408725    1.239    0.193
        71  -8.7612    122.6263     89.2946   8.6085449930e+01   4.0572980930e+01    0.1567844    0.1212279  88.72  0.000392456    1.736    0.424
        72  -9.3581    183.3838     82.8272   7.0087146513e+01   2.7658923079e+01    0.2271145    0.1462094 -21.14 0.0009511116    1.739    0.425
        73  -9.5374    156.6178     79.7641   7.4800960787e+01   3.4734336948e+01     0.220634    0.1422872 -45.03 0.0005460847    1.565    0.361
        74  -8.8353    184.3448     77.3175   6.8305597340e+01   2.8361559799e+01    0.1629879    0.1187937  18.80 0.0007048767    1.721    0.419
        75 -10.3019     61.6198     68.8211   9.9118261218e+01   5.5763665907e+01    0.2758201    0.2240858  82.14 0.0007010348    1.558    0.358
        76 -10.9274    155.8221     58.3449   6.8181800657e+01   3.8709522891e+01    0.3928989    0.2978188 -83.58  0.001546069    1.733    0.423
        77 -12.6509    186.8353     40.3499   5.6597672244e+01   3.3388378989e+01    0.7941421    0.5729366  45.35 0.0009971788    1.451    0.311
        78 -10.1495    197.4989    245.7985   1.0028123222e+02  -3.0473896892e-01    0.4074356    0.1104148  46.16  0.001645295    3.740    0.733
        79 -14.6533     39.5628    246.3617   1.2678150373e+02   2.1145206168e+01     1.000016    0.5989553 -88.75  0.002950905    1.591    0.372
        80 -12.2501    194.1447    195.4083   9.3396911828e+01   6.5188289691e+00    0.9524446    0.5442716 -56.46    0.0044531    3.088    0.676
        81 -11.1726     26.9009     35.3744   1.0267992751e+02   6.6825283622e+01    0.2963078    0.1635194  38.02  0.001603964    2.298    0.565
        82  -9.9999     77.5620    236.3433   1.1989667851e+02   1.8228916171e+01    0.1923789    0.1222133  51.38 0.0007660607    1.182    0.154
        83 -10.0295    170.6182     20.1940   5.2507675957e+01   4.0187744304e+01    0.1971305    0.1416553  -7.32 0.0003491715    1.577    0.366
        84 -10.4958    158.5524     52.4742   6.5649746163e+01   3.8967834131e+01    0.3025595    0.2728313 -73.49 0.0006439478    1.215    0.177
        85 -10.4847    189.7784     15.1154   4.8259712637e+01   3.5668695215e+01    0.2235407    0.1873813 -56.71 0.0006805977    1.182    0.154
        86  -9.1204    147.4996     20.9991   5.6657077315e+01   4.6199496638e+01    0.2112693    0.1066071 -48.27 0.0006065562    2.352    0.575
        87 -11.5463    182.7473    234.1648   1.0124434805e+02   3.2450737463e+00    0.3806701    0.1653107  48.56  0.001936553    2.251    0.556
        88  -9.9060     71.2859    229.9654   1.2051169945e+02   2.0062131213e+01    0.2122107    0.1109657  47.03  0.000644745    1.472    0.321
