#   1 NUMBER                 Running object number                                     
#   2 MAG_AUTO               Kron-like elliptical aperture magnitude                    [mag]
#   3 X_IMAGE                Object position along x                                    [pixel]
#   4 Y_IMAGE                Object position along y                                    [pixel]
#   5 X_WORLD                Barycenter position along world x axis                     [deg]
#   6 Y_WORLD                Barycenter position along world y axis                     [deg]
#   7 A_WORLD                Profile RMS along major axis (world units)                 [deg]
#   8 B_WORLD                Profile RMS along minor axis (world units)                 [deg]
#   9 THETA_WORLD            Position angle (CCW/world-x)                               [deg]
#  10 FWHM_WORLD             FWHM assuming a gaussian core                              [deg]
#  11 ELONGATION             A_IMAGE/B_IMAGE                                           
#  12 ELLIPTICITY            1 - B_IMAGE/A_IMAGE                                       
         1 -14.0190    215.7235      3.9509   4.8595789731e+01   3.1948075150e+01     1.402493    0.7828269  64.78  0.004894495    1.559    0.359
         2 -15.1352    191.6572     32.4612   5.7887170805e+01   3.4126718405e+01     2.559445     1.768202  11.97   0.01247399    2.594    0.615
         3 -19.4279     14.4979    137.0061   1.2699875402e+02   4.4768843093e+01     18.09403      3.06669 -68.93   0.05430547    5.354    0.813
         4 -16.8811     63.4941    247.9043   1.2886155551e+02   1.5066931777e+01     9.516177     3.478063  31.11    0.0316321    6.208    0.839
         5  -9.9169     48.3216    216.6865   1.2870779716e+02   2.3472423324e+01    0.2983495    0.1964933  65.28  0.001289574    1.344    0.256
         6 -11.2435     39.4296    212.5966   1.2999923349e+02   2.5431353297e+01     0.192351      0.13174  59.50 0.0002270758    1.333    0.250
         7 -11.8574     44.2019    213.4544   1.2917668433e+02   2.4675244426e+01    0.3311646    0.1617967  59.35  0.001385754    1.987    0.497
         8 -11.6359     44.2831    210.4258   1.2886574017e+02   2.5320173383e+01    0.2803541    0.1612888  54.47 0.0009902227    1.623    0.384
         9  -9.3755     98.5604    213.7334   1.1832654662e+02   1.6895311352e+01    0.1821024    0.1208632 -79.77 0.0009385108    1.570    0.363
        10 -13.4980     59.9912    203.7117   1.2503953692e+02   2.4805195782e+01    0.6670893    0.5685748  78.46  0.002864259    1.085    0.078
        11 -12.8446     54.1539    210.1877   1.2692088903e+02   2.4138632572e+01    0.4850131     0.219643  62.98  0.002197249    2.497    0.599
        12 -11.9946     48.5238    206.2211   1.2761347142e+02   2.5719307107e+01    0.2390568    0.1840379 -84.92 0.0007407474    1.083    0.076
        13 -11.6837     70.8825    210.2281   1.2358140006e+02   2.1867358500e+01    0.2157341    0.1750266  78.71 0.0002677976    1.040    0.039
        14  -8.8510     74.6289    209.7636   1.2276285324e+02   2.1433452141e+01    0.4024969    0.2412157 -26.97  0.001368177    5.743    0.826
        15  -9.5746     32.5959    211.6123   1.3119043152e+02   2.6430005970e+01    0.1205167   0.08855326  81.49 0.0001568418    1.081    0.075
        16 -10.5929     36.8984    206.5252   1.2990619459e+02   2.7038963119e+01    0.1942053   0.09812489  47.95  0.001057942    1.905    0.475
        17 -10.9592     95.0075    200.0843   1.1719082977e+02   2.0489014538e+01    0.3591569    0.2312273  85.68  0.001230052    1.807    0.447
        18 -11.1781     98.7526    196.9742   1.1592117656e+02   2.0586550655e+01    0.4141371    0.2663153 -52.23  0.002077895    1.643    0.391
        19 -10.8365    157.8206    201.2160   1.0364142265e+02   9.0025210731e+00    0.4207669     0.242466 -76.55  0.001515661    3.315    0.698
        20 -11.8699    193.1574    194.8460   9.4939905403e+01   3.4777319049e+00     1.073628    0.5406398 -66.76  0.002961426    5.848    0.829
        21 -11.7485    141.1748    198.1841   1.0674573723e+02   1.2809423635e+01    0.3301895    0.2617247 -72.81 0.0008489874    1.353    0.261
        22 -11.1240    208.5273    196.5904   9.2141079527e+01   2.2931736127e-01    0.2597874    0.2021657 -50.28 0.0007019873    1.384    0.277
        23 -12.0503    104.7205    194.5497   1.1423620175e+02   2.0148557010e+01    0.6628889    0.3453621 -33.12  0.002141324    4.677    0.786
        24 -10.1479     82.0565    195.3948   1.1934426838e+02   2.3565277987e+01    0.2897364    0.2660192 -11.82  0.001757689    1.533    0.348
        25 -12.9740     69.0635    189.9470   1.2143469605e+02   2.6692210720e+01     0.805334    0.6175314 -55.92  0.004711739    1.382    0.276
        26  -9.9354     61.3813    187.6008   1.2279786284e+02   2.8270787412e+01    0.2847497    0.2449792 -62.27  0.001794516    1.253    0.202
        27 -11.6674    153.0027    193.5098   1.0330802586e+02   1.1565474354e+01    0.4589016     0.280191  67.29  0.001842002    2.294    0.564
        28  -9.3897     98.2687    190.3476   1.1502926897e+02   2.2179827461e+01    0.1338677    0.1077162 -35.58 0.0003716013    1.618    0.382
        29 -10.5934     99.2713    186.4503   1.1419635768e+02   2.2915135611e+01    0.3053932    0.2015013  87.95  0.001434834    1.813    0.448
        30 -10.5009    136.8698    185.1844   1.0540564610e+02   1.6499354170e+01    0.1947931    0.1800567 -10.63 0.0004596624    1.309    0.236
        31 -12.6619    115.9256    182.4927   1.0972747285e+02   2.0977140277e+01    0.3273954    0.3147524  15.90  0.001487496    1.243    0.196
        32 -11.6395    149.7246    181.0634   1.0171845678e+02   1.4932614331e+01    0.3928866    0.2538503 -81.28  0.001533284    2.363    0.577
        33 -11.4200     99.3343    180.7995   1.1327530117e+02   2.4219732958e+01    0.2838811    0.2481631  44.25 0.0006227251    1.230    0.187
        34  -9.6662    218.7091    177.6542   8.6351290561e+01   1.9148671445e+00    0.1460671     0.109762  -6.46  0.000702697    1.660    0.398
        35  -9.4012     68.4630    177.5149   1.1986351972e+02   2.9660572176e+01    0.1366651    0.1151868 -88.29 0.0001360247    1.041    0.039
        36 -11.7805    141.5080    175.5659   1.0254172352e+02   1.7781008338e+01    0.3663068    0.2218855  29.52  0.000762876    2.069    0.517
        37 -10.3349    164.9144    171.4146   9.6381406937e+01   1.4015603301e+01    0.2582665    0.2041915 -68.70 0.0003463999    1.405    0.288
        38 -11.6882    133.2100    171.9000   1.0376696222e+02   2.0227027799e+01    0.3391674    0.2181167  37.64  0.001076904    1.638    0.390
        39  -9.8986     94.6631    250.2883   1.2348220532e+02   1.0050135965e+01    0.2068662    0.1351704  59.17  0.001220812    1.293    0.226
        40 -10.5215    201.8700    168.9319   8.7916099147e+01   6.9603184950e+00    0.4232527    0.2794743 -63.79  0.001738587    1.962    0.490
        41 -10.8449    204.4352    165.3568   8.6640078825e+01   7.1670278779e+00    0.5272375    0.3141335 -54.21  0.001616171    1.850    0.460
        42 -11.2598    193.7752    166.4429   8.9070609504e+01   9.1271368318e+00    0.3546329    0.3145581 -68.96 0.0007400393    1.219    0.180
        43 -10.0827    191.5223    162.0189   8.8604471724e+01   1.0519548558e+01    0.2829564    0.2149454  64.31 0.0006493878    1.517    0.341
        44 -11.0288    230.1256    166.2187   8.1813072515e+01   1.9265996507e+00    0.2770197    0.1829585 -64.33  0.001232524    2.096    0.523
        45 -10.1859    139.0424    167.2954   1.0149596081e+02   2.0154391921e+01    0.2094183    0.1876909  53.33 0.0003164164    1.105    0.095
        46  -9.8369     72.1234    230.0858   1.2554971907e+02   1.7442166873e+01    0.1761663     0.134511  74.60 0.0003844112    1.084    0.078
        47 -10.4306    159.1603    163.6885   9.6087836899e+01   1.6912092812e+01    0.2553078    0.2061946 -65.75 0.0006883962    1.312    0.238
        48  -9.6482     60.5527    218.1740   1.2651399762e+02   2.1565336138e+01     0.213626     0.106501 -80.40  0.001036705    2.044    0.511
        49  -9.1934    117.5418    161.7912   1.0555473494e+02   2.5524770099e+01    0.2011847    0.1392362 -70.30 0.0006242497    1.562    0.360
        50 -12.9624     96.3878    154.0277   1.0928656330e+02   3.1036943169e+01    0.7369839    0.5255972 -38.24  0.003623084    1.618    0.382
        51 -11.1131    188.9597    154.9835   8.7627299364e+01   1.2544482360e+01    0.4950463    0.4260535  74.36  0.002531984    1.291    0.225
        52 -11.6418    133.7953    144.7529   9.8050726216e+01   2.6401332582e+01     1.273982    0.3264253 -55.53  0.002974083    5.723    0.825
        53 -10.5490    113.1362    151.3787   1.0457792018e+02   2.8779793510e+01    0.2855743    0.2066678 -65.26 0.0006563514    1.396    0.284
        54 -10.5774    174.5280    149.0098   8.9445790003e+01   1.6917808337e+01    0.2854714     0.263827  83.77 0.0008307731    1.122    0.109
        55  -9.6580    159.9655    147.0234   9.2303577140e+01   2.0474975108e+01    0.2467016    0.1882359 -87.28 0.0006268475    1.673    0.402
        56 -11.1090    143.8304    146.5151   9.5997661479e+01   2.3966686943e+01    0.3671323    0.2303029 -58.35  0.001563583    1.687    0.407
        57 -10.5767    115.0806    143.6084   1.0248019373e+02   3.0252382741e+01    0.4211234    0.2376629  77.38  0.001233906    4.621    0.784
        58 -12.3726    107.6243    140.0186   1.0362578424e+02   3.2434655183e+01     0.627827     0.357019 -36.10   0.00255582    2.204    0.546
        59 -12.5456     95.8885    139.7751   1.0661531174e+02   3.4489786733e+01    0.3243561    0.2806002 -49.75 0.0005186257    1.123    0.110
        60  -9.8536    128.4731    139.4995   9.8212639864e+01   2.8664933484e+01    0.1517779    0.1460098 -72.97 0.0008100782    1.003    0.003
        61 -11.5055    105.9004    130.4585   1.0200419379e+02   3.4959700612e+01    0.4594249    0.3226491 -59.33   0.00198299    1.409    0.290
        62 -11.3092    102.5856    126.3085   1.0195725614e+02   3.6489431106e+01    0.3165521    0.2426215 -32.90 0.0009172202    1.431    0.301
        63 -11.1982    135.8310    128.3835   9.3830697699e+01   2.9721212895e+01    0.5499613    0.1844031 -49.26  0.001746242    2.969    0.663
        64 -11.5550    114.9180    130.2135   9.9587541076e+01   3.3388507344e+01    0.3591679    0.3148057 -14.84 0.0009074198    1.330    0.248
        65  -9.3407     83.6603    130.3228   1.0790507882e+02   3.8618446819e+01    0.1448139    0.1075989  80.03 0.0003163901    1.721    0.419
        66 -10.2615    160.1331    127.4057   8.7745211678e+01   2.4773220949e+01    0.3276886    0.2047932 -61.96     0.001332    1.921    0.479
        67 -11.5814    120.1364    123.9647   9.6786729696e+01   3.3824993555e+01    0.5191433    0.3063057 -23.19  0.001865142    2.998    0.666
        68  -9.8405    135.0000    119.9998   9.2034721906e+01   3.1752833594e+01    0.2549349   0.08559477 -46.95 0.0008006459    2.930    0.659
        69 -10.3941    110.1533    119.0684   9.8261192607e+01   3.6786340580e+01    0.2267173    0.2105664  40.92  0.000297097    1.123    0.110
        70 -10.1800    168.1591    113.0507   8.2441802117e+01   2.6034511285e+01     0.351602    0.2289458 -75.12   0.00136023    2.346    0.574
        71 -11.8365    119.2980    110.3260   9.3697668959e+01   3.6991808055e+01    0.5822221    0.3567136  52.04  0.002567727    1.799    0.444
        72 -10.1526    205.5903    110.0975   7.4052797277e+01   1.8109369549e+01    0.2699969     0.217041  48.47 0.0006132501    1.308    0.235
        73  -9.9473    134.6610    105.5526   8.8515337267e+01   3.4918486578e+01     0.273052    0.1389458 -45.55  0.001084456    1.951    0.487
        74 -11.1688     41.7312     91.8368   1.1167999033e+02   5.2295807575e+01     0.207135    0.1727628 -36.67 0.0004621395    1.065    0.061
        75 -11.3609     53.0502     90.6408   1.0792144811e+02   5.1355608158e+01    0.2647853    0.1608549 -43.69  0.001441788    1.423    0.297
        76 -10.2710     70.2827     72.1298   9.7701138258e+01   5.2817635926e+01    0.2078976    0.1770962  31.46 0.0004203015    1.282    0.220
        77 -12.2106    165.2258     64.8810   7.0700710623e+01   3.5664456826e+01    0.4487237    0.4190713 -37.80 0.0009905647    1.150    0.130
        78 -10.4112     53.6348    230.4685   1.2903197480e+02   1.9891801617e+01    0.3471498     0.159543 -77.78  0.001745028    2.118    0.528
        79 -13.6650    176.4960     47.6291   6.4073002669e+01   3.5640271676e+01    0.6985407    0.6463889  16.74 0.0008446446    1.292    0.226
        80  -9.9039     60.8381    230.9816   1.2775619860e+02   1.8827927470e+01    0.1418446    0.0782514 -71.90 0.0003592054    1.683    0.406
