#   1 NUMBER                 Running object number                                     
#   2 MAG_AUTO               Kron-like elliptical aperture magnitude                    [mag]
#   3 X_IMAGE                Object position along x                                    [pixel]
#   4 Y_IMAGE                Object position along y                                    [pixel]
#   5 X_WORLD                Barycenter position along world x axis                     [deg]
#   6 Y_WORLD                Barycenter position along world y axis                     [deg]
#   7 A_WORLD                Profile RMS along major axis (world units)                 [deg]
#   8 B_WORLD                Profile RMS along minor axis (world units)                 [deg]
#   9 THETA_WORLD            Position angle (CCW/world-x)                               [deg]
#  10 FWHM_WORLD             FWHM assuming a gaussian core                              [deg]
#  11 ELONGATION             A_IMAGE/B_IMAGE                                           
#  12 ELLIPTICITY            1 - B_IMAGE/A_IMAGE                                       
         1 -12.7462    204.6833     40.6374   4.0789582140e+01   2.9426930219e+01     1.325134     1.020092  35.27  0.007519369    1.832    0.454
         2 -12.4276    217.2701     29.2840   3.6869778260e+01   2.8084177745e+01     0.835665    0.7524984  28.52  0.005541374    1.599    0.374
         3 -11.1022    246.0264      5.7517   2.9818592395e+01   2.4838751930e+01    0.6319198    0.4764544 -67.13  0.004587803    1.043    0.041
         4 -10.6789    240.4963      6.5075   3.0318276481e+01   2.5855690893e+01    0.6412992    0.2210399 -51.16  0.003178855    2.340    0.573
         5  -8.3735     47.9024      2.4873   6.1793912965e+01   6.8391591163e+01    0.1689079   0.09934199  42.94 0.0004963681    1.510    0.338
         6  -9.0361      6.8195      2.6104   8.2527969933e+01   7.3810826379e+01    0.1416626    0.0883026  28.65 0.0009498238    1.716    0.417
         7  -8.4688    111.8235    204.8094   9.7176451690e+01   1.6378901264e+01     0.194068    0.1529719  65.30  0.000235116    1.332    0.249
         8 -13.1895     80.6036    217.9460   1.0613733972e+02   1.8336975235e+01     3.162716    0.8385699  44.67  0.001528772    3.255    0.693
         9 -13.3152     47.7813    189.0457   1.1059757642e+02   2.9329096650e+01      3.00112     1.467041  52.71   0.01384873    2.025    0.506
        10 -12.4188     16.4026    216.5748   1.2000505517e+02   2.6506572592e+01    0.8694924    0.5016287  37.12  0.005171326    1.698    0.411
        11 -10.5102     64.1518    173.7714   1.0455609524e+02   3.0929068967e+01      0.48783    0.3238608 -29.05  0.002248723    2.242    0.554
        12 -10.2579     68.8472    168.9312   1.0261236207e+02   3.1472869272e+01    0.3367291     0.264601 -45.29 0.0007936668    1.408    0.290
        13 -15.7430     15.3892    243.2549   1.2176138915e+02   2.1090360778e+01     10.23845     5.008272 -83.61    0.0173723    1.890    0.471
        14  -8.7843    102.6671    171.6597   9.4092580767e+01   2.5523264467e+01    0.1518306    0.1169608 -19.19 0.0001505644    1.749    0.428
        15 -12.5247     68.5675    144.2726   9.8654821712e+01   3.7675780746e+01     2.106615     1.106457  81.61  0.004920456    4.331    0.769
        16 -11.8695     65.7577    155.6138   1.0139359274e+02   3.5222390067e+01    0.5446156    0.4015324 -40.88  0.001084819    1.527    0.345
        17  -8.7529     34.1259    160.8450   1.1087761082e+02   3.7736803499e+01    0.2098786    0.1584357  70.96 0.0006876463    1.295    0.228
        18  -9.8680     23.0094    156.4446   1.1336767503e+02   3.9907053977e+01    0.2412753    0.1980615 -88.82  0.001198806    1.059    0.055
        19 -10.7504     85.5219    153.3606   9.5439998521e+01   3.2836333010e+01    0.5809621    0.4353603 -18.69  0.002680048    1.830    0.454
        20  -7.8733    147.3071    187.6692   8.5974731418e+01   1.3923458510e+01    0.1461094    0.1148091  75.82 0.0004244379    1.662    0.398
        21  -8.7664    134.0000    142.9990   8.0160271397e+01   2.6465972708e+01    0.2558236   0.08793188 -49.00  0.000617402    2.907    0.656
        22  -9.9310    100.0076    139.6259   8.8610209196e+01   3.3772892834e+01    0.5460939    0.3743305 -14.31  0.002231376    2.314    0.568
        23 -10.8037     87.4380    138.7093   9.2043523590e+01   3.6159045683e+01    0.3068392     0.287059 -37.29 0.0005225391    1.120    0.107
        24  -8.9230    105.6029    131.2101   8.5157111089e+01   3.4785626025e+01    0.4197847    0.2207662 -52.83  0.001617544    1.880    0.468
        25  -9.2973    108.8877    130.3664   8.4031002383e+01   3.4368276451e+01    0.3831362    0.2464205  24.25  0.001384694    1.943    0.485
        26  -9.2694     97.4198    125.6413   8.6249125860e+01   3.7622366003e+01     0.292956     0.253015 -13.89 0.0005698537    1.336    0.251
        27  -7.9017    115.6939    124.3429   8.0695881960e+01   3.4462662242e+01    0.1596166     0.123388  86.16 0.0007042179    1.688    0.408
        28 -11.2535     78.2230    159.7726   9.8603538849e+01   3.2377519744e+01    0.8936484    0.4551969  55.55 0.0005239311    2.401    0.584
        29  -8.2446    106.8707    118.8337   8.1854937785e+01   3.7470173291e+01    0.2223649    0.2010195 -13.20 0.0003204004    1.216    0.178
        30 -10.2523     14.0544    112.4386   1.1041797814e+02   5.1436069820e+01    0.2698335    0.2255811 -37.47  0.001722956    1.238    0.193
        31  -8.0118    205.2377    110.3539   5.7088185064e+01   1.8096405602e+01    0.1911587    0.1354889  64.70  0.000941916    1.601    0.375
        32  -8.7064    247.3435    108.6688   5.0339958898e+01   1.0144559201e+01    0.1355361   0.09069538 -65.76 -0.0001642252    1.753    0.430
        33  -8.7026     29.9554    107.0000   1.0413192974e+02   5.1466457876e+01    0.2022407   0.07698806  22.74 0.0002064037    2.992    0.666
        34  -8.0453     32.5166     96.5087   1.0115231803e+02   5.3722654854e+01    0.1335251    0.1168445 -50.05 0.0006175583    1.004    0.004
        35 -10.7741      9.5263     93.4204   1.0895667177e+02   5.6242512839e+01    0.4083834    0.2314023 -32.46  0.002177699    1.849    0.459
        36  -8.5226    248.3252     91.3244   4.6642731786e+01   1.2769287594e+01    0.1200121   0.09978145  -2.85 0.0007048576    1.689    0.408
        37  -8.6172     72.7413     83.6944   8.3315611352e+01   5.1460284008e+01    0.2763286    0.1607424  54.90  0.001150914    2.418    0.586
        38 -13.8934      9.5555    207.2505   1.2083749773e+02   2.9203182406e+01     1.871125     1.222732 -56.11  0.008702655    1.798    0.444
        39  -7.7338     92.2975     66.6596   7.1461949857e+01   5.1333085029e+01    0.1390541    0.1154306 -84.34 0.0006847779    1.662    0.398
        40 -10.6649     13.1067     59.8429   1.0037717119e+02   6.3418961988e+01     0.295172    0.2606302  87.90  0.001313375    1.492    0.330
        41 -11.8003    195.1319     47.5447   4.3635845040e+01   3.0672319170e+01    0.5421138    0.4994531  75.34  0.001491584    1.152    0.132
        42  -9.0661     95.9795    243.3895   1.0562856421e+02   1.0912874932e+01    0.2769246    0.1548894  62.24  0.001371704    2.045    0.511
        43  -8.0345    136.8830     43.1115   5.2123128389e+01   4.5192573742e+01    0.2079514    0.1781726 -84.29 0.0004687749    1.252    0.201
        44  -7.8758     48.6920     43.2952   7.9226893564e+01   6.2823078707e+01    0.1120546    0.1038035  71.79 0.0004095869    1.587    0.370
        45  -9.5348    115.4246    242.0659   1.0137752095e+02   8.2715453966e+00    0.3104891    0.1319222 -62.34  0.001351173    2.989    0.665
        46  -8.9544     81.3284    181.9577   1.0127615747e+02   2.6472605509e+01    0.3128808    0.2082942  34.23  0.001005859    1.529    0.346
        47  -8.0647     99.2803    180.9800   9.6540415013e+01   2.3870653063e+01    0.1985526    0.1915174  88.36 0.0008622913    1.049    0.047
        48 -12.5263     37.6275    199.0792   1.1401393707e+02   2.8164880040e+01    0.9139714    0.6490465 -75.76  0.004027391    1.307    0.235
