#   1 NUMBER                 Running object number                                     
#   2 MAG_AUTO               Kron-like elliptical aperture magnitude                    [mag]
#   3 X_IMAGE                Object position along x                                    [pixel]
#   4 Y_IMAGE                Object position along y                                    [pixel]
#   5 X_WORLD                Barycenter position along world x axis                     [deg]
#   6 Y_WORLD                Barycenter position along world y axis                     [deg]
#   7 A_WORLD                Profile RMS along major axis (world units)                 [deg]
#   8 B_WORLD                Profile RMS along minor axis (world units)                 [deg]
#   9 THETA_WORLD            Position angle (CCW/world-x)                               [deg]
#  10 FWHM_WORLD             FWHM assuming a gaussian core                              [deg]
#  11 ELONGATION             A_IMAGE/B_IMAGE                                           
#  12 ELLIPTICITY            1 - B_IMAGE/A_IMAGE                                       
         1 -12.9762    200.1176     37.2157   5.3689806559e+01   3.0354876563e+01     1.370618    0.9643263  35.98  0.006528595    1.647    0.393
         2 -13.8753    216.2626     21.1456   4.7052491238e+01   2.8186665434e+01     1.596542     1.094787  27.45  0.007757558    1.896    0.473
         3 -11.3497      2.3444     23.1809   1.1087261818e+02   7.1005065338e+01    0.4485661   0.08335966 -63.15  0.001584538    4.206    0.762
         4 -11.4140      2.1881      3.6947   1.0344775804e+02   7.4790804470e+01    0.5516997     0.170687 -59.03  0.002374875    3.273    0.694
         5  -9.6762    241.2900      1.4336   3.9654699238e+01   2.4205089544e+01    0.3504777    0.1165349  73.38  0.001340505    2.975    0.664
         6 -11.9268     38.2577    244.2970   1.2688904794e+02   2.1611561694e+01    0.5065628    0.2377211  73.29  0.002853321    1.895    0.472
         7 -13.2000    134.9941    249.5168   1.1122285404e+02   8.3992836917e+00     1.485177    0.1764492  41.64  0.004670433    5.749    0.826
         8 -12.1522     33.1062    245.0992   1.2773986470e+02   2.2036849751e+01    0.4124085    0.2628206 -81.99  0.003302969    1.601    0.376
         9 -12.4819      4.7742    246.9629   1.3213372398e+02   2.4551187322e+01    0.8134133    0.3945772  70.91  0.003043723    1.484    0.326
        10 -14.7312     11.0832    232.7816   1.3070924963e+02   2.6237224064e+01     11.86562      1.30734 -81.78   0.03080331   14.415    0.931
        11 -13.7783      9.9844    207.2377   1.2989882839e+02   3.0769069715e+01     1.075344    0.7879292  36.54  0.003123368    1.647    0.393
        12 -12.7873      4.9065    183.4642   1.2976571953e+02   3.5702339879e+01     1.229099     0.401253  89.46  0.005931285    2.776    0.640
        13 -15.1981     40.4852    198.2995   1.2386568831e+02   2.9376532833e+01     10.22779     3.353709  79.66   0.03169832    7.110    0.859
        14  -9.6586    149.6671    228.6899   1.0637116593e+02   9.0745757880e+00    0.1130196   0.08204841  18.20 0.0004667366    1.674    0.403
        15 -13.7599     35.0222    210.9744   1.2567319691e+02   2.7611225737e+01    0.8420238    0.5559418  64.88  0.002839432    1.127    0.113
        16  -9.9907    102.4174    235.1891   1.1547966142e+02   1.5085210892e+01    0.1405187   0.09541802  87.38 0.0009450307    1.698    0.411
        17  -9.8572     49.1701    233.3294   1.2452491781e+02   2.2167423731e+01     0.187784     0.117642  80.79 0.0006159958    1.409    0.290
        18 -11.2105     14.8136    193.6885   1.2840877790e+02   3.2851352531e+01     0.177509     0.168453 -10.30  0.001475661    1.755    0.430
        19 -11.5700     56.6940    188.3456   1.1991299673e+02   2.9441138218e+01    0.3190556    0.2517162 -43.59  0.001806798    1.876    0.467
        20  -9.1889     73.1594    187.4742   1.1646674851e+02   2.7519952992e+01    0.3058213     0.137991  70.95  0.001282222    3.209    0.688
        21 -11.5310     62.9074    181.5154   1.1800087834e+02   3.0041343409e+01    0.2412282    0.2108059 -63.49 0.0006843559    1.393    0.282
        22 -13.1266     27.8821    218.7085   1.2734339106e+02   2.6979065635e+01     0.560097    0.2717244 -65.42  0.001233165    2.309    0.567
        23 -10.9848     73.5241    170.3565   1.1451557050e+02   3.0955830080e+01    0.2363322    0.2001261 -88.93 0.0003428966    1.101    0.092
        24 -13.1336     60.0399    167.5376   1.1718819140e+02   3.3301796701e+01    0.4455241    0.2663205 -48.34  0.001418787    2.181    0.541
        25 -12.0602     81.3077    162.2986   1.1175425706e+02   3.1580120320e+01    0.8231755    0.4835146  60.04  0.004263004    1.715    0.417
        26 -12.6546     67.6778    143.9284   1.1249414132e+02   3.7507715263e+01    0.8424383    0.5129553  80.90  0.003439846    1.871    0.466
        27 -11.9469     56.4502    127.7296   1.1304232915e+02   4.2649966298e+01      2.12237    0.6567792 -77.33  0.004526405    9.931    0.899
        28 -10.1443     94.0787    232.9961   1.1675299882e+02   1.6576274701e+01    0.3318377   0.06393837  44.09   0.00132378    3.511    0.715
        29  -9.7193     95.5477    147.5080   1.0619456633e+02   3.2644578131e+01    0.2606196    0.2376183 -88.24 0.0008716207    1.044    0.042
        30  -8.9304     99.1348    143.3025   1.0460709264e+02   3.2992638210e+01    0.2764512    0.1732365 -37.86  0.001281256    2.132    0.531
        31 -11.9050     83.7894    146.2138   1.0885660847e+02   3.4736153517e+01    0.2693376    0.2261869 -60.35 0.0004839772    1.231    0.188
        32 -10.3927     31.2909    142.9257   1.2130393969e+02   4.1876815252e+01    0.2104472    0.1443525  56.04  0.001327599    1.387    0.279
        33  -9.9124    107.7827    133.3325   1.0060814186e+02   3.3737926292e+01    0.3828261     0.288121  78.61  0.001544677    1.534    0.348
        34 -10.4016     95.0838    130.7313   1.0335045188e+02   3.6468688851e+01     0.251731    0.2244212 -27.23 0.0004289746    1.374    0.272
        35  -9.1426    105.7765    121.7267   9.8743346950e+01   3.6686918116e+01    0.1942588    0.1858783 -44.37  0.000489479    1.127    0.112
        36  -9.8946    168.4460    113.1847   8.1467378217e+01   2.5624126432e+01    0.3225884    0.2588923 -81.22 0.0009133799    1.647    0.393
        37  -9.1900    204.4603    110.5230   7.3558912548e+01   1.7985299279e+01    0.3501436    0.1846669  27.41  0.001258716    2.859    0.650
        38  -9.3550    160.4916     79.5054   7.3857223146e+01   3.3844192898e+01      0.15545    0.1516358 -14.05 0.0008105927    1.010    0.010
        39  -9.8589      7.3118     62.3411   1.1795332981e+02   6.2264277683e+01    0.1280915   0.06621277 -47.36 0.0004517323    1.697    0.411
        40  -9.9547     13.4887     59.9952   1.1511198826e+02   6.2443257671e+01    0.1726142   0.09118964  87.16 0.0008105248    2.590    0.614
        41 -11.1883      2.2670     51.7913   1.1799586763e+02   6.4880932997e+01    0.4546942     0.100766 -69.51  0.001723865    3.400    0.706
        42 -10.5274     69.8858    249.8327   1.2211034104e+02   1.7098919498e+01    0.2335674    0.1259702  56.33  0.001341419    1.375    0.273
        43 -11.0633     28.9772    249.5007   1.2857083683e+02   2.1782456491e+01    0.2632654    0.1633113  44.89   0.00209489    1.423    0.297
        44 -10.5629     83.0807    246.0514   1.1967741980e+02   1.6013468807e+01    0.1904071    0.1342918  88.59 0.0005115303    1.494    0.330
        45 -14.5553     97.7375    227.5518   1.1561683248e+02   1.6942328138e+01      4.35615          nan  43.38   0.01051807    9.444    0.894
        46 -10.0507    189.6909     15.0013   4.8234702909e+01   3.5703849859e+01    0.2018516     0.185648 -38.20 0.0005769863    1.092    0.084
