#   1 NUMBER                 Running object number                                     
#   2 MAG_AUTO               Kron-like elliptical aperture magnitude                    [mag]
#   3 X_IMAGE                Object position along x                                    [pixel]
#   4 Y_IMAGE                Object position along y                                    [pixel]
#   5 X_WORLD                Barycenter position along world x axis                     [deg]
#   6 Y_WORLD                Barycenter position along world y axis                     [deg]
#   7 A_WORLD                Profile RMS along major axis (world units)                 [deg]
#   8 B_WORLD                Profile RMS along minor axis (world units)                 [deg]
#   9 THETA_WORLD            Position angle (CCW/world-x)                               [deg]
#  10 FWHM_WORLD             FWHM assuming a gaussian core                              [deg]
#  11 ELONGATION             A_IMAGE/B_IMAGE                                           
#  12 ELLIPTICITY            1 - B_IMAGE/A_IMAGE                                       
         1 -13.5562    169.5353     56.5023   6.1747798548e+01   3.5511363907e+01     2.162562     1.337415  22.73  0.006495991    2.498    0.600
         2 -13.2129    184.1838     41.5382   5.4608604095e+01   3.3944193731e+01    0.9713283    0.8892925 -56.67  0.002960199    1.087    0.080
         3 -12.7040    189.0878     35.1645   5.1975494044e+01   3.3533755992e+01    0.5996473     0.579689 -17.12  0.001485126    1.137    0.121
         4 -13.8699    206.9119     10.3877   4.2838796979e+01   3.1914853381e+01     1.075091     1.054525  61.42   0.00379331    1.184    0.156
         5 -12.4797    233.3072      3.1358   3.8647113368e+01   2.6285744187e+01     1.667217    0.3383678  74.65  0.005128184    4.946    0.798
         6 -12.0479     63.1189    221.2172   1.2043139537e+02   2.1484461250e+01    0.4172255    0.1980555  74.63  0.001509312    2.437    0.590
         7 -13.4237    246.3311    240.2822   8.8993451521e+01  -9.8682917750e+00     1.437457    0.6839243 -24.59  0.008186883    2.260    0.558
         8  -9.5438     87.7494    202.6937   1.1378595330e+02   2.1671979501e+01    0.2000128    0.1868477 -34.25   0.00110656    1.500    0.333
         9 -19.4259     35.5806    146.7935   1.1901231471e+02   4.0653123828e+01     19.00654     5.177047 -73.68   0.06757563    3.636    0.725
        10 -10.1625     80.7713    194.8303   1.1433395926e+02   2.4303765610e+01    0.4481745     0.225591  55.84  0.002210935    1.883    0.469
        11 -11.5570     66.4047    194.0060   1.1724766389e+02   2.6477951883e+01     0.330735    0.2280059 -46.89  0.001364188    1.985    0.496
        12  -9.5919    156.5683    189.7311   9.7409428748e+01   1.2503284325e+01    0.1752214    0.1347591 -65.02 0.0007304759    1.568    0.362
        13 -12.3611    149.5682    188.7539   9.8724671170e+01   1.3989871324e+01     0.478425    0.3943576 -76.41  0.002218262    1.436    0.304
        14  -9.2548     65.7414    187.2148   1.1666470467e+02   2.8004561081e+01    0.1419073    0.1319467 -88.68 0.0003325719    1.246    0.198
        15 -12.0924     75.2884    248.7304   1.2046067370e+02   1.4968006013e+01    0.3532901    0.1438643 -60.62 0.0008500207    2.870    0.652
        16 -11.3601    151.0864    180.1127   9.6894233496e+01   1.5370378439e+01    0.4262009     0.293911 -75.25  0.002007749    2.051    0.513
        17 -11.7585    145.0611    180.9677   9.8356845494e+01   1.6342148533e+01    0.3944343     0.296907  47.68  0.001335654    1.222    0.181
        18 -12.2738    141.8544    175.6909   9.8130069278e+01   1.8003530354e+01    0.6523776    0.4662825  89.71  0.002538437    1.951    0.487
        19 -10.8250    188.6120    176.3220   8.8271325118e+01   8.7964726162e+00    0.6076068    0.3787708 -58.23  0.002117284    2.278    0.561
        20 -11.9842     58.3901    214.9550   1.2079515336e+02   2.3295690412e+01    0.2645636    0.1673088  61.60  0.001213836    1.292    0.226
        21  -8.7201    194.4925    172.5133   8.6324006247e+01   8.3156194184e+00    0.1421907    0.1293937  18.37 4.294986e-06    1.012    0.012
        22  -9.7759     57.1458    225.3369   1.2185972949e+02   2.1477406388e+01   0.09538457   0.06911179 -69.75 0.0001552248    1.529    0.346
        23  -9.4780    240.3086    169.3287   7.7073898004e+01   2.1696919575e-01    0.1394372   0.09402721   4.49 0.0002834742    1.660    0.398
        24  -8.4565     81.2631    220.2673   1.1692126866e+02   1.9193807197e+01   0.09592202   0.09410524  30.39  0.000311771    1.459    0.315
        25 -10.9724     94.5361    156.7232   1.0589249512e+02   3.0561423160e+01    0.2627503    0.2447607 -71.69 0.0004126487    1.118    0.106
        26 -12.1595     99.6748    150.5784   1.0356081154e+02   3.1125498854e+01    0.6030055    0.4700158 -28.76  0.003089818    1.716    0.417
        27  -9.1119    149.4220    156.2018   9.2680590143e+01   2.0541441369e+01    0.2144356    0.1411714 -62.40  0.000948253    1.819    0.450
        28  -9.3324      1.4483    155.9231   1.2771610270e+02   4.1550897554e+01    0.1582176    0.0855838 -78.40  0.000115052    1.424    0.298
        29  -9.9826    113.4277    151.4197   1.0030680783e+02   2.8531585705e+01    0.3168505    0.2044279  79.51  0.001225357    2.238    0.553
        30 -10.0497    186.2626    151.3546   8.3542961193e+01   1.3846166472e+01    0.3838517    0.1330617  53.86  0.001109521    4.055    0.753
        31 -10.9898    133.7196    144.8937   9.4028420385e+01   2.6131465366e+01     1.136444    0.2995917 -55.16  0.002805539    5.529    0.819
        32  -9.6655    174.8824    149.1105   8.5469605784e+01   1.6686900007e+01    0.2285502    0.2073015  85.19 0.0005854084    1.275    0.216
        33 -10.1040    143.5831    145.8604   9.1868695547e+01   2.3926791949e+01    0.3619264    0.1424879 -56.23  0.001148156    3.314    0.698
        34 -11.0440    192.9283    194.8957   9.0921115966e+01   4.8375304198e+00     1.155309    0.6215829 -64.97  0.003381568    6.839    0.854
        35 -11.4082    109.9323    137.3842   9.8412592141e+01   3.2380016714e+01    0.5315626    0.2955998 -45.47   0.00227026    1.882    0.469
        36  -9.1426    128.0436    139.4806   9.4265830838e+01   2.8461206439e+01    0.2288893    0.1462998  43.61  0.001020226    1.554    0.357
        37 -11.7645     98.5669    136.4579   1.0118263096e+02   3.4598058366e+01    0.3010142    0.2762303  24.07 0.0001028074    1.261    0.207
        38 -11.0600    105.9194    130.8072   9.8081465993e+01   3.4631953637e+01    0.4027754    0.3185198 -66.85  0.001160864    1.261    0.207
        39  -9.9971    135.7544    129.1748   9.0024443787e+01   2.9196226527e+01    0.3670869    0.1283707 -45.79  0.001185044    2.872    0.652
        40 -10.1354    161.2777    128.4471   8.3722429072e+01   2.3843780023e+01    0.4314736    0.2620008  66.82   0.00163391    2.395    0.582
        41 -10.1908    116.3549    128.5398   9.4837739160e+01   3.3219959451e+01    0.2926547    0.2569052 -19.08 0.0007027801    1.350    0.259
        42 -10.5157    104.3229    124.0050   9.7026133242e+01   3.6504382981e+01    0.2917131    0.2332229 -34.07 0.0008936784    1.412    0.292
        43  -9.8144    120.9417    123.0012   9.2360515334e+01   3.3592884326e+01    0.2420596    0.1914239  -9.69  0.001127635    1.716    0.417
        44  -9.2963    152.7829    119.8485   8.3588255619e+01   2.7542724317e+01    0.2315507    0.2134175  -9.30 0.0005280667    1.176    0.149
        45  -9.5578    111.1720    117.9824   9.3778781255e+01   3.6634563850e+01    0.2407871    0.2135971  46.49 0.0003239213    1.162    0.139
        46  -9.8635    231.1611    113.8312   6.6225450279e+01   1.0941400816e+01    0.2393842    0.2252483 -31.12 0.0007633558    1.046    0.044
        47  -9.9204    167.5744    112.4119   7.8243606145e+01   2.5706533857e+01    0.3489733    0.2483071 -74.16  0.001446369    2.011    0.503
        48 -10.7964    134.6773    107.4341   8.4864123942e+01   3.4205857221e+01     1.010054    0.1369896 -46.47  0.001950193    7.776    0.871
        49 -11.2162    119.4998    110.5555   8.9687637047e+01   3.6696393420e+01    0.5703874     0.370291  66.45  0.002350971    2.106    0.525
        50  -9.8529    205.3196    110.1052   6.9866913084e+01   1.7339068230e+01    0.3307923     0.230007  44.34  0.001186909    1.489    0.329
        51 -11.8167     70.9783    207.3547   1.1766669415e+02   2.3130179582e+01    0.4654522    0.2983632  24.45  0.002527609    2.315    0.568
        52  -8.8597    200.4986    100.4969   6.8298834820e+01   2.0202257300e+01    0.1523081    0.1474627 -27.31 -0.0001469917    1.011    0.011
        53 -13.0200     10.9286    206.2351   1.2893291176e+02   3.0279322101e+01    0.4236138    0.1844282  41.12  0.002563096    2.099    0.524
        54 -10.2367    188.2879     87.9515   6.7263853104e+01   2.5417903249e+01    0.4283485     0.327563  84.62  0.001965273    1.625    0.384
        55  -9.4665     75.2277     74.0227   9.2910238627e+01   5.2730076971e+01    0.2194961    0.1981784  23.97 0.0005453227    1.197    0.164
        56 -11.6001     61.4410    204.8962   1.1932102851e+02   2.4894073826e+01    0.3030629    0.2037955 -52.00   0.00165273    1.950    0.487
        57 -10.7120     71.5323    243.0084   1.2066832147e+02   1.6438637874e+01    0.2123492     0.146157  87.52 0.0006723325    1.393    0.282
        58  -9.3410     85.7077    239.8190   1.1790083047e+02   1.5044877425e+01    0.1648147    0.1258863  47.45 0.0003042301    1.229    0.186
        59 -11.5831    198.2647     23.4177   4.7368495380e+01   3.2638477441e+01    0.4144101    0.3009995   9.41    0.0015754    1.914    0.477
        60  -9.1924    167.5104    228.5295   1.0130332721e+02   4.0135205570e+00    0.1721852    0.1230346 -63.50 0.0009042677    1.963    0.490
        61 -11.3874    191.1379     15.4657   4.6013490209e+01   3.5367731527e+01    0.4884736    0.2558365  77.45  0.002158187    1.912    0.477
