#   1 NUMBER                 Running object number                                     
#   2 MAG_AUTO               Kron-like elliptical aperture magnitude                    [mag]
#   3 X_IMAGE                Object position along x                                    [pixel]
#   4 Y_IMAGE                Object position along y                                    [pixel]
#   5 X_WORLD                Barycenter position along world x axis                     [deg]
#   6 Y_WORLD                Barycenter position along world y axis                     [deg]
#   7 A_WORLD                Profile RMS along major axis (world units)                 [deg]
#   8 B_WORLD                Profile RMS along minor axis (world units)                 [deg]
#   9 THETA_WORLD            Position angle (CCW/world-x)                               [deg]
#  10 FWHM_WORLD             FWHM assuming a gaussian core                              [deg]
#  11 ELONGATION             A_IMAGE/B_IMAGE                                           
#  12 ELLIPTICITY            1 - B_IMAGE/A_IMAGE                                       
         1 -14.9712     68.5366    144.1385   1.0493100784e+02   3.7444431624e+01     5.144836     2.260668  60.46  0.004014695    4.417    0.774
         2 -14.2435    198.0689     39.5230   4.5774593370e+01   3.1058072155e+01        1.445     1.244569 -21.38  0.003708969    1.318    0.241
         3 -14.7281    208.1376     29.1321   4.1854051191e+01   2.9962194859e+01     1.868563     1.371747  17.00  0.001821195    2.039    0.510
         4 -13.4108    232.7218      4.3607   3.3790055031e+01   2.7143995101e+01    0.8483264    0.4815482  77.63  0.004835485    1.633    0.388
         5 -11.2510     61.2805      7.7304   6.5061986040e+01   6.6004728238e+01    0.1979687    0.1794374  11.28 0.0005623276    1.241    0.194
         6 -11.5163     43.1568      6.8769   7.2111538758e+01   6.9020588866e+01    0.1774319    0.1545168  -0.53  0.001254964    1.263    0.208
         7 -13.0133    204.5568    196.9186   8.2242785472e+01   2.4281088227e+00    0.9627883    0.5270455  11.47  0.003842221    2.918    0.657
         8 -12.4207    139.8776    248.1842   1.0341704605e+02   4.5269291277e+00    0.5506845    0.4825523 -89.04  0.003801566    1.429    0.300
         9 -13.0526     16.6460    191.3334   1.2304701731e+02   3.2062111530e+01    0.4373765    0.2370898  50.25 0.0005102985    1.675    0.403
        10 -15.2976     47.1412    200.7746   1.1735806013e+02   2.6825430343e+01     5.939615     1.574497  52.01   0.02098007    4.084    0.755
        11 -13.9887     56.3988    188.5664   1.1408938256e+02   2.8426098272e+01     2.224773     1.068782  58.79   0.01021047    2.247    0.555
        12 -15.0508     57.2901    240.0024   1.1860455970e+02   1.7643258650e+01     1.042933    0.6716939  70.67   0.00600077    1.386    0.279
        13 -17.0562      6.3837    209.4390   1.2619805297e+02   2.9151395969e+01      12.3799     1.260791 -75.56    0.0253556    6.799    0.853
        14  -9.7981     33.6217    205.0566   1.2055202127e+02   2.7412264447e+01     0.199128    0.1316417  57.14 0.0005671859    1.310    0.237
        15  -9.8993    134.2766    196.6186   9.7238423012e+01   1.4839996310e+01    0.2154315     0.157253  68.86 0.0006116803    1.711    0.415
        16 -10.5239    128.0039    194.2782   9.8285318972e+01   1.6404416593e+01    0.3605717    0.1881388 -72.77  0.001298433    3.524    0.716
        17  -9.3421     82.0644    194.7134   1.0893451543e+02   2.3616133359e+01    0.1886292    0.1612517  57.46 0.0008545262    1.074    0.069
        18  -9.3381     70.8942    185.1734   1.1032674114e+02   2.7322601973e+01    0.2004457    0.1568124  69.84 0.0004084237    1.207    0.172
        19  -9.2725     92.1451    184.4815   1.0518327965e+02   2.4410125466e+01    0.1993488    0.1305027  37.95 0.0006618013    1.499    0.333
        20 -11.1426    150.6271    179.0405   9.0379884935e+01   1.5518457992e+01    0.5040594    0.3062781 -71.90  0.001945204    2.907    0.656
        21 -10.5334     99.2358    180.7547   1.0291694690e+02   2.4147324163e+01    0.3009512    0.2331146  26.14  0.001260275    1.447    0.309
        22 -11.6079    144.1721    178.4995   9.1774645063e+01   1.6830609510e+01    0.4341712    0.3081462 -56.35  0.001312938    1.549    0.354
        23  -9.7694    189.0308    178.0892   8.1718608562e+01   8.4998113305e+00    0.2164347    0.1840353  86.06  0.001069953    1.724    0.420
        24  -9.9944     40.6024    177.9202   1.1660940653e+02   3.2695730918e+01    0.2244237    0.1606798  55.34 0.0003099885    1.327    0.247
        25 -12.2844     70.3549    174.3260   1.0904150213e+02   2.9910102109e+01    0.4594934    0.3219664 -32.98  0.001886118    1.987    0.497
        26 -12.2490     74.6985    169.4770   1.0728087239e+02   3.0456805596e+01    0.3315721    0.2774317 -42.68   0.00189216    1.373    0.272
        27 -10.2580     47.4638    172.4207   1.1438834914e+02   3.3215130646e+01     0.420824    0.1948871 -52.55  0.001927172    2.273    0.560
        28 -10.1675    187.4883    172.6713   8.0934271892e+01   9.8036005959e+00    0.3457745    0.2348164 -73.81  0.001386109    2.953    0.661
        29 -13.2749     43.0415    110.8543   1.0658294634e+02   4.8665622293e+01    0.8181757    0.4765593 -53.29   0.00268518    1.469    0.319
        30 -13.1446     52.5909    108.4124   1.0301491745e+02   4.8220278586e+01     2.396055    0.6576846 -67.08  0.005839517    6.430    0.844
        31 -13.2623     54.7796    146.7030   1.0913504857e+02   3.8558398897e+01     1.416176    0.8384056 -45.23  0.006873131    1.836    0.455
        32 -13.8409     71.4444    155.6537   1.0602827334e+02   3.4230988598e+01    0.6118161    0.5126724 -50.42  0.002048827    1.240    0.193
        33  -8.7067    169.3119    237.2607   9.6118854085e+01   1.6847967693e+00     0.123687   0.08716933  12.83 0.0002158147    1.533    0.348
        34  -9.4068     42.1499    167.2085   1.1508842692e+02   3.5035012581e+01    0.1819997    0.1306788  71.88 0.0005144299    1.339    0.253
        35 -10.5790     33.6631    164.2925   1.1684456591e+02   3.6606407295e+01    0.5153432    0.2897459 -14.57  0.002069743    4.274    0.766
        36 -10.5431    156.7896    158.9374   8.4877797831e+01   1.8558608277e+01    0.4133841    0.2912893 -79.16  0.001113812    2.294    0.564
        37  -9.1260     48.7482    160.5763   1.1264462710e+02   3.5886287330e+01    0.1724663    0.1138598  49.33 0.0006003131    1.532    0.347
        38 -12.2017     89.8744    153.7490   1.0079451603e+02   3.1978462541e+01    0.6391114    0.4627642 -22.74  0.003016258    1.927    0.481
        39 -12.8335     82.9591    160.7990   1.0382700415e+02   3.1337332425e+01     1.017544    0.5324616  63.20 0.0004846865    2.776    0.640
        40 -10.2734    187.3168    151.9302   7.6493075683e+01   1.3837861268e+01    0.2147436    0.1907996 -26.91  0.001145883    1.087    0.080
        41 -11.4733    133.8096    144.8781   8.7427332895e+01   2.6228607612e+01     1.192599    0.3348853 -54.83  0.002945729    5.175    0.807
        42 -10.7533    174.4503    148.9662   7.8624080108e+01   1.7058464382e+01    0.3257033    0.2779391 -73.91 0.0009816947    1.469    0.319
        43  -9.0351    112.4960    150.5532   9.4172002914e+01   2.8933012072e+01    0.1484615    0.1440132  82.64 5.809002e-05    1.022    0.021
        44 -11.2061     40.3318    146.8841   1.1307230899e+02   4.0116216651e+01    0.2905763     0.260835 -23.68 0.0009724948    1.380    0.275
        45 -10.5938     43.7987    144.1305   1.1176065878e+02   4.0425841149e+01     0.203732    0.1948131  63.41 0.0003921935    1.166    0.142
        46 -10.3150    144.1763    146.3634   8.5156524941e+01   2.3824201837e+01    0.3414213    0.1861238 -67.66  0.001096633    3.437    0.709
        47 -10.9559    103.2405    139.3137   9.4340759449e+01   3.3247822759e+01     0.562246    0.3523389 -23.69  0.002203305    2.515    0.602
        48 -12.3715     90.7607    139.1233   9.7775538890e+01   3.5387713382e+01    0.2894651    0.2587555 -45.63 0.0004117809    1.126    0.112
        49 -12.8906     44.1300    130.2015   1.0959431659e+02   4.3812211310e+01    0.8797842     0.410613 -82.85   0.00338165    2.918    0.657
        50 -10.7323    105.9604    130.8091   9.1722359309e+01   3.4802102695e+01    0.3556876    0.3171795 -77.26  0.001195012    1.186    0.157
        51 -11.3603     33.0596    130.9032   1.1290333805e+02   4.4729042781e+01     0.283576    0.1933623 -74.89  0.001059675    1.281    0.220
        52 -11.3488    135.7397    128.0247   8.2990854081e+01   2.9660087740e+01    0.6135496    0.1717076 -49.12    0.0017046    3.744    0.733
        53 -10.2504    160.5878    128.1390   7.6859754894e+01   2.4344607754e+01    0.3700978    0.2535859 -54.05  0.001620062    1.598    0.374
        54 -11.4106    119.3002    123.2809   8.6225005645e+01   3.4062216650e+01    0.5680938    0.3805985   1.27  0.002178307    2.538    0.606
        55 -11.1782    138.5334    170.3122   9.1545660230e+01   1.9635690029e+01    0.4319127    0.3146706  50.66  0.002104997    1.406    0.289
        56 -10.5512    112.2514    129.7267   8.9717363072e+01   3.3905070717e+01    0.3182558    0.2657467   1.71 0.0007453737    1.435    0.303
        57 -11.0271     99.4072    125.8749   9.2463545846e+01   3.7143387590e+01    0.2927198    0.2376897 -17.90 0.0006042563    1.462    0.316
        58  -9.9815    108.1851    118.9828   8.8294299883e+01   3.7192311010e+01     0.232553    0.2134518  35.87 0.0003130624    1.126    0.112
        59  -9.5982     37.3802    168.0631   1.1634328454e+02   3.5338526048e+01    0.2569529    0.1323054  53.21  0.001274717    1.972    0.493
        60  -9.5575    168.4251    113.1491   7.1228101333e+01   2.5715030272e+01    0.2978418    0.2101227 -86.69  0.001176888    2.350    0.574
        61 -10.1048    230.4777    166.9643   7.1296737166e+01   2.9608725076e+00    0.1908424      0.11243 -54.76 0.0008101097    2.633    0.620
        62 -10.1663    205.5350    110.1514   6.2890039728e+01   1.7960639741e+01     0.302255    0.2170558  40.48  0.001065626    1.505    0.336
        63 -11.1639    115.5266    108.9363   8.3612227298e+01   3.8091340939e+01    0.4901759    0.2950829 -22.76  0.001821027    2.501    0.600
        64  -8.8947    142.4873    109.4046   7.6452587358e+01   3.2314517634e+01    0.1549461     0.152128   7.52 0.0001149811    1.018    0.018
        65 -10.4166    134.7026    104.8896   7.7240114522e+01   3.4984967316e+01    0.5445012    0.1791329 -41.28  0.001657584    3.067    0.674
        66  -9.8357    241.6718    101.6780   5.4952780570e+01   1.1843959449e+01    0.1368375    0.1050612   3.25 0.0004355859    1.691    0.409
        67 -10.9922     33.2717    100.3171   1.0778914561e+02   5.2135785316e+01    0.2855064    0.2383917  78.96  0.001361717    1.376    0.273
        68  -8.7345    129.3242     96.6562   7.6362414689e+01   3.7902227819e+01    0.1599601    0.1263226 -83.64 0.0004583208    1.735    0.424
        69 -11.4198     52.2256     92.8162   9.9653102782e+01   5.1977381492e+01    0.4265842    0.3847515 -76.39  0.002569871    1.216    0.178
        70  -9.2180     75.6949     85.0896   8.9446484224e+01   5.0555408013e+01    0.1964614    0.1685857 -38.49 0.0003515305    1.067    0.063
        71 -10.4544    157.7707     82.5882   6.5188910706e+01   3.4154947354e+01    0.4127025    0.2161998 -30.89  0.001395008    2.093    0.522
        72  -9.3711    184.6060     77.1380   5.8139587897e+01   2.8660368532e+01    0.2107774    0.1432113 -21.77 0.0006095191    1.710    0.415
        73 -10.3121     58.8889     67.6514   9.0258041534e+01   5.6729752026e+01    0.2422814    0.2205358  35.47 0.0006161694    1.291    0.225
        74 -11.4911     13.2237     59.7968   1.0651142689e+02   6.2834962026e+01     0.347957    0.2621644  71.14 0.0005192309    1.965    0.491
        75 -17.1108      7.0188    245.8589   1.2782347811e+02   2.2061233017e+01     1.794993     1.728906  -0.22    0.0155998    1.759    0.432
        76 -11.9332    193.5636    195.7866   8.4238687750e+01   4.5107561733e+00    0.9657267    0.5361837 -63.16  0.003264749    4.787    0.791
        77 -13.8405    187.7093     47.3787   4.9385365979e+01   3.2518860475e+01     1.170613     0.927011  29.01  0.000912224    1.542    0.352
        78  -9.0745     72.4782     53.9736   8.0490417940e+01   5.7378557512e+01    0.1713725    0.1215719 -64.43 0.0004208821    2.238    0.553
        79 -11.8372    145.6508     50.1239   5.7909821618e+01   4.2521728555e+01     0.569735    0.3634003 -82.82   0.00185928    2.679    0.627
        80 -10.7171    147.4711     43.7172   5.5461165421e+01   4.2994162317e+01    0.2673475    0.2454001 -89.52 0.0003889467    1.161    0.138
        81  -9.0068     35.0501     37.7817   8.9842869598e+01   6.5397967632e+01    0.1470032   0.09554875  22.13 0.0004711495    1.603    0.376
        82 -10.1465     30.9273     36.1239   9.1121379932e+01   6.6125810946e+01    0.1734045    0.1580972  -4.62 0.0007429546    1.265    0.210
        83 -11.3920     24.1381     34.4260   9.3713678039e+01   6.7079431451e+01     0.246137    0.1905859  13.14 0.0009347677    1.367    0.269
        84 -10.9663    198.0502     23.8595   4.1678399046e+01   3.2990032752e+01    0.2893406    0.1995802 -16.55  0.001155327    1.809    0.447
        85 -16.6423     32.1260    249.4763   1.2376425369e+02   1.8830399830e+01     10.84896     3.347687  26.32   0.02675257   13.677    0.927
        86  -9.8149    189.6482     14.9967   4.0333340782e+01   3.5996575945e+01    0.1806216    0.1618777 -53.00 0.0006473314    1.149    0.129
        87 -11.5475    113.3110    206.3031   1.0342622351e+02   1.6361304078e+01     0.410803    0.2143622  54.04  0.001356103    2.060    0.515
        88 -12.4273    109.5187    201.7110   1.0362580586e+02   1.7920614972e+01    0.6593295    0.5208262  -9.90  0.001084212    1.805    0.446
