#   1 NUMBER                 Running object number                                     
#   2 MAG_AUTO               Kron-like elliptical aperture magnitude                    [mag]
#   3 X_IMAGE                Object position along x                                    [pixel]
#   4 Y_IMAGE                Object position along y                                    [pixel]
#   5 X_WORLD                Barycenter position along world x axis                     [deg]
#   6 Y_WORLD                Barycenter position along world y axis                     [deg]
#   7 A_WORLD                Profile RMS along major axis (world units)                 [deg]
#   8 B_WORLD                Profile RMS along minor axis (world units)                 [deg]
#   9 THETA_WORLD            Position angle (CCW/world-x)                               [deg]
#  10 FWHM_WORLD             FWHM assuming a gaussian core                              [deg]
#  11 ELONGATION             A_IMAGE/B_IMAGE                                           
#  12 ELLIPTICITY            1 - B_IMAGE/A_IMAGE                                       
         1 -10.0748     88.8200      6.8392   3.3500075719e+01   6.2008514120e+01    0.1968628    0.1636869 -63.46 0.0005261616    1.335    0.251
         2 -11.0829     22.7546      6.1102   6.2676756362e+01   7.6562784516e+01     0.473156     0.261265  12.12  0.001995936    2.881    0.653
         3  -9.4324      6.6822      3.2888   7.5465460056e+01   7.9150126513e+01    0.1117287   0.09922865  63.52  0.000188594    1.595    0.373
         4  -9.8605     16.9825      5.3256   6.6937695701e+01   7.7537122403e+01    0.1789469    0.1543917  -0.21 0.0005504235    1.072    0.067
         5  -9.7138     29.0222      2.0135   5.4546450723e+01   7.6144354094e+01    0.1923667    0.1688631  -1.11            0    1.021    0.021
         6 -10.8603    161.0199    239.8006   7.8274108043e+01   7.7133552549e+00    0.2092034    0.1617545 -54.42  0.001403309    2.032    0.508
         7 -10.7614    168.9690    249.0738   7.7954121376e+01   5.6673657537e+00    0.3146722    0.1835314  12.72  0.001378985    1.540    0.350
         8  -9.4720    134.1883    250.3762   8.4480780005e+01   9.5227317805e+00    0.1620083   0.07480887  36.25 0.0007140844    1.690    0.408
         9  -9.9407    115.4425    248.7412   8.7907268868e+01   1.1914617904e+01    0.1300368   0.09918092 -28.79 0.0009532731    1.647    0.393
        10 -10.8086    115.6298    242.8212   8.7300155972e+01   1.2726359284e+01     0.315562    0.1848899  38.50  0.002040256    1.390    0.281
        11  -9.4000    124.7423    249.5965   8.6197247301e+01   1.0721330524e+01    0.1633199       0.1269  44.11 0.0003989104    1.365    0.267
        12 -10.6224    120.5032    245.6881   8.6628083896e+01   1.1749695026e+01    0.2779993     0.226606  35.26  0.002144396    1.175    0.149
        13 -11.1175    100.1137    245.9400   9.0662001492e+01   1.4076895523e+01    0.4148386    0.2983114 -77.25  0.002944163    1.995    0.499
        14 -10.1624     95.0970    249.6849   9.1969953113e+01   1.4097775827e+01     0.243471    0.1505331  31.97 0.0008008815    1.203    0.169
        15 -11.2175     89.9650    248.1876   9.2863106573e+01   1.4890860600e+01    0.3337401    0.2513494 -48.45  0.001822427    1.741    0.426
        16 -15.6949     96.4710    230.0939   8.9967878033e+01   1.6929496361e+01     4.912732     2.851418 -52.50   0.03030463    2.129    0.530
        17  -9.7719    173.4076    243.0997   7.6437793353e+01   5.8557890156e+00    0.2923475    0.1172813  23.63  0.001535446    2.250    0.556
        18 -11.1751     90.8373    238.0454   9.1850452525e+01   1.6333641475e+01    0.4207928    0.2426516  50.05  0.002611552    1.683    0.406
        19  -9.4273    144.6255    239.7418   8.1338991333e+01   9.6866235127e+00    0.2078274    0.1067716  22.16 0.0006805226    1.698    0.411
        20 -10.1092    217.4412    238.8371   6.8442819313e+01   1.3868114580e+00    0.1706063    0.1346871  22.99 0.0008853888    1.512    0.339
        21 -10.2109    231.5246    237.4540   6.6057197415e+01   4.1833260099e-02    0.2300763    0.1358576  13.92  0.001008321    1.265    0.210
        22 -10.8211    227.7463    234.3703   6.6202504473e+01   7.3820667744e-01    0.3601138    0.1565649 -22.75   0.00211601    2.237    0.553
        23  -9.8821    244.9275    236.5720   6.3933122759e+01  -1.2306455388e+00     0.164172    0.1129454 -11.91 0.0005670871    1.286    0.222
        24  -9.9358    124.5677    235.9552   8.4821559671e+01   1.2641443803e+01    0.2103382    0.1884141  37.62 0.0009991593    1.252    0.202
        25 -10.2008    123.2286    231.0021   8.4549413440e+01   1.3529356749e+01    0.2107308    0.1965957  64.20  0.001273268    1.392    0.282
        26  -9.3355    213.5394    236.0354   6.8680576172e+01   2.0971626131e+00    0.1383314   0.08683741 -21.01 0.0004243943    1.520    0.342
        27 -11.0722    187.3262    235.0118   7.2939644005e+01   5.1795654535e+00    0.4666089    0.1866352  37.47  0.002530111    2.343    0.573
        28 -10.3706    169.5124    235.7777   7.6214813275e+01   7.1983220022e+00    0.2603833     0.143679  40.41  0.001334678    1.891    0.471
        29 -10.7513    112.2736    234.9566   8.7186830792e+01   1.4278043952e+01    0.4174314    0.2139446  56.60   0.00208014    3.013    0.668
        30  -9.9860    131.1305    234.8448   8.3398880436e+01   1.1998955087e+01    0.1648694    0.1162892   9.21  0.001098539    1.404    0.288
        31  -9.3229    222.2812    234.5398   6.7078554684e+01   1.3031584493e+00    0.1429888   0.07385485  18.13 0.0009359271    1.577    0.366
        32 -10.1735    177.0485    233.0549   7.4496968466e+01   6.6286062577e+00    0.3116803    0.1980764  -0.63  0.002059529    1.566    0.362
        33 -10.1049    206.7496    231.6187   6.9173059336e+01   3.3238711438e+00    0.1964594    0.1696772 -15.75  0.001256575    1.544    0.352
        34  -9.4222    150.6540    233.3151   7.9424796036e+01   9.8090278334e+00    0.1084395   0.07725688  47.03 0.0007047688    1.718    0.418
        35 -10.5323    138.4743    233.3185   8.1780514608e+01   1.1310568766e+01     0.284038   0.08320334  32.22   0.00125493    2.672    0.626
        36  -9.8546    239.2126    231.4163   6.4038860386e+01  -1.6879325324e-01    0.1867758   0.07784561  36.32  0.001111729    2.561    0.610
        37 -10.8899    191.9005    229.0030   7.1323112879e+01   5.3406745389e+00     0.312204    0.1800071 -40.48  0.002005939    2.186    0.543
        38 -10.1230    118.7823    229.4685   8.5284438536e+01   1.4309354350e+01     0.171571    0.1678305 -14.08 0.0008781605    1.288    0.224
        39  -9.6684    225.9609    227.9635   6.5560201253e+01   1.5760799243e+00    0.1551758    0.1094165   3.70 0.0003503091    1.026    0.026
        40 -10.1389    196.3767    227.6772   7.0365068302e+01   4.9655505469e+00    0.1446751    0.1240973  36.11 0.0008286067    1.702    0.413
        41  -9.0658    208.9879    227.4620   6.8212551851e+01   3.5240946898e+00     0.154099   0.08373771  26.89 0.0005474056    1.510    0.338
        42 -16.2142     60.9247    208.3668   9.5877737792e+01   2.4880725496e+01       6.9756     3.868298 -35.58    0.0345572    2.975    0.664
        43  -9.4896    168.4432    230.7259   7.5755525553e+01   7.9607851751e+00    0.1440656   0.09383245 -19.06 0.0009454274    1.647    0.393
        44 -10.7851     63.3163    223.5129   9.6506605420e+01   2.1849683715e+01    0.4041227    0.1739944  47.03  0.002135223    1.960    0.490
        45 -10.0319    242.2897    223.7453   6.2457190809e+01   2.5617506123e-01    0.1660172   0.09912506  23.33 0.0007558359    1.436    0.304
        46  -9.8533    122.9560    223.0306   8.3701699421e+01   1.4768351559e+01    0.1832329    0.1642933  41.47 0.0007489675    1.236    0.191
        47  -9.4170    122.8702    218.6219   8.3199786497e+01   1.5465998318e+01    0.1801887    0.1497889 -11.97  0.001244721    1.332    0.249
        48 -10.6693    197.3991    218.8990   6.8921500798e+01   5.8739384346e+00    0.3864171    0.1724508 -24.64  0.002068583    2.505    0.601
        49  -9.8243    250.5832    221.0722   6.0848848713e+01  -3.4393941160e-01    0.1389396   0.07808162 -23.04  0.000441396    1.552    0.356
        50  -9.2524    230.8422    221.1738   6.3800118406e+01   1.7421515854e+00    0.1466921   0.09063134   1.42 0.0002571924    1.295    0.228
        51  -9.8580    155.0000    239.9799   7.9411604848e+01   8.4097440293e+00    0.1743033    0.1337314 -31.51 0.0006223707    1.546    0.353
        52  -9.3804    114.5858    217.6232   8.4831286895e+01   1.6694573750e+01     0.235314    0.1479493   1.04 0.0007814177    2.202    0.546
        53  -9.0273    249.6431    217.2868   6.0410102592e+01   1.1916479470e-01   0.08526831   0.07374533   6.50 0.0007023115    1.676    0.404
        54  -9.7080    222.8686    216.3930   6.4323501628e+01   3.1441149191e+00    0.2979706    0.1324709  17.14  0.001594417    2.410    0.585
        55 -12.7783     11.5699    178.7507   1.0601263416e+02   3.5788827661e+01     1.114978    0.7624929  45.47  0.005943914    1.224    0.183
        56 -15.5104     32.1654    211.4604   1.0266307629e+02   2.7268672173e+01     3.815284     1.836287  89.47   0.02087778    2.327    0.570
        57  -9.5623    166.3006    214.5769   7.3944865247e+01   1.0367917281e+01    0.1859322      0.13936  25.65 0.0005822618    1.145    0.127
        58 -10.0572    186.4189    213.0293   6.9984838107e+01   7.9688014005e+00    0.2752887    0.1604343  -6.42  0.001120628    1.947    0.486
        59  -9.1872    128.0404    213.4926   8.1483576443e+01   1.5599230531e+01    0.1655643    0.1515604 -14.87 0.0007254192    1.229    0.186
        60 -14.5520      6.2708    208.7339   1.0835256001e+02   3.0046657493e+01     1.267452     1.036537  55.27  0.008801558    1.080    0.074
        61 -11.3468     84.9806    211.0216   9.0619407165e+01   2.1560820855e+01    0.3068202    0.2013775   2.45            0    2.105    0.525
        62 -10.5555     88.3162    208.3515   8.9593161869e+01   2.1629538195e+01     0.225251    0.1925518  -4.05 0.0009230802    1.367    0.268
        63  -9.2735    131.5806    222.2467   8.1837383828e+01   1.3784442674e+01    0.1407651    0.1050212 -25.46 0.0003748032    1.550    0.355
        64  -9.1151    207.5408    210.2044   6.5874467262e+01   5.6677072527e+00    0.1571454   0.08790096 -17.14 0.0009475591    1.754    0.430
        65  -8.6163    175.3589    209.6968   7.1517227608e+01   9.8435500982e+00    0.1077816   0.08728344  47.66 0.0007038538    1.721    0.419
        66  -9.9519    123.9977    205.9749   8.1377551013e+01   1.7362431027e+01     0.175981     0.144944  24.15    0.0011613    1.022    0.022
        67  -9.9441    241.0021    204.4183   5.9659199993e+01   2.3635977632e+00    0.1979959    0.1146292  -8.99 0.0006641707    1.462    0.316
        68  -9.9257    235.3395    202.3535   6.0176391776e+01   3.2332678465e+00    0.2821589    0.1390761 -13.27  0.001071058    2.032    0.508
        69  -9.0337    148.1775    202.8305   7.5836139298e+01   1.4533540291e+01    0.1656673    0.1221276  10.80 0.0005714549    1.276    0.216
        70  -9.5705    161.1570    199.8813   7.2769265038e+01   1.3170525431e+01    0.3292065    0.1876608  51.74  0.001569912    2.701    0.630
        71  -9.4899    184.0694    198.0137   6.8079085915e+01   1.0266657868e+01    0.1738297    0.1386438   8.27 0.0002968426    1.009    0.009
        72  -9.0517    214.4774    197.5027   6.2682977212e+01   6.3224635860e+00    0.1167313   0.08644837   2.21 0.0002683329    1.038    0.036
        73  -9.7832    190.5052    194.9701   6.6406100791e+01   9.8022082298e+00    0.2842713    0.1516146 -27.74    0.0015815    1.888    0.470
        74  -9.4153    247.5561    194.2990   5.7047538948e+01   2.6924522149e+00    0.1889183   0.08548693 -23.93 0.0009000303    1.881    0.468
        75 -10.3283    247.2172    190.4027   5.6444331153e+01   3.1491578490e+00    0.1822433    0.1416347 -14.74  0.000678859    1.288    0.224
        76  -9.1842    231.0004    195.5107   5.9716851687e+01   4.5081712912e+00    0.1558636   0.09153444  25.71 0.0005516225    1.539    0.350
        77  -9.7701    210.3969    194.2005   6.2812255535e+01   7.2504784102e+00    0.2098187   0.09643384 -29.03  0.001130443    2.080    0.519
        78 -11.5804    124.2903    193.3738   7.9590826835e+01   1.9472295159e+01    0.3588658    0.2845969 -68.00  0.002192001    1.665    0.399
        79 -12.1306    129.4185    189.7947   7.7923370477e+01   1.9357892836e+01    0.3854167    0.2326687  26.62  0.002053533    1.523    0.343
        80 -10.6302    143.1205    192.2766   7.5313244391e+01   1.6939400448e+01    0.2155321    0.1625733 -25.86  0.001311341    1.426    0.299
        81 -10.2092    242.3494    191.1697   5.7280817096e+01   3.6358212432e+00    0.2830478    0.1442104 -12.13  0.001189244    1.896    0.472
        82 -11.8756    146.9931    185.3083   7.3386000000e+01   1.7522689502e+01    0.4389386     0.244851  41.27  0.002257587    1.734    0.423
        83 -12.6925    138.9050    182.4152   7.4671903975e+01   1.9233351891e+01     0.512266    0.3339551  22.07  0.002776102    1.490    0.329
        84  -8.6798    180.3187    185.2280   6.6652507695e+01   1.2600051581e+01    0.1215985   0.08074255   9.48            0    1.499    0.333
        85  -8.8416    202.4893    183.5009   6.2327793201e+01   9.6890884598e+00    0.1213199   0.09597825   1.92 -0.0001579039    1.000    0.000
        86  -9.4062    191.1057    183.0330   6.4268272743e+01   1.1358569124e+01    0.1874985    0.1353642   1.58 0.0004345194    1.261    0.207
        87 -14.9178     42.1382    245.7566   1.0225840903e+02   2.0270071716e+01     3.008661    0.9916139  25.49   0.01472671    2.718    0.632
        88 -13.5376      4.4987    191.9541   1.0825010938e+02   3.3535246259e+01     1.084351    0.5388492 -87.30  0.004885161    1.958    0.489
        89  -9.4881    212.0952    178.7065   5.9844611021e+01   8.9898953955e+00    0.2057534    0.1513624 -13.81  0.001365529    1.156    0.135
        90  -9.1099    201.5971    178.7531   6.1641313046e+01   1.0451994062e+01    0.1537071    0.1058382 -37.27 0.0009338965    1.607    0.378
        91  -9.9357    206.2830    176.5632   6.0438611630e+01   1.0082888260e+01    0.3325427     0.178232  25.78  0.001767019    1.826    0.452
        92 -10.3933    150.9756    179.2990   7.1537979794e+01   1.7923192874e+01    0.1851183     0.154815  18.30 0.0007629655    1.043    0.041
        93 -10.5136     50.6473    175.3661   9.5551885620e+01   3.2799116145e+01    0.2585154    0.1919973  53.60  0.001221001    1.204    0.169
        94  -8.8706    194.0155    174.9987   6.2306212476e+01   1.2067875389e+01    0.1470882    0.1196673  -3.56 0.0009603295    1.040    0.038
        95  -9.2302    193.2428    171.6279   6.1826663520e+01   1.2662946217e+01    0.2180077     0.139654  42.21  0.001232994    1.737    0.424
        96 -12.0073    134.8549    166.0499   7.2805642346e+01   2.2812477740e+01    0.3665938    0.2583871  41.89  0.001521878    1.386    0.278
        97 -11.7350    132.0055    174.4915   7.4919800642e+01   2.1706759750e+01    0.3769741    0.2438476  47.22  0.001960767    1.640    0.390
        98 -11.7779    134.4281    170.7129   7.3722392922e+01   2.2018745778e+01    0.4388543    0.2702652  51.35  0.001228475    1.935    0.483
        99 -10.6830    238.0963    173.6593   5.4856534526e+01   6.1500273376e+00    0.3240409    0.1582375  12.88  0.001599809    2.747    0.636
       100  -8.8918    222.6258    172.8211   5.7068968501e+01   8.2983299710e+00    0.1560883   0.09598669 -34.86 0.0004331049    1.654    0.395
       101 -11.9331     49.7187    159.5132   9.4211168383e+01   3.6497317662e+01    0.5391667    0.2230023  28.29  0.002298225    2.292    0.564
       102 -11.9947     37.8327    163.9124   9.8006692168e+01   3.6758736198e+01    0.4782194     0.302875 -87.79  0.002585961    1.601    0.375
       103 -11.8481     42.5551    157.7188   9.6083743136e+01   3.7709613526e+01    0.3603767    0.3040774  35.26  0.001928794    1.170    0.145
       104 -11.5159     43.5080    171.9117   9.7148491426e+01   3.4346325974e+01     0.344014    0.2505099  77.41   0.00136324    1.356    0.262
       105 -10.8839     39.0494    172.5115   9.8401158211e+01   3.4677727808e+01    0.2942773    0.1775057  30.18  0.001007282    1.543    0.352
       106 -10.3470    245.6846    170.5733   5.3202509209e+01   5.5435363115e+00     0.297947    0.0846443 -26.70  0.001231031    3.451    0.710
       107 -10.9279    144.2558    169.6038   7.1310920984e+01   2.0650973912e+01    0.2327434    0.1558619 -20.05  0.001190129    1.772    0.436
       108 -11.2032    128.2850    169.1887   7.4885642865e+01   2.3277911155e+01    0.3242044    0.2040305 -37.67 0.0009767066    1.745    0.427
       109  -9.8110      5.2651    165.6352   1.0710373475e+02   3.9187370803e+01    0.3958967    0.1857421 -83.55   0.00148467    2.000    0.500
       110 -10.3107      6.7827    169.4700   1.0685791987e+02   3.8210514841e+01    0.3073855    0.2066443 -48.88 0.0007180642    1.863    0.463
       111 -10.7290     10.8774    165.5215   1.0557942173e+02   3.8795979542e+01    0.4322187    0.2808426   6.97  0.001899812    1.930    0.482
       112 -12.9270     59.2239    157.3333   9.1237679617e+01   3.5876601558e+01    0.6298255    0.3872074  48.62  0.002307747    1.532    0.347
       113 -11.6303     55.2001    163.5103   9.3098799341e+01   3.4937845973e+01    0.3192958    0.2410205 -77.27  0.001830918    1.365    0.267
       114 -11.7965     45.7821    165.0320   9.5887634232e+01   3.5660769218e+01    0.5086681    0.2397572  50.09  0.001923721    1.995    0.499
       115 -10.1888    233.6979    166.0983   5.4126925208e+01   7.6326826954e+00    0.1791067    0.1474806  26.17 0.0007303774    1.399    0.285
       116  -9.3407    215.8369    165.7665   5.6848608969e+01   1.0155868022e+01    0.1864277    0.1351872  -2.32 0.0006595671    1.199    0.166
       117 -11.4239    152.0871    163.2677   6.8430830391e+01   2.0496469783e+01     0.377839    0.1736093 -35.17  0.001617899    2.418    0.586
       118 -10.0208    189.9354    162.4592   6.0694685478e+01   1.4510107558e+01    0.2130645    0.1592397 -17.97 0.0002989081    1.224    0.183
       119 -12.8129    123.7812    160.5800   7.4451730877e+01   2.5663535049e+01     0.648154     0.419757  -8.17  0.002884386    2.386    0.581
       120 -10.7457    170.8054    169.1093   6.5625031186e+01   1.6497169244e+01    0.2450111    0.1933001  20.62 0.0003759913    1.142    0.125
       121 -10.0216    226.3872    161.8584   5.4438938722e+01   9.1644154518e+00    0.2387173    0.1518058  30.37 0.0003856456    1.573    0.364
       122 -14.2548     28.3633    246.5139   1.0501759654e+02   2.1433431016e+01     1.069941    0.4945206  47.53  0.006738751    1.570    0.363
       123 -10.3461     11.1338    159.3426   1.0519457544e+02   4.0201588758e+01     0.353246    0.2485611  87.55  0.001810357    1.300    0.231
       124 -10.3855     12.6743    152.0381   1.0434558784e+02   4.1806370894e+01    0.4133891    0.2778209 -76.45  0.001738244    1.427    0.299
       125 -10.1743     12.1502    145.0383   1.0407508570e+02   4.3531729641e+01    0.3108134     0.189346 -81.14  0.001493175    1.518    0.341
       126 -10.1699    207.1811    157.8486   5.6758957274e+01   1.2508895499e+01    0.3004013    0.1501597 -31.71 0.0009726767    1.832    0.454
       127 -10.6737    248.9159    157.0461   5.0260598067e+01   6.6943588060e+00    0.1833639    0.1341931  -7.84 0.0008810393    1.056    0.053
       128 -13.2282     26.3324    235.2805   1.0499548128e+02   2.3492521902e+01    0.4384977    0.3260517  84.61  0.001976161    1.444    0.308
       129 -12.1700    117.3271    153.3345   7.4730629751e+01   2.8185049137e+01    0.5603311    0.2238969 -38.08  0.001957684    3.396    0.706
       130  -9.4442      3.1648    154.5503   1.0721682840e+02   4.1894326030e+01    0.3546152    0.1208337 -50.67  0.001350589    3.980    0.749
       131 -10.7645    138.7336    155.0235   6.9855316010e+01   2.4235774324e+01    0.1933267    0.1756708 -11.59 0.0004766172    1.087    0.080
       132 -12.2858     56.6003    168.2811   9.3233170687e+01   3.3690272099e+01    0.6521549    0.2211154  28.12  0.002536842    2.777    0.640
       133  -9.6980    227.1967    153.5453   5.2713512241e+01   1.0112410700e+01    0.2412929    0.1506749   8.11  0.001385338    1.717    0.418
       134 -11.8296     55.4654    151.2633   9.1579562184e+01   3.7764001831e+01     0.663675    0.3181178   7.23  0.002204451    4.359    0.771
       135 -10.6747     34.4704    152.3445   9.7933484582e+01   3.9821761521e+01    0.4317909    0.1143176  39.59  0.001606417    2.964    0.663
       136 -10.0079    237.4733    152.5088   5.0996580658e+01   8.7838838178e+00    0.1188591   0.09235959 -10.87 6.521092e-05    1.025    0.025
       137 -10.3687    210.1207    150.7950   5.4867538287e+01   1.3040670277e+01    0.2405216    0.1719497  29.94  0.001006051    1.402    0.287
       138 -11.4815    109.8272    151.1779   7.6262316422e+01   2.9876481147e+01    0.2267497    0.2096752  13.34  0.000641632    1.081    0.075
       139 -12.2025     48.6206    148.6358   9.3304154311e+01   3.9201335550e+01    0.5298879    0.3357615 -31.47  0.002506168    2.216    0.549
       140 -11.5814     51.0154    143.4461   9.1932724672e+01   4.0180418126e+01    0.3130161    0.2815875  45.75  0.001873219    1.082    0.076
       141 -11.6899      4.6192    147.0137   1.0644755304e+02   4.3586355294e+01     0.549172      0.38397 -77.04  0.001645634    1.363    0.266
       142  -9.2148    244.2567    148.3455   4.9237454611e+01   8.3522020150e+00    0.1191182   0.07314553  -5.17 0.0002581179    1.591    0.372
       143 -11.7536     72.2178    145.1097   8.5741386491e+01   3.7032817042e+01    0.4268638    0.3629435  11.08  0.002385533    1.327    0.246
       144 -10.6399     34.1552    147.1168   9.7530153617e+01   4.1116654674e+01     0.199068    0.1765123 -53.94  0.001090473    1.261    0.207
       145 -11.7423     28.3715    145.8140   9.9177520397e+01   4.1988593407e+01    0.4335181     0.339609  13.07  0.002526338    1.475    0.322
       146  -9.5464     23.3814    144.2271   1.0057613168e+02   4.2824693227e+01    0.3571279    0.1226811  23.32  0.001419523    2.899    0.655
       147  -9.3822    208.8847    144.3157   5.3749795389e+01   1.4146125658e+01    0.1722168    0.1556153  45.88 0.0005476359    1.456    0.313
       148 -15.0697      8.3966    227.4766   1.0842175607e+02   2.6399283913e+01     2.716664     1.212285   9.61  0.007923264    3.653    0.726
       149 -11.6490     77.1750    139.6304   8.3367738250e+01   3.7614978003e+01    0.5516158    0.1879804  32.47  0.001435681    2.833    0.647
       150 -11.9261     80.2779    136.6312   8.1910529821e+01   3.7859721562e+01    0.4342668    0.2875781  57.85  0.001928834    1.687    0.407
       151 -10.4078     37.1227    142.1411   9.6101609966e+01   4.2037133417e+01    0.3774769    0.1499197  53.13  0.001468062    2.693    0.629
       152  -9.5401    155.6232    141.7709   6.3336342135e+01   2.3717833085e+01    0.1903886    0.1287086 -49.24 0.0006166923    1.661    0.398
       153 -12.4767     90.9470    137.0858   7.8835130738e+01   3.6080035877e+01    0.5148534    0.3220707  59.06  0.001817503    1.955    0.488
       154 -10.3331    249.5990    139.7493   4.6840113526e+01   8.6465674094e+00    0.1662229   0.08762015 -33.93 0.0009540448    1.653    0.395
       155 -10.5927     28.6498    138.8855   9.8444920746e+01   4.3671819804e+01    0.3142976    0.1355693 -61.86   0.00137088    2.199    0.545
       156 -13.0210     93.5946    144.0753   7.9372873741e+01   3.4063284378e+01    0.7408584    0.3908973  25.22  0.003067817    2.186    0.543
       157  -9.4536    142.9990    138.4653   6.5463071185e+01   2.6632454816e+01     0.218953    0.1351537  39.09  0.001028228    1.583    0.368
       158  -9.0656    213.0000    136.9621   5.1546818283e+01   1.4519913259e+01     0.206755   0.06353225 -33.53 0.0004471407    2.888    0.654
       159 -14.7547      5.8541    247.3293   1.0940228019e+02   2.3224701791e+01     0.853148    0.4788623  49.06  0.004611748    1.252    0.201
       160 -10.8962      5.3572    135.3582   1.0560301790e+02   4.6380841008e+01    0.4522274    0.1705647 -63.05  0.001955414    2.506    0.601
       161 -10.0795     64.7229    134.3459   8.6320989413e+01   4.0659840151e+01    0.6848163    0.1734235  40.20  0.002181381    3.473    0.712
       162 -14.8161     13.0775    240.8823   1.0784393092e+02   2.3695973000e+01    0.8655737    0.3716801  61.59   0.00244757    1.986    0.497
       163  -9.3467     40.2495    134.3430   9.4202023315e+01   4.3649955085e+01    0.1838261    0.1600584 -77.30 0.0005814624    1.116    0.104
       164  -9.5040    172.4500    131.0049   5.7449487226e+01   2.2518143713e+01    0.2071074    0.1284152 -35.11 0.0003713379    1.543    0.352
       165 -10.0014    120.2239    130.5227   6.9344833552e+01   3.2439405427e+01     0.329821    0.2014154  58.70 0.0008686041    2.186    0.542
       166 -12.7553     96.8118    130.3487   7.5790788515e+01   3.6652821896e+01    0.7535335    0.4516352  30.61  0.003350343    1.737    0.424
       167  -9.9645    244.6506    129.9676   4.5523608605e+01   1.0540182845e+01    0.1723643    0.1227053 -23.26 0.0005707653    1.124    0.110
       168 -11.4474     32.3081    128.4123   9.6129155280e+01   4.5962130485e+01    0.4007929    0.2488333 -34.58  0.001178303    2.089    0.521
       169 -10.8142    128.5758    128.0966   6.6645924962e+01   3.1381051909e+01    0.3121467    0.1911626  24.93  0.001337743    1.972    0.493
       170  -9.9078     21.4738    127.0171   9.9658364942e+01   4.7294650038e+01    0.2696011    0.1995239  -1.12 0.0008614539    1.691    0.409
       171  -8.7947     75.5383    250.4422   9.5888512016e+01   1.6129349155e+01    0.1086051   0.08150281  34.26 4.747829e-05    1.041    0.039
       172  -9.8996      2.2912    132.0101   1.0639886689e+02   4.7402813769e+01    0.1800189    0.1469538  82.21   0.00060948    1.058    0.055
       173  -9.6321     11.0965    126.5653   1.0314098116e+02   4.8200312646e+01    0.2596852    0.1745055 -54.18  0.001191307    1.569    0.363
       174 -10.4050     93.2030    122.7274   7.5240408278e+01   3.9031128083e+01    0.3482971     0.208487 -53.25 0.0009638289    1.684    0.406
       175 -10.1651    249.9717    122.2260   4.3261876974e+01   1.0703564912e+01    0.2248311    0.1253992 -17.17  0.001269666    1.627    0.385
       176  -8.8450    109.6557    123.7241   7.0676879672e+01   3.5859870682e+01    0.1493299    0.1163896  -1.22 0.0005141656    1.625    0.385
       177 -10.6289    138.1168    121.8017   6.2809546365e+01   3.0804670402e+01    0.2213623    0.2084661  87.20 0.0007738492    1.237    0.192
       178  -8.9470    229.2458    121.4225   4.5802682225e+01   1.4002666507e+01    0.1448982    0.1237594  60.04 0.0009433929    1.623    0.384
       179  -9.7024     18.9209    121.2680   9.9983282251e+01   4.8974343453e+01    0.1791179    0.1660687  72.94 0.0003228001    1.062    0.059
       180  -9.8943    105.9416    120.1256   7.0898817446e+01   3.7345190696e+01    0.2222217    0.2003879  74.23 0.0004348315    1.223    0.182
       181  -9.8429     65.5038    120.4918   8.3634159023e+01   4.3976769954e+01    0.1436894    0.1386213  83.88 -0.0001187589    1.010    0.010
       182 -10.0930     52.3730    117.7371   8.7648337953e+01   4.6449598107e+01    0.2086338    0.1233625 -56.88 0.0007589041    1.633    0.388
       183  -8.9879     39.3195    117.2861   9.2218140319e+01   4.8100151116e+01    0.1399281    0.1033527 -35.20 0.0002933247    1.593    0.372
       184  -9.3011     10.0295    117.0121   1.0275915553e+02   5.0715552939e+01    0.1581711    0.1410319  79.49 0.0004488166    1.028    0.028
       185 -10.7828     28.1344    115.1465   9.5984922288e+01   4.9774097487e+01    0.3877375    0.2025857 -50.29  0.001083322    1.986    0.497
       186 -10.6799     32.9529    112.7696   9.3887645439e+01   4.9933102985e+01    0.2874019    0.2044193  -8.49  0.001123775    1.834    0.455
       187 -10.0275     71.8181    250.5103   9.6628761799e+01   1.6514990934e+01    0.2074185   0.09743106  30.64  0.000287366    1.605    0.377
       188  -9.4278     77.5539    114.5015   7.8388518421e+01   4.3616786795e+01     0.147404    0.1413789  81.89 2.738045e-05    1.033    0.032
       189 -10.3814     38.1477    113.3322   9.2050091821e+01   4.9251005937e+01    0.2507845    0.1811631 -58.77 0.0008170491    1.338    0.253
       190  -9.3860    210.7733    113.3751   4.6690377559e+01   1.8245523006e+01     0.166311    0.1169498  33.10 0.0003577685    1.547    0.353
       191 -10.2686     68.7230    112.4066   8.0920252857e+01   4.5518161688e+01    0.2651071    0.1356369  37.41 0.0002408845    1.921    0.479
       192 -10.7114     55.5464    111.0969   8.5306638496e+01   4.7732174263e+01    0.3692327    0.2312146  61.68  0.001639172    1.891    0.471
       193  -9.7887    177.0084    111.4930   5.1942114925e+01   2.4917240570e+01    0.1969318    0.1382754  45.28 0.0003974932    1.506    0.336
       194 -10.3236     79.5480    110.1685   7.6751957218e+01   4.4343748970e+01    0.3540787     0.245138 -57.24  0.001669958    1.435    0.303
       195  -9.8214      7.7322    111.0499   1.0310413951e+02   5.2403445326e+01    0.2013219    0.1823196  50.99 0.0003930729    1.146    0.128
       196  -9.1526    183.4875    247.4670   7.5215924208e+01   4.2058944439e+00    0.1088904   0.07546522  12.53 0.0004496231    1.071    0.067
       197  -9.4390    128.5027    243.4884   8.4850246446e+01   1.1109883167e+01    0.1265838    0.1118283 -79.60 9.098777e-05    1.689    0.408
       198  -9.3189     88.5272    110.0088   7.3778960151e+01   4.2837014724e+01    0.2244269    0.1455792 -51.32 0.0003839626    1.530    0.346
       199  -9.2528    180.4721    109.4841   5.0804374016e+01   2.4559602111e+01    0.1401892    0.1271411 -17.65 -1.25214e-05    1.011    0.011
       200  -9.4495    147.4720    108.9473   5.7397597749e+01   3.1394391291e+01    0.2157788    0.1413375 -38.81 -4.769363e-05    1.487    0.328
       201 -10.4500    116.0439    108.9223   6.5286901929e+01   3.7858819290e+01    0.2273211    0.2183317  17.53 0.0004717878    1.044    0.042
       202 -10.3370     72.8151    108.4610   7.8645121442e+01   4.5860392134e+01     0.371803     0.215275 -80.86   0.00140227    2.615    0.618
       203 -10.3777    105.0473    107.9551   6.8179170797e+01   4.0239493929e+01    0.2165903     0.213772   5.32  0.001192194    1.015    0.015
       204 -11.2427      9.5276    104.4544   1.0182992038e+02   5.4010350312e+01    0.3233273    0.3044523 -68.41 -0.0001193255    1.120    0.107
       205 -10.3844    112.9311    104.0207   6.4864497904e+01   3.9541865132e+01     0.248137    0.1897558  -0.03  0.001130952    1.735    0.424
       206  -8.6186    250.7253    102.7233   3.9078835616e+01   1.2948124522e+01    0.1130877    0.0793301  -1.54            0    1.493    0.330
       207  -9.1864    185.3183    102.3461   4.8158642396e+01   2.4735514186e+01     0.145553    0.1039247   5.48 0.0007048852    1.726    0.421
       208  -8.8978     90.5116    102.4999   7.1259136650e+01   4.4244924291e+01    0.1498733    0.1475163 -84.95 2.445033e-05    1.018    0.018
       209  -9.4658    233.0132    100.5904   4.0709288083e+01   1.6098950116e+01    0.2365937    0.1371932 -38.93 0.0006815292    1.550    0.355
       210  -9.8878     92.8371     99.8342   6.9804333397e+01   4.4429773484e+01    0.2035479     0.177333  83.24 -0.000430966    1.304    0.233
       211  -9.8463     23.2286     99.5912   9.5786495573e+01   5.4285989009e+01    0.3105845    0.1251498  69.54 0.0009661236    4.164    0.760
       212 -10.6817    195.8464     97.3201   4.5153316838e+01   2.3405054260e+01     0.320884    0.2212242 -65.48  0.001232364    2.144    0.534
       213 -10.0036    219.7894    244.7686   6.8878525926e+01   5.4797002558e-01    0.2000627    0.1718778 -31.98  0.001111106    2.032    0.508
       214 -10.1691    173.7794     94.6485   4.8219541215e+01   2.8357448507e+01    0.2455883    0.1919527  64.75 0.0005456115    1.517    0.341
       215  -9.2708     87.6003     93.8081   6.9871964075e+01   4.6817355736e+01    0.2114461    0.1447224 -63.27 0.0004634451    1.626    0.385
       216 -10.6586     93.3361     91.6828   6.7369135576e+01   4.6202875571e+01    0.2579695    0.2300916 -64.26  0.001175043    1.161    0.139
       217  -9.7038     49.6166     91.8509   8.3531870322e+01   5.3462485966e+01    0.2433706    0.2030337  10.89 0.0006929737    1.364    0.267
       218  -8.9187     82.5244     89.5069   7.0390346271e+01   4.8771511921e+01    0.1508543    0.1475421 -68.60 1.353394e-05    1.018    0.018
       219  -9.1809     56.3103     89.6660   8.0302331996e+01   5.3090189892e+01    0.1536651    0.1123768  72.62 0.0007043403    1.677    0.404
       220  -9.6318    108.6623     86.3362   6.1019253438e+01   4.4218396501e+01    0.1596156    0.1237179 -86.85 0.0007051551    1.751    0.429
       221  -9.9088    152.4858     85.0582   4.9710540352e+01   3.4655613571e+01    0.2268485    0.1416092 -35.64 0.0003467466    1.533    0.348
       222  -9.6586     16.9278     84.7605   9.6288536690e+01   5.8701941553e+01    0.1796848    0.1787479  29.61  0.001127861    1.126    0.112
       223 -10.2480     17.0029     79.4642   9.5397649186e+01   6.0093775418e+01    0.2721266    0.1768066  84.35  0.001003934    1.623    0.384
       224  -9.9212     46.8763     79.1551   8.1557772472e+01   5.7070298601e+01    0.2071299     0.167991 -29.40 0.0007185957    1.346    0.257
       225  -9.6746     54.0021     78.4776   7.8274319077e+01   5.6236417258e+01    0.2058167    0.1158515  55.78 0.0003881234    2.344    0.573
       226 -10.1330     11.8368     77.9165   9.7607705928e+01   6.0856483940e+01    0.2261308      0.19232  53.92 0.0003478506    1.247    0.198
       227  -9.4061     42.7764     75.0445   8.2302718315e+01   5.8648924002e+01    0.2012461    0.1137408 -62.06  0.000477871    1.674    0.403
       228  -9.5455    178.3866     72.8411   4.1424425120e+01   3.0769491433e+01    0.1948163    0.1297682 -19.11 0.0002604759    1.594    0.373
       229 -10.5117    147.5662     71.6086   4.6669799815e+01   3.8098496271e+01    0.3688206    0.3296013  26.96  0.001971783    1.200    0.167
       230  -8.8265     95.6813     71.2530   6.0107816326e+01   5.0187068860e+01    0.1488354    0.1217158  85.06 0.0001363621    1.533    0.348
       231  -9.2196     60.5734     70.4704   7.3014409562e+01   5.7155154517e+01    0.1479511    0.1407191 -48.34  3.63985e-05    1.010    0.010
       232  -9.6658     33.7976     70.6257   8.5387638204e+01   6.0849208281e+01    0.2004486    0.1244334  39.28 0.0003932153    1.715    0.417
       233 -10.1170     16.6257     66.7472   9.3206710845e+01   6.3451418281e+01    0.2014721    0.1218119 -82.95 0.0009542741    1.690    0.408
       234  -9.5191     48.8515     64.3225   7.6246662435e+01   6.0468168623e+01     0.206903     0.136953  19.28  0.000944333    1.779    0.438
       235  -8.8522    234.7311     60.0039   3.1084759963e+01   2.0816597974e+01    0.1540637   0.09090594 -29.29  0.000250789    1.382    0.276
       236  -8.9585    103.4668     58.4002   5.3007335146e+01   5.0964716426e+01    0.3658237    0.1073869 -50.05 0.0008062649    6.315    0.842
       237  -8.6128     75.9666     58.0000   6.2200883251e+01   5.7104349383e+01    0.2365638   0.08608885  44.09 0.0004363436    2.805    0.644
       238  -9.4949    201.0023     55.5097   3.3486986431e+01   2.8159103821e+01     0.184349    0.1339264  64.84 0.0004791601    1.540    0.350
       239 -10.3805     35.8978     53.8189   7.9216641131e+01   6.4778980483e+01     0.249991    0.2085094 -74.40 0.0007962263    1.295    0.228
       240 -10.0076    156.3624     53.1452   3.9109753360e+01   3.8852843357e+01    0.2197102    0.1210056 -40.77 0.0005375085    1.715    0.417
       241 -10.1567     43.8210     49.8299   7.3488079922e+01   6.4620351998e+01    0.1957215    0.1736198  76.54   0.00107441    1.353    0.261
       242  -9.0448     21.2710     50.2143   8.6386932726e+01   6.7268873243e+01    0.2289592    0.1163545 -79.41 0.0009117485    2.557    0.609
       243  -9.3664     88.7732     48.7779   5.3794354226e+01   5.6141613677e+01    0.2041019    0.1764582 -71.85 0.0003487882    1.339    0.253
       244  -9.2758    165.0285     46.7169   3.5664548671e+01   3.7619452955e+01    0.1893525    0.1828308 -80.56 0.0002668984    1.059    0.056
       245  -9.1604      8.5436     43.5066   9.2481351453e+01   6.9922499229e+01    0.1331851    0.1171614 -57.46 9.767302e-05    1.024    0.023
       246  -9.0836     90.9833     39.2345   4.8920838893e+01   5.7276457466e+01    0.1959009    0.1240109  54.54 0.0004477945    1.579    0.367
       247  -9.4478     11.1552     36.7397   8.8638198669e+01   7.1402398686e+01    0.2953501    0.1232132 -61.22  0.001110669    2.021    0.505
       248  -9.6700    158.3422     36.9613   3.3476702168e+01   4.0535567898e+01    0.2010066    0.1772327 -29.85 0.0004205944    1.118    0.106
       249  -8.6998    167.4441     36.4746   3.2065529051e+01   3.8329506943e+01    0.1426307    0.1286602 -52.58 7.264921e-05    1.039    0.037
       250  -9.4948    216.9932     34.4844   2.6334163948e+01   2.7215635126e+01    0.1707951   0.09185019  42.98 0.0008093651    2.490    0.598
       251  -8.8720     35.6041     31.5118   6.9892252813e+01   6.9844510578e+01    0.1375871    0.1249376 -29.64 6.106075e-05    1.031    0.030
       252  -9.2649      7.8433     26.8189   8.7512992782e+01   7.3992188410e+01    0.1643547    0.1484633  89.15 0.0003990957    1.288    0.224
       253  -9.3039    142.0164     25.2723   3.1790140175e+01   4.6111992497e+01    0.2075511    0.1858934  77.90   0.00115619    1.102    0.093
       254  -9.5785     67.8853     24.8938   4.9949042700e+01   6.4904415833e+01    0.2207072    0.1749771 -68.57  0.001109349    1.658    0.397
       255 -10.3776    153.3565    243.4086   8.0122579608e+01   8.1696822441e+00    0.3056368    0.1962303   6.35  0.001822102    1.557    0.358
       256  -9.7974     77.0425     20.7147   4.4325470841e+01   6.3379889067e+01    0.2640959    0.1891596  -5.29  0.001280579    1.609    0.379
       257  -8.9900     35.6138     19.5861   6.3083771766e+01   7.2163949514e+01    0.2804287    0.1086119 -31.28 0.0009412493    3.553    0.719
       258 -10.0702     14.8925     18.1317   7.7496293014e+01   7.5300687019e+01    0.2095708    0.1699161 -48.36 0.0003042537    1.174    0.148
       259  -9.5521     88.4458     15.5130   3.8156630208e+01   6.1207315538e+01    0.1429621    0.1352046  37.17 0.0001394761    1.022    0.021
       260  -9.0688    229.3318    249.7082   6.8064203855e+01  -8.9352123671e-01   0.08451004   0.06695638  21.24 0.0005245506    1.631    0.387
       261  -9.7985    142.0981    248.4326   8.2788155082e+01   8.8535239623e+00    0.2221666    0.1437319  -2.88  0.001338261    1.804    0.446
       262  -9.5799    177.1950    247.5183   7.6315384433e+01   4.9102744576e+00    0.1984711     0.153333 -62.17  0.001373698    2.733    0.634
       263 -11.2473    157.7637    246.3966   7.9658844232e+01   7.2800541808e+00    0.3618077    0.1956611  -7.73  0.001969437    2.780    0.640
