#   1 NUMBER                 Running object number                                     
#   2 MAG_AUTO               Kron-like elliptical aperture magnitude                    [mag]
#   3 X_IMAGE                Object position along x                                    [pixel]
#   4 Y_IMAGE                Object position along y                                    [pixel]
#   5 X_WORLD                Barycenter position along world x axis                     [deg]
#   6 Y_WORLD                Barycenter position along world y axis                     [deg]
#   7 A_WORLD                Profile RMS along major axis (world units)                 [deg]
#   8 B_WORLD                Profile RMS along minor axis (world units)                 [deg]
#   9 THETA_WORLD            Position angle (CCW/world-x)                               [deg]
#  10 FWHM_WORLD             FWHM assuming a gaussian core                              [deg]
#  11 ELONGATION             A_IMAGE/B_IMAGE                                           
#  12 ELLIPTICITY            1 - B_IMAGE/A_IMAGE                                       
         1 -14.1929    194.5894     33.7891   1.9373122633e+00   3.2508065267e+01    0.9630399    0.8463956 -74.69   0.00373708    1.105    0.095
         2 -12.4687    189.2748     14.1117   3.5703571285e+02   3.5948028731e+01    0.4712736    0.1867047 -51.70  0.002049605    2.270    0.560
         3 -11.0242    192.5597    194.5551   3.9288919923e+01   7.4833551161e+00    0.7249994    0.3885013 -59.82  0.002407427    6.714    0.851
         4 -19.7937     55.3619    162.2588   6.6745740241e+01   3.4288020261e+01     16.74509     6.159451 -72.55   0.06150885    2.942    0.660
         5  -9.9417    181.6601    198.9036   4.2052538523e+01   8.3218702903e+00    0.1641111    0.1396695 -20.37 0.0004993879    1.176    0.150
         6 -10.6796    162.9935    198.1708   4.5602825528e+01   1.1072223044e+01    0.1996245    0.1689423 -24.13 0.0002990155    1.188    0.158
         7 -11.9449    151.4074    197.6403   4.7915459047e+01   1.2837863646e+01    0.2803082    0.2199727 -60.89 0.0009250976    1.683    0.406
         8 -11.1787    155.7528    197.6247   4.7003095636e+01   1.2209038579e+01    0.2607289    0.1963602  81.60   0.00133796    2.576    0.612
         9 -11.7217     15.4000    195.7871   8.0119501456e+01   3.0555991156e+01    0.1775814    0.1639282  83.48  0.001248304    1.208    0.172
        10 -10.3609    249.2285    191.9916   2.9586319029e+01   7.1095523513e-01    0.1464806   0.07281229 -30.31 0.0006813849    1.650    0.394
        11  -9.4585    205.5313    178.0635   3.4058028564e+01   8.1598346855e+00    0.1769307    0.1081028 -34.10 0.0004850233    1.499    0.333
        12 -13.0809    230.5881    166.6060   2.7837368195e+01   6.3524835124e+00    0.4677055    0.3224017  -4.22  0.002937918    1.402    0.287
        13 -12.4875    241.2329    164.8846   2.5932681364e+01   5.1758127798e+00    0.2661924    0.2066209 -47.48  0.001218253    1.737    0.424
        14 -10.7145    153.9144    233.9759   5.2602405664e+01   6.6786625891e+00    0.1733913    0.1419382  16.58 0.0003204266    1.037    0.035
        15 -12.2788    143.6898    146.1821   4.0209956291e+01   2.3938345533e+01    0.7201792    0.3439854 -60.07  0.002490381    3.335    0.700
        16 -12.0847     12.0916    150.0547   7.8376335708e+01   4.1764825413e+01      0.25415    0.2274033 -62.00 0.0004355008    1.244    0.196
        17 -11.2889    165.7034    227.2100   4.9411294479e+01   6.1814785768e+00    0.1945212    0.1739792  51.16 0.0009266704    1.567    0.362
        18 -11.1297    152.0114    241.0993   5.3871410680e+01   5.8833742636e+00    0.2213017    0.1703237 -38.18 0.0004778949    1.526    0.345
        19  -9.8155      7.5026    141.5316   7.9203151634e+01   4.4291222234e+01    0.2657997    0.1979735 -19.16  0.001024078    1.766    0.434
        20 -10.8588      3.8568    139.1537   8.0193189519e+01   4.5153758425e+01    0.4349563    0.2869472 -20.29   0.00227713    2.070    0.517
        21  -9.9703     13.4600    137.7642   7.7032130331e+01   4.4830928185e+01    0.1933987    0.1684183 -51.43 0.0005803792    1.287    0.223
        22 -10.4972    160.1809    128.4869   3.2572709979e+01   2.4392120646e+01     0.306105    0.2512746 -43.00   0.00163329    1.177    0.150
        23  99.0000     10.9729    225.0883   8.2327677185e+01   2.4829712033e+01    0.4714864    0.2358886  64.88  0.002764641    1.707    0.414
        24 -11.3710      2.6030    126.2876   7.9753289124e+01   4.8586465236e+01    0.3873059    0.2384416  65.23  0.002018209    1.521    0.342
        25 -11.8479      6.6445    120.2445   7.7888704271e+01   4.9933791637e+01    0.3493112    0.2893608 -37.11  0.001412453    1.396    0.283
        26 -10.8270    180.5116    121.6141   2.6885455604e+01   2.1755173069e+01    0.3484641    0.2215344 -62.39  0.001413979    2.306    0.566
        27 -11.8844    106.5301    119.4541   4.3817116745e+01   3.6874428314e+01    0.3397673     0.277112 -45.59 0.0009458523    1.219    0.180
        28 -11.9749     99.7015    113.4342   4.4367423713e+01   3.9606980542e+01    0.6779677     0.331246  59.76  0.001887474    3.544    0.718
        29 -11.1004    250.0233    237.9636   3.6691725925e+01  -4.5584361429e+00    0.1988141    0.1076188 -24.60 0.0009528024    1.552    0.356
        30 -10.5594    173.0353    116.3144   2.7046861738e+01   2.4180720598e+01    0.2555225    0.1939596 -46.29  0.000433982    1.277    0.217
        31 -11.4903    112.8339    115.3089   4.1003204374e+01   3.6619766200e+01     0.285087     0.254728 -83.52 0.0006393114    1.218    0.179
        32 -10.9285    132.8918     98.1953   3.1121802728e+01   3.6199526719e+01    0.4182715    0.2723049 -67.17  0.001700899    2.106    0.525
        33 -11.4061    134.8445    112.1866   3.4395203480e+01   3.2833901179e+01    0.6013614    0.1590053 -43.88  0.001714737    3.673    0.728
        34 -11.6245    134.4017    105.8017   3.2828334885e+01   3.4280055790e+01    0.5156737    0.2985769 -51.13  0.002143921    1.767    0.434
        35 -13.4953    119.8851    109.4288   3.7548532679e+01   3.6534503021e+01    0.9080133     0.594362 -48.57  0.003034761    1.494    0.331
        36 -11.9921    111.5703    104.9187   3.8664275121e+01   3.9260287500e+01     0.377526     0.323818 -62.20  0.001214636    1.190    0.159
        37 -11.3800     14.5983    110.0519   7.3949671547e+01   5.2120460415e+01    0.5469333    0.2380365   4.09  0.001553838    3.321    0.699
        38 -10.8483      2.6642    112.6947   7.8699656321e+01   5.2181057678e+01    0.2552183     0.232055 -81.09 0.0008948849    1.085    0.078
        39 -11.1625      6.2307    111.6207   7.7279003550e+01   5.2259041241e+01    0.2994327    0.2586051 -80.41 0.0009422072    1.040    0.039
        40  -9.6993    167.3334    112.6459   2.7270634812e+01   2.6011804150e+01    0.1507723    0.1134934 -72.29 0.0007044868    1.789    0.441
        41 -10.8615     92.1479    110.9037   4.6075643286e+01   4.1633769308e+01    0.2498539    0.2199505  48.04 0.0003053661    1.156    0.135
        42 -10.6294    147.5402     99.7333   2.8100049426e+01   3.2687377680e+01    0.4718564    0.2337523  59.41  0.001739516    2.602    0.616
        43  -9.2949    193.5806     99.4684   1.9264860515e+01   2.3038982239e+01    0.1404572     0.121786 -39.63 0.0002275152    1.037    0.036
        44 -11.2729    161.2456    217.3645   4.8886947977e+01   8.2357714880e+00    0.2513828    0.1908814  17.19  0.001635211    1.118    0.106
        45 -10.7863      5.4159    209.7124   8.3017775546e+01   2.8415986026e+01    0.1479187   0.09048595 -63.51  0.000880826    1.918    0.479
        46 -10.8639    165.6450     94.3594   2.2878375109e+01   2.9761565635e+01    0.4133906    0.2559902 -70.74  0.001615803    2.668    0.625
        47 -10.2176    140.0809     93.0819   2.7952823736e+01   3.5654101135e+01    0.2234748    0.2127002 -59.61 0.0002939749    1.036    0.035
        48  -9.6807    108.4617     94.2938   3.6594580137e+01   4.2310758941e+01    0.2788897    0.1491503 -42.44 0.0007658729    1.868    0.465
        49 -10.3853    150.7373     87.2496   2.3922732469e+01   3.4387303450e+01    0.2549114    0.2200813  51.57 0.0008966463    1.222    0.182
        50 -10.0248    187.9384    209.2616   4.2549131997e+01   5.9285979446e+00    0.1673515    0.1303817   6.26 0.0004705891    1.065    0.061
        51 -11.9405     75.9297     78.1466   4.2413105224e+01   5.2558603306e+01    0.5025208    0.2504578  49.83  0.001338418    2.283    0.562
        52 -13.3402    161.4099     70.9981   1.7113801459e+01   3.4824481085e+01     1.038948    0.6642518  42.94 0.0009019499    1.813    0.448
        53 -14.0142    174.8261     58.5646   1.1294460607e+01   3.3675798335e+01     1.137801     1.023905  18.38  0.004043953    1.345    0.256
        54 -12.6609    181.2829     51.6049   8.4035066538e+00   3.3197186110e+01    0.4979969    0.4523088 -56.63 0.0009072212    1.029    0.028
        55 -12.1566     11.4616    206.2458   8.1513643281e+01   2.8632888621e+01    0.3308629    0.2078616  28.35  0.001961073    1.542    0.352
        56 -10.4269    108.2111     70.7583   2.9254886265e+01   4.7389104861e+01    0.3488551    0.2349293  73.55  0.001046401    2.012    0.503
        57 -11.2299    153.0485     66.1449   1.7205444453e+01   3.7610745807e+01    0.4090122    0.2080047 -50.40  0.001627642    2.070    0.517
        58 -11.5026     96.5074     65.4028   3.0913386983e+01   5.1105371658e+01     0.603982    0.2959925  59.02  0.001885058    2.591    0.614
        59 -10.4765     13.1036     59.9679   6.6329569418e+01   6.5472641118e+01    0.2098222    0.1820162 -56.83 0.0005112704    1.011    0.011
        60 -10.8341     16.1915    202.6067   8.0253857812e+01   2.8995182442e+01    0.1305938    0.1283427 -52.90 0.0005160247    1.332    0.249
        61 -10.4912    236.6678    249.2983   4.0298438284e+01  -4.4545185424e+00     0.172633    0.1032021  29.89   0.00126732    1.756    0.430
        62 -10.2455    221.3152     18.6685   3.5594638883e+02   2.8490179938e+01    0.1358218   0.06886705 -54.84 0.0005475029    1.683    0.406
        63 -10.6584    236.3770    244.8885   3.9728005975e+01  -3.9692521145e+00    0.1573762    0.1114187  13.22 0.0005443307    1.234    0.189
