#   1 NUMBER                 Running object number                                     
#   2 MAG_AUTO               Kron-like elliptical aperture magnitude                    [mag]
#   3 X_IMAGE                Object position along x                                    [pixel]
#   4 Y_IMAGE                Object position along y                                    [pixel]
#   5 X_WORLD                Barycenter position along world x axis                     [deg]
#   6 Y_WORLD                Barycenter position along world y axis                     [deg]
#   7 A_WORLD                Profile RMS along major axis (world units)                 [deg]
#   8 B_WORLD                Profile RMS along minor axis (world units)                 [deg]
#   9 THETA_WORLD            Position angle (CCW/world-x)                               [deg]
#  10 FWHM_WORLD             FWHM assuming a gaussian core                              [deg]
#  11 ELONGATION             A_IMAGE/B_IMAGE                                           
#  12 ELLIPTICITY            1 - B_IMAGE/A_IMAGE                                       
         1 -12.4906    208.8251      2.1744   6.1249398717e+01   3.2552483370e+01     1.929388    0.6591498  67.93   0.00718494    2.559    0.609
         2 -13.3046    186.6559     24.9525   7.0164986233e+01   3.5777809925e+01     1.681216      1.35142 -13.99   0.00621605    1.427    0.299
         3 -13.1111    193.7622     18.3810   6.7323643923e+01   3.4692347949e+01     1.587637    0.9897185 -41.70  0.005973817    1.568    0.362
         4 -12.1951    199.9906     10.8156   6.4467602132e+01   3.3911343023e+01    0.6766955    0.6369528  42.79   0.00168127    1.217    0.178
         5 -10.9701     33.0083     24.9440   1.1192958820e+02   6.8061399728e+01    0.5676978    0.1160192 -46.32  0.001987065    4.163    0.760
         6  -9.5155     90.0615    245.4861   1.3770238641e+02   1.4424347082e+01     0.172075   0.08655986  46.54 0.0006402764    1.552    0.356
         7  -9.3569    248.5858    249.9565   1.1118918730e+02  -1.0234556435e+01    0.2516245   0.09855474  27.94  0.001281344    2.451    0.592
         8 -10.8510    140.0619    249.1172   1.2938283684e+02   6.3647141844e+00    0.3088911    0.2385167 -85.34  0.002151164    1.632    0.387
         9  -9.4490    125.4775    250.3423   1.3204621368e+02   8.4348122488e+00    0.2084702   0.08479657  43.09  0.000845823    1.914    0.478
        10 -10.8045    109.9512    248.0808   1.3450805892e+02   1.1120063311e+01     0.340211    0.2558482  53.41  0.002363129    1.049    0.047
        11 -11.0910    104.8028    244.6762   1.3507794286e+02   1.2422454719e+01    0.3538803      0.24683 -86.52 0.0006548429    1.589    0.371
        12 -11.9828    100.1900    244.8108   1.3589300298e+02   1.3078187833e+01    0.5495251    0.4551767 -89.10  0.002956006    1.299    0.230
        13 -11.3374     61.4346    248.9309   1.4277654040e+02   1.7708296670e+01    0.6333595    0.2255559  47.93  0.003511676    2.040    0.510
        14 -11.4263     71.2617    242.2479   1.4065531051e+02   1.7548739234e+01    0.6298453    0.2758942 -57.08  0.003471153    2.941    0.660
        15 -13.3196     51.3933    228.2772   1.4304808175e+02   2.2558230754e+01      1.55523    0.5614992 -72.07  0.003229279    2.719    0.632
        16 -14.7952     59.1716    213.0743   1.4047320178e+02   2.4421450732e+01     7.093657     1.189251  47.40   0.02620626    4.100    0.756
        17 -10.2649     66.2765    232.4604   1.4076061203e+02   1.9907641237e+01     0.338666     0.215306 -41.32  0.001866606    3.309    0.698
        18  -9.8536     30.2895    233.8947   1.4697247723e+02   2.4019579322e+01    0.2758498    0.1855402  29.46  0.001892269    2.212    0.548
        19  -9.0321    228.9355    205.8722   1.0725183610e+02  -2.2608841804e+00    0.1926554     0.175563 -28.08 0.0006218296    1.343    0.256
        20  -9.7161    192.0710    192.7664   1.1159457891e+02   6.1221827999e+00    0.5988123    0.2823675 -59.21  0.001931102    5.375    0.814
        21  -9.8406     67.1962    196.2371   1.3736123872e+02   2.6703538813e+01    0.3435256    0.1690157  61.87  0.001739503    1.981    0.495
        22 -11.0710     73.6599    192.8373   1.3569023957e+02   2.6511644985e+01    0.3754042    0.2516977 -49.93   0.00169973    1.943    0.485
        23 -11.0376     78.0817    186.0952   1.3400160415e+02   2.7287608470e+01     0.287397    0.2236428 -57.38 0.0007486175    1.487    0.328
        24  -7.9668    181.5164    192.4674   1.1356954361e+02   8.1302443935e+00    0.1348997     0.118665  29.50 1.592252e-05    1.056    0.053
        25  -8.6543     92.6457    177.8552   1.2980356157e+02   2.6844259542e+01    0.3887828    0.1740543  65.68  0.001377396    3.669    0.727
        26  -9.8695    126.3275    174.1142   1.2181475852e+02   2.1907803556e+01    0.2851277    0.2800716  69.42  0.001762226    1.149    0.129
        27 -11.0688    109.8742    173.4599   1.2534429975e+02   2.4953213693e+01     1.907266    0.2282126  46.19  0.004217678    7.951    0.874
        28 -11.8203     58.1048    131.0642   1.3112468983e+02   4.2417084342e+01     1.942741    0.6255203 -75.11  0.004807744    7.064    0.858
        29 -11.5557     92.0754    166.2030   1.2824722047e+02   2.9467728323e+01    0.7492862    0.5205007  45.64  0.001613301    1.413    0.292
        30 -12.5154     68.0477    144.9104   1.3074979734e+02   3.7873488824e+01     1.551667    0.7670029  82.72  0.005568874    3.696    0.729
        31 -10.4871     86.1245    174.4099   1.3076899670e+02   2.8594942948e+01    0.2395889    0.2124473  86.94 0.0003562742    1.086    0.079
        32 -12.5404     73.9088    171.7898   1.3314173514e+02   3.0964087564e+01    0.4350786    0.2650982 -46.61  0.001473011    2.132    0.531
        33 -13.1496     10.5668    206.6997   1.4885250301e+02   3.1111524840e+01     1.012941    0.5530241  28.72   0.00467595    2.554    0.609
        34 -15.4130      1.8266     72.1547   1.3832407479e+02   6.0932098298e+01     13.40882    0.6952386 -69.02   0.02918771   10.753    0.907
        35  -9.6400    134.0462    145.7604   1.1475073901e+02   2.6450230155e+01    0.9980928    0.2056691 -54.43   0.00203778    8.309    0.880
        36  -9.4905    103.9144    149.3221   1.2264862402e+02   3.1283454054e+01    0.3289354    0.2726585 -31.49  0.001117505    1.555    0.357
        37  -8.6659    106.1814    145.2221   1.2133448331e+02   3.1815343595e+01    0.2770847    0.1997118 -31.06  0.001322885    1.928    0.481
        38 -11.4354     92.5701    148.9309   1.2534237516e+02   3.3274445357e+01    0.2694727    0.2589117 -36.95 0.0005503139    1.280    0.219
        39  -9.0689    113.3189    135.3443   1.1759540073e+02   3.2762295130e+01    0.2899025    0.2333692 -16.79  0.001086125    1.740    0.425
        40  -9.9832    100.7700    132.4791   1.2018826509e+02   3.5680288454e+01     0.294412    0.2371283 -28.45  0.001109181    1.597    0.374
        41 -10.2548     43.8918    129.4034   1.3462685470e+02   4.4472600347e+01     0.320309    0.1577667  55.38  0.001515575    2.320    0.569
        42  -9.8407     70.6901    135.2230   1.2851233651e+02   3.9769615814e+01    0.4399841     0.207612  44.39  0.001979722    2.179    0.541
        43  -8.6647    160.6711    127.3017   1.0445440360e+02   2.4729606956e+01    0.1558677    0.1215089 -88.83 0.0006015844    1.646    0.392
        44  -8.8482    109.1413    122.9476   1.1596590327e+02   3.6361784502e+01    0.2132603    0.1982784 -74.02 0.0003620454    1.012    0.011
        45 -10.0118    168.3448    113.1035   9.9200677507e+01   2.5856729549e+01    0.3577035    0.2853926 -72.47  0.000862818    1.489    0.328
        46  -9.1551    205.1357    110.5059   9.1164960689e+01   1.7754883556e+01     0.400391    0.2017427  41.65  0.001557708    2.214    0.548
        47  -9.9080    249.8601    244.3002   1.1012724523e+02  -9.8529568545e+00    0.1793423    0.1238957 -39.20  0.001224201    2.073    0.518
        48  -9.4735     86.6165    240.7601   1.3789175705e+02   1.5694573073e+01    0.2491478    0.1361466  75.01  0.001431984    1.999    0.500
        49 -15.4164      7.9734    237.9368   1.5072752499e+02   2.5648400656e+01     9.562901     1.479807 -75.37   0.04049081    5.062    0.802
        50  -8.4398    185.5554    238.5161   1.2005823537e+02   5.6588928112e-01    0.1188757   0.09522328  36.55 8.272861e-05    1.019    0.019
        51  -9.9748    174.5103    221.0210   1.1952895257e+02   4.8679346324e+00    0.2499462    0.1562828  53.19  0.001383477    1.595    0.373
        52 -11.1399     80.1708    239.3319   1.3889140127e+02   1.6835772964e+01    0.2921374    0.2785355  19.59    0.0020299    1.661    0.398
        53 -10.7863     80.6143    246.9748   1.3943605465e+02   1.5495635745e+01    0.3981185    0.2112464  68.51  0.001776627    1.804    0.446
        54 -11.1234     83.4844    244.2761   1.3872901467e+02   1.5545678065e+01    0.5717822    0.2680705  76.50   0.00282744    2.941    0.660
