#   1 NUMBER                 Running object number                                     
#   2 MAG_AUTO               Kron-like elliptical aperture magnitude                    [mag]
#   3 X_IMAGE                Object position along x                                    [pixel]
#   4 Y_IMAGE                Object position along y                                    [pixel]
#   5 X_WORLD                Barycenter position along world x axis                     [deg]
#   6 Y_WORLD                Barycenter position along world y axis                     [deg]
#   7 A_WORLD                Profile RMS along major axis (world units)                 [deg]
#   8 B_WORLD                Profile RMS along minor axis (world units)                 [deg]
#   9 THETA_WORLD            Position angle (CCW/world-x)                               [deg]
#  10 FWHM_WORLD             FWHM assuming a gaussian core                              [deg]
#  11 ELONGATION             A_IMAGE/B_IMAGE                                           
#  12 ELLIPTICITY            1 - B_IMAGE/A_IMAGE                                       
         1  -9.7108      2.1961     21.8287   5.1088303816e+01   7.5692072044e+01    0.3832321    0.1557863 -63.15  0.001691845    2.613    0.617
         2  -9.6916      2.0844      9.0178   4.4478459500e+01   7.8212428255e+01    0.4764989    0.1206567 -56.88  0.001692181    4.442    0.775
         3  -9.1561     72.1379    226.4369   5.8284647033e+01   1.7044902317e+01    0.2524462    0.1644746  78.59   0.00133501    1.995    0.499
         4 -10.1115     40.7458    248.6410   6.7338177924e+01   1.5906805478e+01    0.3971478    0.2008357  56.06  0.002044122    1.915    0.478
         5  -9.9013     35.9086    249.1075   6.8459414338e+01   1.6277716306e+01    0.2714927    0.2001631  39.73 0.0006724038    1.065    0.061
         6 -13.6531      5.0039    134.1819   7.0128053732e+01   4.6641346910e+01     4.551311     1.385856 -87.22   0.01465124    3.475    0.712
         7  -7.6127    174.6764    223.6668   3.5168480406e+01   5.4173853188e+00    0.1258274   0.07705627 -10.53 0.0002779888    1.707    0.414
         8  -8.8765     66.7971    220.8018   5.9082909626e+01   1.8821792035e+01    0.2096399    0.1535622 -67.69 0.0008028038    1.547    0.354
         9  -9.2167     61.5410    221.0466   6.0418705699e+01   1.9356772048e+01    0.2830629    0.1573279 -33.76  0.001294297    2.591    0.614
        10  -9.7941     53.7730    219.1276   6.2211138612e+01   2.0616575163e+01    0.3352237    0.2008524  44.07 0.0003788117    1.456    0.313
        11 -10.1452     52.6302    213.0753   6.2003463811e+01   2.2071323165e+01    0.3272391    0.2408477  64.54 0.0005492585    1.382    0.277
        12  -8.0414     71.2852    233.3350   5.9111883102e+01   1.5748420606e+01    0.1219094   0.09190836 -19.30 0.0005225716    1.624    0.384
        13  -8.1513     36.5487    218.4962   6.6524902557e+01   2.2529031694e+01    0.1313204    0.1084933  46.84 6.158454e-05    1.030    0.029
        14  -8.2008     39.0257    233.2861   6.6845657515e+01   1.9128470402e+01     0.176196    0.1319808  34.06 0.0001927182    1.115    0.103
        15  -8.5629    134.0085    230.4927   4.4410300139e+01   8.9959197631e+00    0.1730445   0.08628698  44.77 0.0008093824    2.461    0.594
        16  -7.7017    210.6226    198.7960   2.4882941578e+01   5.1794757632e+00    0.1505285    0.0954166 -42.25 0.0008814593    1.581    0.367
        17  -8.7239     47.1460    229.1039   6.4609396916e+01   1.9185593070e+01    0.1790667    0.1667214   6.62 0.0008011807    1.214    0.176
        18 -14.3043      7.8886    209.1864   7.3338214867e+01   2.7195711605e+01      3.80485     2.692505   1.38   0.01182884    1.730    0.422
        19  -8.1218     93.5122    243.5809   5.4894628747e+01   1.1329549117e+01    0.1239878    0.1008103  24.15 0.0001150586    1.014    0.014
        20 -12.1524      8.6252    178.8993   7.1747157578e+01   3.4467517282e+01    0.8336331    0.7064247 -43.99    0.0014175    1.389    0.280
        21  -8.2341     63.7994    182.9593   5.5930109752e+01   2.7854467221e+01    0.1934503    0.1790615 -81.21 0.0006389077    1.126    0.112
        22  -9.7395     41.3457    176.7630   6.1852651299e+01   3.2015931712e+01    0.2916048    0.2791876 -11.43 0.0005941378    1.179    0.152
        23  -7.4930     74.0000    172.9966   5.1687207409e+01   2.8999068200e+01    0.2339207   0.08329466 -64.11 0.0008006385    2.930    0.659
        24  -8.4337     77.3976    173.5378   5.0776687614e+01   2.8402852009e+01    0.3505533     0.122082 -57.25  0.001244031    2.779    0.640
        25  -8.7054    234.0000    168.9311   1.6264812725e+01   6.9322384900e+00     0.194417   0.05171903 -39.73 0.0008087566    2.986    0.665
        26  -9.7174     54.3269    164.1009   5.6445630068e+01   3.3811771503e+01    0.4577188    0.2399036  84.48  0.001657828    2.667    0.625
        27  -8.2689    163.1307    164.3401   2.7615216923e+01   1.7355050926e+01    0.1827295    0.1698349   3.87 0.0009085516    1.086    0.079
        28  -8.3959    153.3343    162.8031   2.9400748843e+01   1.9184590781e+01    0.2096346     0.170288 -60.23   0.00090069    1.419    0.295
        29 -10.4303     72.5374    158.0771   4.9919635044e+01   3.2978303997e+01    0.8159671    0.5239449 -44.96  0.003690223    1.689    0.408
        30  -9.1067     78.0357    160.8834   4.8686034224e+01   3.1478136310e+01    0.3085993     0.227541 -65.65 0.0008536591    1.400    0.286
        31 -10.5124     43.1426    159.6875   5.9463089493e+01   3.6287292216e+01    0.5357764    0.3359819 -12.44  0.001684714    2.278    0.561
        32 -10.7438     49.9291    155.6043   5.6751817856e+01   3.6591256736e+01    0.4525302    0.4069811 -52.14 0.0008632151    1.174    0.148
        33 -11.6721     59.3207    134.7730   5.0409382788e+01   4.0989668339e+01     1.475917    0.6350622 -74.49  0.004902148    2.973    0.664
        34 -10.3536     64.8628    154.4975   5.1773150488e+01   3.4971820409e+01    0.6690724    0.3880366 -42.03  0.002780715    1.993    0.498
        35 -10.9951     62.7387    148.5938   5.1544331317e+01   3.6819078671e+01    0.4480391    0.3306659   7.23 0.0003908995    1.610    0.379
        36 -11.8811     69.0480    144.4144   4.8791142299e+01   3.7039043497e+01    0.8757781    0.6759394  37.19  0.002435503    1.266    0.210
        37  -9.8478     30.0851    239.3356   6.9295783823e+01   1.8745732389e+01     0.309297    0.1040755  30.96  0.001410038    2.171    0.539
        38  -8.1343    130.6852    237.3416   4.5983530435e+01   8.2073926803e+00    0.1177214   0.08783112  50.30 0.0006283956    1.706    0.414
        39 -10.7378     28.8216    150.9734   6.3240678463e+01   4.0128674682e+01    0.4509177    0.3017544  72.77  0.001203886    1.533    0.348
        40  -8.7335    108.7025    145.4052   3.6955206467e+01   3.0441905447e+01    0.2591969    0.2356752 -70.44 0.0007234022    1.151    0.132
        41 -11.6427     47.8164    143.4471   5.5789184814e+01   4.0126789160e+01     0.552479    0.3697191  -9.25  0.001403282    2.026    0.506
        42  -9.3192     37.6591    143.4521   5.9324351235e+01   4.1287582852e+01    0.4840852     0.245753  56.59  0.001632253    2.210    0.547
        43  -8.4295     89.5821    134.2123   4.0283009127e+01   3.6450716235e+01    0.2215296    0.1393773 -46.28  0.000604692    1.632    0.387
        44 -10.3960     76.2612    131.2376   4.3961523098e+01   3.9403461106e+01    0.3492633    0.2895631 -40.04 0.0005630503    1.282    0.220
        45  -8.6609     93.1261    132.1095   3.8747165221e+01   3.6372477824e+01    0.2380755    0.2087157 -12.90 0.0006934261    1.301    0.231
        46  -8.2706    104.9899    130.5055   3.4863723121e+01   3.4664231087e+01    0.2332282    0.1509993  36.73  0.001024699    1.567    0.362
        47  -7.8727    103.4768    126.5071   3.4408856302e+01   3.5902418611e+01    0.1531303    0.1475692 -25.21 1.241704e-05    1.079    0.074
        48  -9.5046     90.0173    120.9176   3.7246417482e+01   3.9713546041e+01     0.364846    0.2328221  28.93 0.0008758604    1.717    0.418
        49  -9.7729     55.0384    236.3540   6.3226574622e+01   1.6887559230e+01    0.2824801    0.1783601 -68.24 0.0009777194    1.833    0.454
        50  -8.1414    102.4928    115.8735   3.2200531568e+01   3.8635615628e+01    0.2254148    0.1497791 -50.93 0.0005512476    1.482    0.325
        51 -10.1002     18.0962    108.7360   6.2289117702e+01   5.2789847520e+01    0.4766965    0.2596321   5.17  0.001742358    2.194    0.544
        52  -8.9549     23.8665    105.2172   5.9266406719e+01   5.3269732720e+01    0.3206512    0.2423688   9.19  0.001176411    1.453    0.312
        53  -8.7354     33.1432    105.9433   5.5376255717e+01   5.2144432934e+01    0.2273685    0.1910858  79.81   0.00042024    1.236    0.191
        54  -9.9177     13.8676     96.7980   6.2476753432e+01   5.6406794779e+01     0.376393    0.2378988  68.39  0.001226276    1.789    0.441
        55 -13.1106      9.4007    244.4887   7.4236712211e+01   1.9532502618e+01     1.582591     1.222156  42.59   0.01103009    1.032    0.031
        56  -9.4208     17.1093     80.7783   5.8145092639e+01   6.0477797148e+01    0.2668124    0.2162933  53.87 0.0005169279    1.340    0.254
        57  -9.9738      2.4349     75.8456   6.5070125581e+01   6.2747325698e+01    0.4700568   0.09066714 -69.38  0.001443469    3.795    0.736
        58 -13.7393     20.4530    171.9346   6.7774764450e+01   3.5296600608e+01     2.428031     1.698953  65.18   0.01277211    1.347    0.258
        59  -7.9840     87.6969     69.3505   2.3530725383e+01   5.2132441027e+01    0.1554344    0.1179398 -86.09 0.0005123328    1.699    0.411
        60  -8.8297      2.0000     66.9561   6.3872821877e+01   6.5085647360e+01    0.2290082   0.07233702 -73.84 0.0005965349    2.961    0.662
        61 -11.2081    221.0130     62.1951   3.5697593094e+02   2.4733769029e+01    0.3623789    0.3574159 -49.93  0.002070758    1.336    0.252
        62 -12.4119    233.1738     54.9145   3.5439853228e+02   2.3593093404e+01    0.9022975    0.7458985  53.39  0.006586199    1.661    0.398
        63  -8.4652     13.1656     60.5563   5.5843706570e+01   6.5990565849e+01    0.2292676    0.1818954 -78.59 0.0005027638    1.343    0.256
        64  -9.4692      1.8736     50.2514   6.0575400659e+01   6.9278138635e+01    0.4221452     0.094322 -73.91  0.001195102    5.224    0.809
        65 -11.1356    249.4557     44.4460   3.5115186283e+02   2.2220118375e+01    0.6322241    0.2367989 -34.57   0.00288569    2.162    0.538
        66  -7.8072     97.3504    249.7068   5.4628629224e+01   9.8170596629e+00    0.1248702   0.07672753  46.20 0.0002088658    1.676    0.403
        67  -8.1171     60.5208     21.4843   1.3505195720e+01   6.6351431013e+01    0.1351316    0.1230333  46.91 6.516887e-05    1.001    0.001
