#   1 NUMBER                 Running object number                                     
#   2 MAG_AUTO               Kron-like elliptical aperture magnitude                    [mag]
#   3 X_IMAGE                Object position along x                                    [pixel]
#   4 Y_IMAGE                Object position along y                                    [pixel]
#   5 X_WORLD                Barycenter position along world x axis                     [deg]
#   6 Y_WORLD                Barycenter position along world y axis                     [deg]
#   7 A_WORLD                Profile RMS along major axis (world units)                 [deg]
#   8 B_WORLD                Profile RMS along minor axis (world units)                 [deg]
#   9 THETA_WORLD            Position angle (CCW/world-x)                               [deg]
#  10 FWHM_WORLD             FWHM assuming a gaussian core                              [deg]
#  11 ELONGATION             A_IMAGE/B_IMAGE                                           
#  12 ELLIPTICITY            1 - B_IMAGE/A_IMAGE                                       
         1 -14.3898    230.0494      8.0622   3.1819471349e+01   2.7493688623e+01     1.912181     1.249444  45.48  0.006202435    2.189    0.543
         2 -13.9238    197.1256     42.6151   4.2989334716e+01   3.0703277951e+01     1.049347    0.9021599 -73.35  0.003096396    1.066    0.062
         3 -14.0995    205.9100     34.0048   3.9822396247e+01   2.9792927019e+01    0.9087492    0.8487247  -1.86  0.001334506    1.384    0.277
         4 -12.9207     57.9269      3.6538   5.9505760835e+01   6.6375984981e+01    0.6917466     0.259185  35.28  0.003094037    2.552    0.608
         5  -9.4610     37.5410    215.5186   1.1681026967e+02   2.4342769334e+01    0.1276494   0.09531447  69.28 0.0002316369    1.128    0.114
         6 -15.5824     58.3267    184.2588   1.0894609506e+02   2.8937432239e+01     3.768672     2.957276 -44.69   0.01613428    1.494    0.331
         7 -16.6812     72.7774    150.8717   1.0022499281e+02   3.5142251596e+01     16.23976     8.494249  86.80   0.01136615    4.311    0.768
         8 -11.8045     61.1410    198.4132   1.0994255251e+02   2.5282730163e+01    0.2727543    0.2614405 -29.85 0.0004470327    1.312    0.238
         9 -10.1954     66.3225    193.7940   1.0818282714e+02   2.5659397346e+01    0.3482584    0.2899079  57.23  0.001489948    1.117    0.105
        10 -10.0794     82.1005    195.1086   1.0458812299e+02   2.3144295180e+01    0.2402154    0.2303395  -8.05  0.001474851    1.253    0.202
        11 -10.2932    151.4849    193.4890   8.7935603280e+01   1.1987864979e+01    0.2758817    0.2462003  53.89  0.001303664    1.202    0.168
        12 -11.7653    147.4537    187.6216   8.7786451789e+01   1.3921819021e+01    0.5725551    0.3806278 -69.28  0.002550805    2.129    0.530
        13 -16.5272      6.3151    212.0128   1.2292675029e+02   2.8259821533e+01     2.768024    0.7013156 -59.35    0.0111078    4.159    0.760
        14 -11.1261    164.0969    210.7367   8.8179065725e+01   6.4454976335e+00    0.2675892     0.182662  18.23     0.001056    1.577    0.366
        15  -9.7936     72.0615    188.3269   1.0610842961e+02   2.6146677036e+01    0.2186067    0.1699894  87.60 0.0005186572    1.282    0.220
        16  -9.6868     77.3942    186.1255   1.0450350650e+02   2.5908240844e+01    0.2276848     0.171953  76.42 0.0007271563    1.382    0.277
        17 -10.3941     80.3170    183.7670   1.0344658919e+02   2.6038883799e+01     0.293824    0.2438324  81.22  0.001333806    1.198    0.165
        18 -11.4103     99.2823    181.0087   9.8283742039e+01   2.3758652977e+01    0.2920863    0.2814918  11.68 0.0006324308    1.146    0.127
        19  -8.9482    224.2691    206.6765   7.5347745969e+01  -2.5450595797e+00    0.1104921    0.1030265 -55.51 0.0002816275    1.569    0.363
        20 -10.4653     46.8054    177.2713   1.1094718941e+02   3.2010412575e+01    0.2726285    0.2285382 -86.68 0.0008585384    1.058    0.055
        21 -10.5502     47.3683    172.0289   1.1017611726e+02   3.3209342029e+01    0.3176947    0.2252668 -39.86  0.001279659    1.732    0.423
        22 -10.6605     39.6213    177.2939   1.1272372002e+02   3.2817392734e+01    0.2714175    0.1884287  57.40 0.0007291476    1.401    0.286
        23 -11.5764    186.8738    175.0862   7.6579726811e+01   9.2113748206e+00    0.4180471    0.3244233 -46.70  0.001247033    1.363    0.267
        24 -10.1398    147.8692    174.1304   8.5106098623e+01   1.6715730069e+01    0.2161864    0.1998283  78.92 0.0003309752    1.229    0.186
        25 -12.3829    205.6891    195.2274   7.6741246786e+01   2.2505443012e+00    0.6285297     0.290517  21.74  0.002291623    3.378    0.704
        26 -12.0088    240.8376    170.0793   6.5324373002e+01   7.9795201642e-01    0.3262909    0.2513115 -80.34  0.001213991    2.551    0.608
        27 -12.8508    233.4850    173.2528   6.7226775990e+01   1.4454120819e+00    0.4422317    0.3606075 -22.33  0.002680615    1.058    0.055
        28 -10.1184    193.1453    169.8952   7.4203685115e+01   9.0519247136e+00    0.2074716    0.2010248 -66.98 0.0005343734    1.238    0.192
        29  -9.2910     41.9909    167.0220   1.1093878678e+02   3.5037397562e+01     0.159087    0.1383411 -87.30 0.0003561452    1.002    0.002
        30 -10.2421     32.3016    165.1154   1.1320260264e+02   3.6524400130e+01    0.2196728    0.1929131 -57.89 0.0005825004    1.219    0.180
        31  -9.7057     37.3651    168.0390   1.1224436942e+02   3.5291108444e+01     0.262745    0.1391475  52.68  0.001127438    1.965    0.491
        32  -9.7857     37.5305    161.9945   1.1148436626e+02   3.6747553757e+01    0.2309297    0.1875571  -5.47  0.001000013    1.655    0.396
        33  -9.8009     48.3232    160.1389   1.0838862506e+02   3.6008531871e+01    0.1903552    0.1552791 -78.16 0.0004228243    1.103    0.093
        34 -12.4418     90.8578    151.3374   9.5265756968e+01   3.2261454483e+01    0.7240276    0.4947049 -28.10  0.003232972    1.930    0.482
        35 -11.8892    133.9239    145.4222   8.2474679827e+01   2.5830762192e+01      1.32655      0.35882 -54.55  0.003142352    5.522    0.819
        36  -9.9662    111.1008    149.3202   8.9324481904e+01   2.9263657700e+01    0.3821784    0.2424036  68.15  0.001498302    2.369    0.578
        37 -12.2742    193.8668    197.5441   7.9546311598e+01   3.8141898557e+00     1.437061    0.7265292 -58.33  0.005157162    3.946    0.747
        38 -11.4943     40.5081    147.0850   1.0871743957e+02   4.0115992017e+01    0.3946021    0.2741371 -48.68  0.001793066    1.450    0.310
        39 -10.1835    174.8912    149.1431   7.3578380469e+01   1.6720769289e+01    0.2280312     0.210674 -80.02 0.0005823878    1.263    0.208
        40 -10.3932    143.7013    145.8266   8.0107688585e+01   2.3781243601e+01     0.380563    0.1926214 -63.78  0.001204564    3.388    0.705
        41 -11.8718    203.8764    200.1782   7.8035509808e+01   1.6984647194e+00    0.4187839     0.238008  26.92  0.002025378    1.798    0.444
        42 -11.0523    104.0160    137.8961   8.8821549553e+01   3.3288650946e+01     0.573952     0.354016 -22.69  0.002164166    2.602    0.616
        43 -11.1494    106.0356    130.8175   8.6652449486e+01   3.4619924466e+01     0.424871    0.3282333 -60.37  0.001249306    1.331    0.248
        44 -12.4663     91.5003    137.3576   9.2268698949e+01   3.5587239031e+01    0.2880677    0.2640588 -34.69 0.0003565343    1.125    0.111
        45 -11.1327    135.8226    128.9696   7.8127849985e+01   2.9185505641e+01    0.6014591    0.1723324 -49.61  0.001676667    3.727    0.732
        46 -10.8967    135.0000    121.2852   7.6428196349e+01   3.1074339547e+01    0.6799345    0.0882918 -45.73  0.001312165    7.595    0.868
        47 -10.9255    112.7565    128.9001   8.4309382005e+01   3.3813792281e+01    0.3570425    0.2959077  -1.48  0.000825104    1.446    0.308
        48  -9.9230    160.8504    127.7436   7.1709787637e+01   2.4140213128e+01     0.306777    0.2065764 -68.30  0.001245185    2.113    0.527
        49  -9.3235     93.6878    126.0136   8.9121014956e+01   3.7975699418e+01    0.2110136    0.1838485 -55.98 0.0005006242    1.115    0.103
        50 -11.1159     99.8754    124.7634   8.7008584977e+01   3.7185620365e+01    0.3084543    0.2532671   8.48  0.001088626    1.431    0.301
        51 -11.6903    119.0014    122.9179   8.1120038619e+01   3.3988379191e+01    0.6088521    0.3978995  -3.87  0.002217019    2.810    0.644
        52 -10.1115    108.4924    118.1713   8.2895757508e+01   3.7137973058e+01    0.2494227    0.2097874  38.05 0.0003176911    1.218    0.179
        53 -10.7195    231.3616    113.8983   5.4938697311e+01   1.2045027186e+01    0.2740274    0.2276494 -38.34 0.0007890624    1.063    0.059
        54 -11.9665    116.6589    108.8114   7.8136556007e+01   3.7654320980e+01    0.6037778    0.5344218  72.87  0.002720571    1.296    0.229
        55 -11.0399    119.6945    104.0167   7.5987789949e+01   3.8083711438e+01    0.2479566    0.2417423  20.63 0.0009762056    1.031    0.030
        56 -10.1877    205.3928    110.2453   5.8364342624e+01   1.7954977853e+01    0.2840026    0.2045492  46.86 0.0008626328    1.499    0.333
        57  -8.5473    140.4846    107.4492   7.1414442439e+01   3.2887227885e+01    0.1538277    0.1518098 -12.78 0.0001473709    1.006    0.006
        58  -9.8686    134.5766    105.3100   7.2344189533e+01   3.4633028651e+01     0.315688    0.1485236 -47.46  0.001152944    2.167    0.538
        59 -14.3599     28.3920    215.7893   1.1872783512e+02   2.5286125371e+01     1.216712    0.5183086  87.04  0.005386283    2.653    0.623
        60 -10.7455     89.2607    211.1047   1.0500375219e+02   1.8538335316e+01    0.2637981    0.2044938 -87.23 0.0006751623    1.364    0.267
        61 -10.3898     32.3214    203.9087   1.1696585819e+02   2.7457653882e+01    0.2976717     0.213789 -87.16  0.001008077    1.224    0.183
        62  -9.7157    129.0347     96.2428   7.1280859387e+01   3.7735612121e+01    0.2662133    0.1968421  55.83 0.0005585662    1.457    0.314
        63 -12.4823     53.1248     93.9407   9.4563134912e+01   5.1679030183e+01     0.578532    0.4521137  74.37  0.003042376    1.758    0.431
        64 -10.3732    156.4974     88.6574   6.2463732369e+01   3.2992652332e+01    0.3211264    0.2432896 -71.67   0.00122827    1.649    0.394
        65 -16.7567      2.9819    106.3949   1.1432304137e+02   5.3099570665e+01     19.30203      2.28264 -72.61   0.03710216   12.088    0.917
        66  -9.7447    157.7255     82.9599   6.0605948108e+01   3.3755015712e+01    0.2100562    0.1962903 -44.94 0.0003998796    1.069    0.064
        67  -9.2154    184.6013     77.2082   5.3786835305e+01   2.8433904209e+01    0.1955054    0.1390682 -24.98 0.0004496136    1.603    0.376
        68 -12.2627    184.8469    211.6707   8.3971831186e+01   2.8279749433e+00    0.3768195    0.2982247  -6.07  0.001969319    1.268    0.212
        69 -13.6446    185.6035     51.6400   4.6915652147e+01   3.2169240364e+01    0.8957322    0.8764951 -17.34 0.0008406758    1.174    0.148
        70 -11.3725     82.7857    245.4268   1.1019566538e+02   1.2534165666e+01    0.3337807    0.3085713  47.23  0.002371548    1.190    0.160
        71 -18.1658     12.0006    243.5652   1.2356821073e+02   2.1340058643e+01     4.477089     1.903336  26.84    0.0231938    3.048    0.672
        72 -11.9076     20.8420     34.3492   8.9801764419e+01   6.7334974406e+01     0.275914    0.1982993  18.76  0.001050314    1.445    0.308
        73 -10.4252    168.2053    232.9889   9.0931031502e+01   1.8580182876e+00    0.2644901    0.1955482  43.12  0.000869117    1.349    0.259
        74 -10.3414    198.0811     23.4716   3.8168705964e+01   3.2853934409e+01    0.2184732     0.181544  -7.36 0.0007120752    1.616    0.381
        75 -10.1715    189.5274     14.9832   3.7023116408e+01   3.5774724297e+01     0.194837    0.1569829  83.94 0.0006302053    1.087    0.080
