#   1 NUMBER                 Running object number                                     
#   2 MAG_AUTO               Kron-like elliptical aperture magnitude                    [mag]
#   3 X_IMAGE                Object position along x                                    [pixel]
#   4 Y_IMAGE                Object position along y                                    [pixel]
#   5 X_WORLD                Barycenter position along world x axis                     [deg]
#   6 Y_WORLD                Barycenter position along world y axis                     [deg]
#   7 A_WORLD                Profile RMS along major axis (world units)                 [deg]
#   8 B_WORLD                Profile RMS along minor axis (world units)                 [deg]
#   9 THETA_WORLD            Position angle (CCW/world-x)                               [deg]
#  10 FWHM_WORLD             FWHM assuming a gaussian core                              [deg]
#  11 ELONGATION             A_IMAGE/B_IMAGE                                           
#  12 ELLIPTICITY            1 - B_IMAGE/A_IMAGE                                       
         1 -11.7017     80.4232     23.3400   7.0628550706e+01   6.0875116855e+01    0.5782402    0.2697808  36.83 0.0003060045    2.154    0.536
         2  -9.2712     26.4836     21.6394   9.2109863494e+01   6.8981426946e+01    0.6129335    0.2930912 -38.09  0.003355568    1.700    0.412
         3  -8.9852     46.0440     20.6019   8.2592453976e+01   6.6856226697e+01    0.3786625    0.2181316 -43.59  0.002059615    1.881    0.468
         4  -9.7083     76.3200      6.0862   6.4075855913e+01   6.3673772958e+01    0.3761024    0.2844225  -0.65  0.001279614    1.227    0.185
         5  -8.1686     71.5910      8.7380   6.6911576668e+01   6.4286504055e+01    0.2472213    0.1934607 -35.61  0.001195902    1.516    0.341
         6  -9.7233     79.2730     12.8577   6.6295407069e+01   6.2380292948e+01    0.4087501    0.2551285  53.05  0.001228883    1.714    0.416
         7  -9.1676     74.4826     13.5193   6.8189659401e+01   6.3211458182e+01    0.3711299    0.2385097   7.53  0.001589963    1.666    0.400
         8  -9.2431     64.1084     14.0219   7.2130334551e+01   6.4997298546e+01     0.329788     0.203894  13.67  0.001299979    1.745    0.427
         9  -9.6853    133.8767     13.4993   5.2822454044e+01   5.0112694380e+01    0.2660878    0.2254489  36.77  0.001531783    1.131    0.116
        10  -8.3776     87.8311     13.0710   6.3734767762e+01   6.0657586412e+01    0.2441377    0.1665753   6.36 0.0006040117    1.526    0.345
        11  -9.8400     31.3241     11.0861   8.4819063498e+01   7.0102974486e+01    0.4557763    0.2908017  -3.59  0.001181813    1.535    0.349
        12  -8.8120     32.0687      6.1812   8.1945571838e+01   7.0697848325e+01    0.2184396    0.1546616 -26.40 0.0002936451    1.248    0.199
        13  -8.2863     96.9893     12.0227   6.0673945948e+01   5.8847564875e+01    0.2100203     0.176429  28.86 0.0006275735    1.044    0.042
        14  -8.8178    125.1216     10.3862   5.3397627964e+01   5.2554947013e+01    0.2373683    0.1782005  12.84 0.0004913881    1.447    0.309
        15 -10.1525     13.6633      4.5644   9.0753056711e+01   7.2868990504e+01    0.2908919    0.2113083  -8.32 0.0002570192    1.153    0.133
        16  -9.5924     20.3278      8.7497   8.9245313724e+01   7.1623132748e+01    0.3037033    0.1833271  -5.15  0.000789281    1.666    0.400
        17  -8.1688     13.9719     10.7715   9.3620444924e+01   7.1888902377e+01    0.2215193    0.1326663  31.87 0.0007750358    2.081    0.520
        18 -10.2507    119.1992      6.7991   5.3237677855e+01   5.4305298276e+01    0.2528203    0.2203494  18.03 0.0002316597    1.140    0.123
        19  -8.4545      3.5821      7.3560   9.7825095606e+01   7.3221151725e+01    0.2871744    0.1310819 -17.91  0.001538541    2.457    0.593
        20  -7.8989    156.1101      7.1438   4.6874928214e+01   4.5123838500e+01    0.2112708    0.1666398  44.86 0.0005056527    1.251    0.201
        21  -9.7475     84.9454      5.5285   6.1172426600e+01   6.2019668374e+01    0.2983247    0.2256747  25.16 -2.438503e-05    1.165    0.142
        22  -9.3027     91.9768      5.6541   5.9247227705e+01   6.0546440577e+01    0.4248814    0.2117427  55.06   0.00178661    1.871    0.466
        23  -9.4534     46.5853      6.2066   7.5272478790e+01   6.8737802913e+01     0.235312     0.198276   9.39 0.0003552219    1.163    0.140
        24  -8.5855     41.1743      5.7314   7.7416845784e+01   6.9569981836e+01     0.267619    0.1657922  -4.41 0.0009665152    1.583    0.368
        25  -8.2322    100.7205      5.8325   5.7051028302e+01   5.8636072169e+01    0.2333821    0.1610003  -8.27  0.001286362    1.514    0.340
        26  -8.0502    131.5119      5.4800   5.0338361952e+01   5.1447000405e+01    0.1376076    0.1198546  47.74 -1.610772e-05    1.032    0.031
        27  -7.9421    125.3749      3.9021   5.0895391815e+01   5.3078671066e+01    0.1786858    0.1593117  14.97 0.0004019655    1.155    0.134
        28  -8.8346    110.7950      2.3102   5.3238459269e+01   5.6663067961e+01    0.2894291    0.2325844 -33.92  0.001719886    1.416    0.294
        29  -8.6240     57.9974      3.2047   6.9066786901e+01   6.7278767310e+01    0.2309203      0.15907  17.86 0.0006507814    1.291    0.225
        30  -7.7114    134.2673      2.9659   4.8934469668e+01   5.0984171193e+01    0.1793792     0.165936  41.03  0.000364922    1.065    0.061
        31  -7.9695    143.2720      2.0709   4.7132552292e+01   4.8818116687e+01    0.1739873    0.1681935  58.69 0.0003300953    1.083    0.077
        32  -8.2458    105.2633      1.7678   5.4248300351e+01   5.7973660659e+01    0.2832926    0.1488402  50.11  0.001399067    1.613    0.380
        33  -7.3366      2.8275      1.3492   9.5386144022e+01   7.4219327218e+01    0.1406107   0.08227957  -2.28 0.0004006076    1.683    0.406
        34  -9.3291     14.1349    105.4159   1.1856178696e+02   5.2262538765e+01    0.2701007    0.1356363 -49.54  0.001437772    1.833    0.454
        35  -7.5099     80.3147    250.3458   1.1893189687e+02   1.3670067738e+01   0.09496277   0.08862915   7.12 0.0007047542    1.716    0.417
        36  -7.7972     94.2860    103.4041   9.3630216508e+01   4.3124757774e+01     0.269569    0.1475382  33.63   0.00111753    2.081    0.519
        37  -7.7663     64.4757    101.4803   1.0227637175e+02   4.8182871870e+01    0.1406835    0.1235028 -53.50 0.0008096516    1.032    0.031
        38  -7.6531    129.7303     97.3818   8.1986347993e+01   3.7445809222e+01    0.2215675      0.14663  35.19 0.0005944283    1.670    0.401
        39  -8.2582    239.4780     96.5283   5.9436272042e+01   1.2019065839e+01     0.142676    0.1293472 -28.93 5.726649e-05    1.049    0.047
        40  -7.5144    150.3273     96.3358   7.6475465983e+01   3.2979762840e+01    0.1644171     0.126578   6.48 0.0007051768    1.723    0.420
        41  -9.7967     12.8328     93.9331   1.1726534638e+02   5.5013892210e+01    0.3477793    0.2612807 -23.83  0.001421307    1.617    0.381
        42  -6.9034     83.3078     93.3726   9.4341775594e+01   4.7281616298e+01    0.1536459     0.107754 -23.81 0.0007032523    1.768    0.434
        43  -8.4506     43.6987     92.1081   1.0687905703e+02   5.2855393092e+01    0.2882538    0.2001077 -21.87   0.00155312    1.799    0.444
        44  -7.2007    153.2956     92.2389   7.4592005489e+01   3.3102528237e+01    0.1511744    0.1222757  18.09  0.000158289    1.472    0.321
        45  -8.2339    109.4668     91.0278   8.5777233713e+01   4.3061473968e+01    0.3242365    0.1955241  22.42  0.001248335    2.460    0.594
        46  -8.2141     96.7754     90.3131   8.9336762901e+01   4.5643158987e+01    0.3838101    0.2484606  -0.98  0.001461739    2.856    0.650
        47 -10.2963     37.2151     81.2272   1.0664809812e+02   5.6007632538e+01    0.6598796    0.3532908 -19.93  0.002891706    2.969    0.663
        48  -7.8612    127.1828     83.7955   7.8664345056e+01   4.0841887142e+01     0.217886    0.1845612   7.43  0.000979915    1.355    0.262
        49  -8.2818     66.0645     84.0629   9.7426476342e+01   5.1990610949e+01    0.2099898    0.1844628 -44.54 0.0003777469    1.011    0.011
        50  -8.2934    242.9935     83.4991   5.5787441352e+01   1.3343975546e+01    0.1939375      0.11174  34.18 0.0008102854    2.524    0.604
        51  -8.7812     87.7305     79.0413   8.8840175777e+01   4.9707435713e+01    0.4598544    0.2909912  12.04  0.001911327    2.455    0.593
        52  -8.9709     49.3896     77.1804   1.0134592377e+02   5.5643540385e+01    0.4620801    0.2594507  -6.13  0.001899771    3.251    0.692
        53  -9.8680      8.8953     76.8019   1.1569624038e+02   5.9150232808e+01    0.5437126    0.1952155 -40.53  0.002339219    2.812    0.644
        54  -7.7042    184.4831     77.9957   6.3812656359e+01   2.8096212860e+01     0.229425    0.1502122 -35.74 0.0005048648    1.501    0.334
        55  -7.6583    105.4980     76.5009   8.2537575931e+01   4.6915811873e+01    0.1509283    0.1406354 -16.41 0.0008102091    1.049    0.047
        56  -9.3583     28.3670     69.3118   1.0701659670e+02   5.9462053080e+01    0.4859396    0.2190808 -23.67  0.001911406    3.778    0.735
        57  -8.5605     23.6879     74.3238   1.0991139660e+02   5.8724185042e+01    0.2993244     0.151828 -54.21  0.001585814    1.521    0.343
        58  -8.7557     24.5278     70.6591   1.0877132860e+02   5.9473995707e+01    0.3406468    0.2531395  69.89  0.002037453    1.838    0.456
        59  -7.6499    120.2650     75.7764   7.8051385829e+01   4.3970208959e+01     0.238876    0.1162656  37.14 0.0008673394    2.374    0.579
        60  -7.9085    111.3891     74.3229   8.0105608367e+01   4.6151972377e+01    0.2316628     0.176074   1.98 0.0005659744    1.665    0.399
        61  -8.4476     75.1250     74.0335   9.1469476709e+01   5.2854181251e+01    0.2198709    0.1997284  16.67 0.0004249418    1.175    0.149
        62  -7.1937    122.9975     71.7492   7.6004288900e+01   4.4148902445e+01    0.1811866    0.1304254  47.06 0.0002558436    1.409    0.290
        63  -7.8775     48.7119     71.4126   1.0002523232e+02   5.6992644765e+01    0.2364815    0.1228453  35.40  0.001140171    2.198    0.545
        64  -9.1043     82.6649     65.7018   8.6255257602e+01   5.3342970683e+01    0.6899241    0.3826809 -17.08  0.002479393    3.309    0.698
        65  -8.0532    207.6145     67.5920   5.6907288849e+01   2.4081324362e+01    0.3700128    0.2354422 -14.59  0.001564931    2.095    0.523
        66  -7.4638     76.4310     69.4502   8.9591149312e+01   5.3610714217e+01    0.1402995    0.1270155 -34.26  6.68302e-05    1.032    0.031
        67  -8.2077    106.3238     67.3791   7.9316307244e+01   4.8556867885e+01    0.3254462    0.2043532  13.01  0.001194561    2.586    0.613
        68  -9.1570     17.8458     62.4558   1.0937160868e+02   6.1753684235e+01    0.5550096    0.1948791 -35.42  0.002247769    3.375    0.704
        69  -9.6968     62.1294     61.4829   9.2077574644e+01   5.7386952954e+01    0.5512902    0.2492232  27.73 0.0005920668    2.694    0.629
        70  -8.1564     11.5058     60.9999   1.1150653190e+02   6.2473329041e+01    0.1691075    0.1432958 -45.90  0.000478232    1.111    0.100
        71  -9.2839     37.6871     58.5538   1.0049891870e+02   6.0917807317e+01    0.2954437    0.1892559 -28.12  0.001048103    1.575    0.365
        72  -9.1165     27.1049     59.9094   1.0507762864e+02   6.1599213080e+01    0.2216932      0.16264  25.79   0.00105305    1.626    0.385
        73  -8.2436    111.4556     58.0672   7.4616644474e+01   4.9199724696e+01    0.2964261    0.1923726  31.29  0.001128515    1.712    0.416
        74  -8.8462     98.6053     56.4328   7.7875364941e+01   5.2154202649e+01    0.3830678    0.2157691 -18.60  0.001498391    2.516    0.602
        75  -8.3575    248.9955     55.4838   4.8339247926e+01   1.6233336728e+01    0.1869916    0.1028658  41.01 0.0008101049    2.608    0.617
        76 -10.0070     75.0268     50.4599   8.3536677926e+01   5.7545653561e+01    0.4448488    0.2990645 -15.02 0.0003300001    1.702    0.412
        77  -8.2798    118.3106     51.0272   7.0208355965e+01   4.8887292736e+01    0.2509566    0.1997337  48.91 0.0005787783    1.258    0.205
        78  -9.1611     45.0978     49.0531   9.4460967168e+01   6.2036577089e+01     0.371669    0.2167591 -19.60  0.001276993    2.078    0.519
        79  -8.1661    106.6800     48.9605   7.2724594462e+01   5.1779949325e+01    0.3189672    0.1700975  25.70  0.001182355    2.788    0.641
        80  -9.0079     13.5141     45.5523   1.0671486662e+02   6.5578786400e+01    0.2452518    0.1981888  32.71 0.0007662479    1.603    0.376
        81  -8.0186     53.6636     46.9874   9.0287398713e+01   6.1370705745e+01    0.3801146     0.119704 -34.11  0.001155429    4.646    0.785
        82  -8.0085     55.5336     43.4884   8.8240832112e+01   6.1766185893e+01    0.1857483    0.1195158  17.17 0.0007002715    1.756    0.431
        83  -8.5533     58.1889     40.8579   8.6175833372e+01   6.1865728122e+01    0.2146931    0.1577053 -16.74 0.0004962189    1.298    0.230
        84  -7.3226    156.5560     46.4349   5.9681625593e+01   4.0313924292e+01    0.1477434    0.1425117  52.47 5.026588e-05    1.013    0.013
        85  -7.2526     96.3264     45.3242   7.4481271183e+01   5.4519440245e+01    0.1490539    0.1053542   8.36 0.0007048983    1.692    0.409
        86  -8.9678      3.1304     44.7788   1.1102905865e+02   6.6327483366e+01    0.2717129    0.1459116 -12.55  0.001577776    2.215    0.548
        87  -8.3409     92.0640     37.1082   7.2610760804e+01   5.6664976976e+01     0.463943    0.2420359  45.84  0.001028576    1.904    0.475
        88 -10.9944     83.1681     40.0131   7.6681321611e+01   5.7914360927e+01    0.3693861    0.2500135 -14.82 -0.0006383859    1.585    0.369
        89  -8.9041     87.3425     38.2719   7.4595664717e+01   5.7406618241e+01    0.2632492    0.2102107   9.89 0.0005693554    1.242    0.195
        90  -8.7900     10.2669     47.5687   1.0867960549e+02   6.5369842034e+01    0.2369923    0.2058216 -35.95 0.0008885754    1.156    0.135
        91  -7.8049      3.0357     25.4671   1.0532435291e+02   7.0099820767e+01    0.1410324    0.1021206   1.30 -8.184493e-05    1.510    0.338
        92  -9.4336      5.9797     34.1314   1.0671856102e+02   6.8294819140e+01    0.4204604    0.1760454 -31.67  0.001904377    2.292    0.564
        93  -8.1487      2.8400     31.8455   1.0750284519e+02   6.8905596601e+01    0.1367041    0.1196766 -58.32  0.000298165    1.306    0.234
        94  -8.6039      1.4782     28.5239   1.0711567295e+02   6.9609415500e+01     0.226124   0.08512936 -56.65 0.0009213457    2.040    0.510
        95  -7.2534    124.4623     39.4950   6.4438037092e+01   4.9237596223e+01    0.1492859    0.1323064  22.62 0.0004700555    1.106    0.096
        96  -9.9922     69.2029     36.4157   8.0173987663e+01   6.0927983189e+01    0.5741143    0.3329698  22.72  0.002763389    2.016    0.504
        97  -9.4468     37.3496     36.2548   9.3060492002e+01   6.5314270416e+01      0.46049    0.2576165  -6.89  0.002233854    2.481    0.597
        98  -7.2807    106.5249     36.4441   6.8029780620e+01   5.3749399878e+01    0.1427497    0.1287279  16.03 0.0002276808    1.028    0.027
        99  -9.3934     56.2747     34.8415   8.4520984284e+01   6.3173793053e+01     0.354573    0.2413269 -13.77  0.001641332    1.491    0.329
       100  -9.5514     19.1954     35.8126   1.0109229486e+02   6.7088803947e+01    0.4355144    0.2835821  26.72  0.002631982    1.828    0.453
       101  -8.8758     21.9520     32.2447   9.8535634807e+01   6.7533755307e+01    0.2854433    0.1698686  27.68  0.001062732    1.958    0.489
       102  -7.0230     46.3131     35.2949   8.8818083420e+01   6.4434165065e+01    0.1295667   0.08486884 -14.13 0.0001707506    1.597    0.374
       103  -8.5365     42.2186     27.9127   8.7527480075e+01   6.6196698536e+01    0.2247798    0.1370678  -2.31 0.0005918691    1.958    0.489
       104  -8.6915     61.8157     26.8701   7.8922623364e+01   6.3608077707e+01    0.2414708    0.1665122  -5.61 0.0007669272    1.480    0.324
       105  -8.8296     64.1185     23.2839   7.6434519805e+01   6.3761968591e+01    0.2462416    0.1647374  -3.55   0.00134487    1.567    0.362
       106  -8.0517    109.3166     25.7161   6.3049921499e+01   5.4572737091e+01    0.2662573    0.1610326 -42.70  0.001253866    1.906    0.475
       107  -8.8723    209.6769    248.8368   9.5501904031e+01  -5.8280234251e+00    0.1748608    0.1201622  25.91  0.001151158    1.157    0.136
       108  -9.2174     70.1369     25.8442   7.5328604342e+01   6.2387162560e+01    0.3130982    0.2064851  45.75  0.001059363    1.667    0.400
       109  -9.4657    186.2978    248.1745   9.9569020772e+01  -2.1573072418e+00    0.3858632    0.2170608  -1.49   0.00164021    4.077    0.755
       110  -8.5541    144.6782     23.3022   5.4237328649e+01   4.6362902684e+01    0.2311105    0.1993025  66.94 0.0003165161    1.120    0.108
       111  -8.3529    140.2171     19.9787   5.3925597342e+01   4.7856779620e+01    0.2358518      0.18673  59.38 0.0004874216    1.170    0.145
       112 -10.3912    162.3956    247.3431   1.0380067681e+02   1.7315750429e+00    0.4194795    0.2932394 -74.82  0.002475216    2.361    0.576
       113  -7.7251    128.8902     22.3969   5.7106063916e+01   5.0380952883e+01    0.2126836    0.1112722  47.46 0.0008717103    1.755    0.430
       114  -9.1746     92.5080     20.7541   6.5696122503e+01   5.8810577099e+01    0.2889983    0.2199468   9.61 0.0007909141    1.297    0.229
       115  -9.0760      8.0884     19.9005   1.0068414339e+02   7.0800341699e+01    0.3281589    0.2146322  13.59  0.002236826    1.694    0.410
       116  -8.7987     12.7845     18.3773   9.7619247306e+01   7.0729732863e+01    0.4134493    0.1888696   2.85  0.002049776    3.020    0.669
       117  -7.9236     36.4975     19.1836   8.6236960017e+01   6.8284648855e+01    0.2118922    0.1341729   9.25  0.001243612    1.659    0.397
       118  -8.6893    127.4725     16.8642   5.5349678305e+01   5.1334497074e+01    0.2196036    0.1784425  67.85 0.0003053061    1.248    0.199
       119  -8.6558    241.0060    246.2296   8.9712137544e+01  -1.0070507556e+01    0.1518799   0.07530677  34.68 0.0008799976    1.652    0.395
       120  -9.0622    149.2394    248.2126   1.0631795531e+02   3.6926127584e+00    0.1827009    0.1488794 -45.60  0.001266377    1.561    0.359
       121 -10.1974    116.5556    246.1313   1.1206636784e+02   9.1073436631e+00    0.2102543    0.1761169  51.38  0.000314627    1.098    0.089
       122  -8.1323    233.4709    238.4561   8.9760766187e+01  -8.1312421645e+00    0.1162288   0.09115985  18.58 8.596962e-05    1.071    0.066
       123  -9.5232    188.7783    233.9143   9.7053691750e+01  -6.2846143585e-01     0.273021    0.2240912  30.05  0.001146766    1.025    0.024
       124  -8.7717    121.0249     14.9846   5.6019661221e+01   5.3080105116e+01    0.2348216    0.1461378  30.89 0.0008055404    1.696    0.411
       125  -7.5837    241.0009    234.0495   8.7754881222e+01  -8.7125479147e+00    0.1410868    0.1058748  16.61 0.0003425731    1.031    0.030
       126  -7.8400    119.0298    231.7768   1.1001680598e+02   1.1117202204e+01    0.1738856     0.132922  49.68 0.0004216588    1.069    0.065
       127  -7.8122    215.5797    198.9810   8.6156769463e+01  -7.4288875999e-02    0.2948543    0.1169494  41.47  0.001198075    2.332    0.571
       128 -10.1612    246.3164    197.0157   8.0279983751e+01  -4.8865234588e+00    0.2196512    0.1815714   4.07 0.0002371864    1.036    0.035
       129  -7.8978    216.4791    189.6749   8.4227463145e+01   1.1823249433e+00    0.1721499    0.1210391 -18.30 0.0009263728    1.471    0.320
       130  -7.4702    184.3670    186.2189   8.9844532300e+01   7.6666562108e+00    0.1763271    0.1321119 -50.29 0.0003137472    1.548    0.354
       131  -7.1895    113.2944     11.2843   5.6301100505e+01   5.5269598862e+01    0.1400216   0.09078513  31.19 0.0003100227    1.541    0.351
       132  -8.1203    136.8278    185.8392   9.9874202137e+01   1.6700311374e+01    0.1929049    0.1812403  28.28  0.000344973    1.142    0.125
       133  -7.4284    243.0005    184.9792   7.8523766642e+01  -2.6807640262e+00    0.1536331    0.1281774   2.41 0.0003282642    1.006    0.006
       134  -7.6269    205.0294    169.3607   8.2346383965e+01   6.6339212960e+00    0.1905116    0.1716147  29.08 0.0003773298    1.091    0.083
       135  -8.1284    191.4754    167.5025   8.4668320127e+01   9.6321547422e+00    0.2524527    0.1342437  53.82  0.001025773    2.231    0.552
       136  -8.1714     69.9291    166.5947   1.1227457506e+02   3.1918735934e+01    0.2091984    0.1612771 -66.37  0.001213156    1.247    0.198
       137  -7.6536    133.6998    147.6351   9.3373275648e+01   2.5445395570e+01    0.1532118    0.1207024 -11.94 6.197466e-05    1.728    0.421
       138  -9.1073     67.0590    144.6523   1.0977148647e+02   3.7469445279e+01    0.4551477    0.2865601  81.96  0.002180581    1.889    0.471
       139  -7.6624     15.3016    138.3611   1.2218280810e+02   4.4486267701e+01    0.1239045   0.07470471 -52.32 0.0007036733    1.722    0.419
       140  -8.1424      5.1439    133.6459   1.2424183262e+02   4.6324791480e+01    0.1363959    0.1113717 -11.56 0.0006560104    1.779    0.438
       141  -8.7079     12.1161    120.5608   1.2106777597e+02   4.8867696052e+01    0.2713534    0.1078341 -59.79  0.001335105    1.980    0.495
       142  -7.6534     99.2315    119.5382   9.6137232714e+01   3.8481370367e+01    0.2023452    0.1465946  21.57 0.0009356265    1.756    0.431
       143  -9.2897    207.2147    115.2200   6.9455708051e+01   1.5934240066e+01    0.2517686    0.2407747 -28.45 0.0002464515    1.015    0.015
       144  -7.3353    142.3678    111.7514   8.2673106572e+01   3.1560237172e+01    0.1578766     0.123782  80.63 0.0004990266    1.623    0.384
       145  -8.5871      1.5661    110.2484   1.2279099856e+02   5.1929931411e+01    0.1721123   0.08076584 -64.29 0.0007250473    1.597    0.374
       146  -7.9283    134.0270    106.4925   8.3387445339e+01   3.4540360653e+01    0.3397133    0.1946948 -27.85  0.001248569    2.364    0.577
       147  -8.0865    124.2071    107.2027   8.6169524201e+01   3.6485611806e+01    0.2550958    0.1713993  -2.91 0.0009371821    2.726    0.633
       148  -6.9574     76.2960    107.3080   9.9977450066e+01   4.5130556518e+01    0.1429336    0.1060144 -29.29 0.0003471637    1.589    0.371
       149  -7.9423    109.8186    106.3970   8.9917221059e+01   3.9569737911e+01    0.2114514    0.1466893  28.71 0.0009418937    1.694    0.410
