#   1 NUMBER                 Running object number                                     
#   2 MAG_AUTO               Kron-like elliptical aperture magnitude                    [mag]
#   3 X_IMAGE                Object position along x                                    [pixel]
#   4 Y_IMAGE                Object position along y                                    [pixel]
#   5 X_WORLD                Barycenter position along world x axis                     [deg]
#   6 Y_WORLD                Barycenter position along world y axis                     [deg]
#   7 A_WORLD                Profile RMS along major axis (world units)                 [deg]
#   8 B_WORLD                Profile RMS along minor axis (world units)                 [deg]
#   9 THETA_WORLD            Position angle (CCW/world-x)                               [deg]
#  10 FWHM_WORLD             FWHM assuming a gaussian core                              [deg]
#  11 ELONGATION             A_IMAGE/B_IMAGE                                           
#  12 ELLIPTICITY            1 - B_IMAGE/A_IMAGE                                       
         1 -15.0278     80.3137    207.8387   1.3733860980e+02   2.2646093927e+01     2.654298     1.331203  65.07   0.01366767    2.244    0.554
         2 -14.7248      6.6940     25.0931   1.2571595733e+02   6.8552541949e+01     1.533976    0.6709371 -50.04  0.007733333    1.668    0.400
         3 -12.7329     83.3509     22.4728   9.3793655033e+01   5.9478170258e+01    0.5327544    0.4291167 -22.28  0.001996041    1.195    0.163
         4 -13.2052    123.5521     10.4301   7.8190219838e+01   5.2348079979e+01     1.648165    0.7605798  68.91 0.0008236942    2.685    0.628
         5 -11.9871     75.2493     13.3621   9.2437721116e+01   6.2113537285e+01     0.377625     0.309619 -14.16  0.001064968    1.147    0.128
         6 -14.0321     96.2591      3.7313   8.1901055353e+01   5.9056454419e+01     1.755779    0.6559903  60.91  0.006822752    3.129    0.680
         7 -13.7986     85.8038     11.8344   8.8412782790e+01   6.0329101498e+01     1.511636    0.5125663  46.96  0.006159655    2.688    0.628
         8 -13.4712     86.6430      3.9080   8.4615074561e+01   6.1003228396e+01      1.21563    0.3751174  41.57  0.004704971    2.960    0.662
         9 -11.6441     64.1420     18.0715   9.8435437677e+01   6.3377102011e+01    0.3284398    0.2017931  35.09 0.0008661739    1.633    0.387
        10 -11.7995    137.6282      5.0018   7.3388739062e+01   4.9482629995e+01    0.5208393    0.2941322  47.57  0.002519483    1.571    0.364
        11 -12.5619     73.6598      2.3609   8.7841562589e+01   6.3634891964e+01    0.5536885    0.3225265 -30.10   0.00302866    1.756    0.430
        12 -11.3645     33.4233      4.0147   1.0427553430e+02   6.9577198266e+01    0.3082891    0.2030598   2.30  0.001029113    1.427    0.299
        13 -10.7896    209.3110    208.3270   1.1288214789e+02   1.5878041592e+00    0.1300194   0.08569498  12.34 0.0004611075    1.662    0.398
        14 -13.1740     79.8621    220.7197   1.3868256145e+02   2.0395699181e+01    0.8417701     0.376939  65.84  0.004019588    2.840    0.648
        15 -10.6536    140.7542    192.1992   1.2338531529e+02   1.6121911501e+01    0.4164212    0.1593202  51.47  0.001604667    2.879    0.653
        16 -10.8890    135.0209    187.5955   1.2383399298e+02   1.7947403624e+01    0.5444378    0.2454379 -62.98  0.002140779    3.380    0.704
        17 -10.6603    145.9436    197.9295   1.2323282596e+02   1.4219661672e+01    0.3871333    0.1932302  49.37  0.001840115    1.882    0.469
        18 -11.3796     44.6157    207.8652   1.4391731783e+02   2.7069232615e+01    0.2556996      0.15893 -85.80  0.001546746    1.443    0.307
        19  -9.8764    131.3011    235.6210   1.3102429150e+02   1.0499841421e+01    0.1182429   0.07819146  68.59 0.0007024892    1.768    0.434
        20 -12.6697     70.7896    186.9305   1.3696924155e+02   2.7926118578e+01    0.8717291    0.4491868  72.96  0.004188966    2.513    0.602
        21 -11.2778     35.8691    177.9157   1.4309515096e+02   3.3840735036e+01    0.2175106    0.1602027 -64.30  0.001506031    1.411    0.291
        22 -12.5688    189.4197    216.9851   1.1791835603e+02   3.7713213382e+00    0.9949108    0.5480773  57.03  0.004748859    2.550    0.608
        23 -10.7730     42.2068    176.0305   1.4164523599e+02   3.3554605824e+01    0.1942103    0.1504504  60.20  0.000941865    1.200    0.167
        24 -12.2161     71.8492    171.4756   1.3492058060e+02   3.0937708093e+01    0.5464417    0.3856194  72.68  0.003277279    1.397    0.284
        25 -12.4900     76.9540    161.9054   1.3252426378e+02   3.2267960351e+01    0.6824239    0.4629664  88.24  0.003792885    1.594    0.373
        26 -10.7655     83.3818    171.9939   1.3249223509e+02   2.9247037582e+01    0.3057725     0.201975 -88.27  0.001450513    1.671    0.402
        27 -11.2451     54.1045    170.7484   1.3863077850e+02   3.3305985376e+01    0.3734824    0.1829513  69.04  0.001769028    2.550    0.608
        28 -11.7652     46.6601    167.8858   1.3989976302e+02   3.4754918087e+01    0.4326661     0.224101  43.30  0.002437729    1.889    0.471
        29 -10.1087      9.4149    160.1708   1.4696281300e+02   3.9908222827e+01     0.177487   0.08384918  25.62  0.001008345    2.786    0.641
        30 -12.8502      9.3257    210.0448   1.5013768842e+02   3.0242871879e+01    0.3281632    0.2150621  59.85  0.002571175    1.239    0.193
        31 -11.3136      2.2936    208.7055   1.5122438078e+02   3.1105852718e+01    0.2456776    0.1720304 -72.18  0.001977347    1.513    0.339
        32 -11.6366     59.6525    146.1060   1.3430430726e+02   3.7940966734e+01    0.5447052    0.3470127  60.62  0.002806617    1.672    0.402
        33 -11.4209     51.6780    144.1194   1.3592665346e+02   3.9313924317e+01    0.3081998    0.1836474  51.74  0.001255858    1.745    0.427
        34 -12.1330     91.0971    144.4520   1.2647843469e+02   3.3996927804e+01    0.4594167    0.2510372  21.09  0.001855003    3.134    0.681
        35 -10.4309     40.8171    144.0099   1.3847864506e+02   4.0510709363e+01    0.1794319    0.1631217  69.59 0.0003350711    1.180    0.153
        36 -11.3617     76.3142    141.5159   1.2958054352e+02   3.6796322022e+01    0.4601803    0.3133999 -83.23  0.002456071    1.599    0.375
        37 -11.0759    109.5065    141.0189   1.2138093789e+02   3.1757887662e+01    0.2156012    0.1338913 -54.12  0.001032256    1.588    0.370
        38 -10.8193      6.1030    143.0901   1.4628376892e+02   4.3734733769e+01    0.1970349    0.1496635  46.81 0.0007046284    1.473    0.321
        39 -12.5870      9.9668    129.9536   1.4418458325e+02   4.6272284668e+01    0.3520486    0.2797073  28.87  0.001844772    1.612    0.380
        40 -11.6970     48.0425    130.1982   1.3485438217e+02   4.2813504750e+01    0.5140742    0.2397817  48.67  0.002483716    2.388    0.581
        41 -11.4302     55.1848    124.7190   1.3216406158e+02   4.3245456756e+01    0.3186956    0.2565517 -10.09  0.001002348    1.711    0.416
        42 -11.6728     50.2270    125.1046   1.3351746319e+02   4.3718587122e+01    0.4556047    0.2425876 -70.29  0.001201432    1.732    0.422
        43 -11.3376     46.2968    125.0600   1.3452956564e+02   4.4153482975e+01    0.2420779    0.1857751 -86.89  0.000588037    1.238    0.192
        44 -11.3354     81.6454    130.2519   1.2627639438e+02   3.8550402637e+01    0.2187297    0.1731794   2.67 0.0007602022    1.757    0.431
        45 -11.5174     67.6569    128.6089   1.2958106659e+02   4.0839820247e+01    0.2962919    0.2484615  29.90  0.001176149    1.390    0.281
        46 -11.1686     57.0250    119.9690   1.3087576240e+02   4.4102473720e+01    0.1878577    0.1622126 -69.31            0    1.006    0.006
        47  -9.2059    155.2766    118.2756   1.0531541421e+02   2.7578239584e+01    0.1465897    0.1175068   4.96 0.0006898992    1.494    0.331
        48  -9.2796    125.2889    114.2462   1.1155790265e+02   3.4605557751e+01     0.139295    0.1149717   1.70            0    1.470    0.320
        49 -11.1844     80.1583    109.7886   1.2255157713e+02   4.3351094617e+01    0.2294151    0.2110439 -60.69 0.0005609733    1.013    0.013
        50 -13.5090     17.5068    101.0724   1.3871029604e+02   5.2080334074e+01    0.4211007    0.3800289 -64.55  0.002258081    1.159    0.137
        51 -10.6817    120.3239    103.0049   1.0998474451e+02   3.7941060779e+01    0.2480846    0.1135593 -28.12 0.0007049676    4.300    0.767
        52  -9.9349     70.6933    103.0663   1.2375416813e+02   4.6185972767e+01    0.1841463    0.1577124 -53.97 0.0003473877    1.043    0.042
        53 -11.8316     58.9388     98.5490   1.2619982974e+02   4.8699199617e+01    0.4082095    0.2356594 -46.83  0.001603946    1.578    0.366
        54 -12.9544     55.4114     94.5919   1.2639734785e+02   4.9999223674e+01    0.5632133    0.4131029 -38.02  0.002102743    1.372    0.271
        55  -9.5588      5.9211     99.0000   1.4167136424e+02   5.3297604058e+01    0.1458459    0.0670046  19.96 0.0007891182    2.851    0.649
        56 -10.7502    188.4694     94.6035   9.1949557714e+01   2.4421297649e+01    0.3109054    0.2638237 -84.94  0.001140466    1.476    0.323
        57  -9.5611     95.8164     95.3945   1.1468525410e+02   4.4043432829e+01    0.1789316     0.136975  23.21 0.0003080122    1.503    0.335
        58 -10.3337     82.0650     95.5311   1.1868660714e+02   4.6222929332e+01    0.1984787    0.1383272  36.78 0.0005297568    1.572    0.364
        59 -10.5063     42.1638    101.1561   1.3164496767e+02   4.9958291147e+01    0.1976472    0.1498273 -48.64  0.001220306    1.222    0.181
        60 -10.9837    152.3485     88.3985   9.7963311120e+01   3.4006073828e+01    0.2599249    0.2511146  88.86  0.000475231    1.142    0.124
        61 -10.0602    249.8634     86.6130   7.9652707120e+01   1.1726677950e+01    0.1828688    0.1769341 -52.77  0.001121051    1.128    0.114
        62 -10.7602     89.5694     86.2775   1.1405768761e+02   4.7029019946e+01    0.3321801    0.1832748  44.83  0.001145906    2.018    0.504
        63 -10.8061    128.8657     83.1094   1.0218581636e+02   4.0216532208e+01    0.2530283    0.2197063  24.52 0.0004232114    1.188    0.158
        64 -10.3099     67.6732     81.3030   1.1941259566e+02   5.1369259562e+01    0.2275192    0.1546425  45.88  0.001012154    1.741    0.426
        65 -10.8716     42.2417     77.7858   1.2673494079e+02   5.5117036237e+01    0.2484174    0.1820068 -36.28 0.0008912719    1.312    0.238
        66 -10.7150    144.8257     73.9298   9.5427833886e+01   3.8378224352e+01    0.2467448    0.2161255  43.75 0.0003831451    1.148    0.129
        67 -12.8340     96.4919     71.9349   1.0779591993e+02   4.8774073275e+01    0.6350758    0.3522108  34.45  0.001137967    1.991    0.498
        68 -11.4130     83.2754     68.4544   1.1077207508e+02   5.1715319248e+01    0.2432855    0.2151756 -33.93 0.0003495173    1.038    0.037
        69  -9.5564     26.3121     69.3292   1.3012853761e+02   5.8364692520e+01    0.1288284   0.07324312 -38.34 0.0005561926    1.670    0.401
        70  -9.9485     61.3256     65.2933   1.1700087927e+02   5.5558911440e+01     0.134839   0.09278028 -21.00 0.0003201583    1.620    0.383
        71 -11.0657    214.6688     62.1053   7.8480532942e+01   2.3276899046e+01    0.4539968    0.3129746 -23.71  0.002196555    1.477    0.323
        72 -10.4403    135.3199     70.3601   9.6632346098e+01   4.1178182004e+01    0.1609523    0.1162778   7.77 0.0007043286    1.768    0.434
        73  -9.7239    135.6506     63.3232   9.4296366109e+01   4.2332310137e+01     0.152496    0.1206075 -74.66 0.0007048897    1.748    0.428
        74  -9.7668     51.0067     63.2160   1.1994403340e+02   5.7251022085e+01    0.1473108    0.1049768  25.48 0.0003407813    1.607    0.378
        75 -12.8862    125.6306     57.5312   9.4908253395e+01   4.5559094749e+01    0.3434987    0.3036889  17.65 0.0004963027    1.111    0.100
        76 -10.3644    174.6070     56.8356   8.3759641671e+01   3.3971974788e+01    0.2409454     0.196331  42.26 0.0004618401    1.221    0.181
        77 -11.9369     68.5494     55.2664   1.1136258432e+02   5.6542155906e+01    0.3483924    0.3372889  29.18  0.001378415    1.251    0.200
        78 -10.8423    133.0010     53.8391   9.1802312269e+01   4.4506489643e+01    0.3125137    0.2218025  40.06 0.0008700655    1.396    0.283
        79 -11.3716    145.4032     50.8908   8.7898410032e+01   4.2055509324e+01    0.3114238    0.2637871 -32.92 0.0006445022    1.197    0.164
        80 -12.9590      3.2927     47.0549   1.3336931470e+02   6.4492235564e+01    0.5357031    0.4200426  89.70   0.00187189    1.617    0.381
        81 -13.5093    180.5756    222.6616   1.2040058071e+02   4.4619395855e+00     1.877454     1.283784 -47.44   0.01148438    1.850    0.459
        82 -12.7741     42.5751     47.5240   1.1819708087e+02   6.1311413286e+01    0.4088057    0.2977886  23.32 0.0009272629    1.557    0.358
        83 -12.7301     42.0429     42.4852   1.1671415821e+02   6.2325547549e+01    0.6013159    0.3619296  -4.42  0.002582599    2.190    0.543
        84 -11.2145    210.4667     54.5884   7.7061205459e+01   2.5362421210e+01    0.2859367    0.2316283  38.46  0.000656091    1.318    0.241
        85 -10.6886    176.5474     45.4994   7.9929126161e+01   3.5112084381e+01     0.247563    0.2405147  48.20 0.0002787169    1.016    0.016
        86 -11.3881    157.0548     43.8584   8.3092838132e+01   4.0233024408e+01    0.3076497    0.2472228  21.10 0.0006296932    1.327    0.247
        87 -10.2646     95.6685     42.8888   9.8096909193e+01   5.4153655712e+01    0.1965124    0.1680603 -21.78 0.0005123551    1.097    0.088
        88  -9.6107    102.2075     42.0469   9.5837826824e+01   5.3008068823e+01    0.1891914    0.1071714 -31.25 0.0008594025    1.702    0.412
        89 -10.1602    197.1475     41.1435   7.5267888134e+01   3.0483949574e+01    0.2173625    0.1864951  38.04 0.0006741867    1.216    0.177
        90 -11.9453     41.8598     32.9120   1.1332269179e+02   6.4081447878e+01     0.439702    0.2437215  31.77  0.001383063    2.036    0.509
        91 -12.3366     79.1255     30.5759   9.8549056698e+01   5.9085949531e+01    0.4011132    0.3697504  42.52  0.001463874    1.346    0.257
        92 -10.3754    176.4005     33.5876   7.6272124105e+01   3.6704437262e+01    0.2643849    0.2232233  39.83 0.0007719146    1.183    0.155
        93 -11.4667     82.1637     34.3866   9.9078259330e+01   5.7974137366e+01    0.3680058     0.263423  19.16  0.001672058    1.434    0.303
        94 -12.1126    144.5235    207.4174   1.2492507472e+02   1.2855496019e+01     1.000486    0.5151523  27.90   0.00447975    2.594    0.614
        95 -12.1933     36.0203    207.0354   1.4538582633e+02   2.8164520095e+01    0.3580465    0.1628564  53.43  0.002147732    1.850    0.459
        96 -13.0427     25.6431    208.0093   1.4726483957e+02   2.9058069329e+01    0.3101902    0.2394396  47.67  0.002449872    1.394    0.282
        97 -12.2674    139.6508    221.8428   1.2782395202e+02   1.1317994441e+01    0.4605521    0.3797773   2.69  0.002486638    1.633    0.388
        98 -11.6050     53.0407    200.7144   1.4178805004e+02   2.7443589459e+01    0.3415423    0.2076803  86.10  0.001530218    1.559    0.358
        99 -12.5071     30.4308    204.4380   1.4619177221e+02   2.9233279875e+01    0.3568432    0.1901764  75.39  0.001840554    1.685    0.407
       100 -10.4742    242.6082     23.4510   6.5069765490e+01   2.1617466543e+01    0.2985266    0.1748182 -66.15  0.001458584    1.910    0.476
       101  -9.1661     93.3135     24.3254   9.1499591109e+01   5.7330944776e+01    0.1434723   0.09463515  13.57  0.000704191    1.664    0.399
       102 -10.3355    139.6909     20.7770   7.8685892943e+01   4.7412757330e+01    0.2445356    0.1710836  47.73 0.0005551915    1.314    0.239
       103 -12.9495    164.3891    223.6817   1.2350601818e+02   6.9988086225e+00     1.442932    0.7856402  54.48    0.0074978    2.005    0.501
       104 -10.0326     37.3956     16.7451   1.0853711075e+02   6.7261781235e+01    0.1774282   0.09063609 -30.48 0.0009542927    1.677    0.404
       105 -11.6098     30.8148    194.6968   1.4542597988e+02   3.1040358466e+01    0.3528501    0.1465707 -89.24  0.001796348    2.568    0.611
       106 -11.6447    145.4860    218.1659   1.2624737464e+02   1.0951863704e+01    0.4693572    0.3456689 -82.75  0.002811694    1.892    0.471
