#   1 NUMBER                 Running object number                                     
#   2 MAG_AUTO               Kron-like elliptical aperture magnitude                    [mag]
#   3 X_IMAGE                Object position along x                                    [pixel]
#   4 Y_IMAGE                Object position along y                                    [pixel]
#   5 X_WORLD                Barycenter position along world x axis                     [deg]
#   6 Y_WORLD                Barycenter position along world y axis                     [deg]
#   7 A_WORLD                Profile RMS along major axis (world units)                 [deg]
#   8 B_WORLD                Profile RMS along minor axis (world units)                 [deg]
#   9 THETA_WORLD            Position angle (CCW/world-x)                               [deg]
#  10 FWHM_WORLD             FWHM assuming a gaussian core                              [deg]
#  11 ELONGATION             A_IMAGE/B_IMAGE                                           
#  12 ELLIPTICITY            1 - B_IMAGE/A_IMAGE                                       
         1 -15.0584      7.4379    138.6806   1.4218240092e+02   4.5639073638e+01     6.846752     1.433923 -75.31   0.02031508    5.668    0.824
         2 -13.2651    197.6613     29.7926   6.7764783868e+01   3.2512071901e+01     1.338953     1.286308  -1.97  0.007188004    1.311    0.237
         3 -13.3837    213.7224      9.6347   6.1102689770e+01   3.1004975999e+01     1.050961    0.8427759  47.39  0.006537705    1.538    0.350
         4 -12.2751      3.1115      7.1132   1.1379113963e+02   7.1533487403e+01    0.8624211    0.2420154 -39.74   0.00446715    2.690    0.628
         5 -11.7423     99.4560    248.0215   1.3496180517e+02   1.0472352847e+01    0.3698319    0.3376292  79.52  0.002621558    1.244    0.196
         6 -12.2982    246.6426    247.7577   1.0748888156e+02  -1.3594264762e+01    0.6700315    0.4688794   9.39   0.00440204    1.275    0.216
         7 -11.4046    138.8056    248.3615   1.2762361681e+02   3.9423381087e+00    0.3945625    0.2479855 -51.95  0.002236318    1.905    0.475
         8 -11.8133    121.9641    250.1548   1.3102009560e+02   6.4561069529e+00    0.5379368    0.2131036  42.08  0.002459154    2.149    0.535
         9 -10.7756     46.5873    249.1718   1.4440143896e+02   1.7830280430e+01    0.2672469    0.1565085  78.13  0.001170023    1.441    0.306
        10 -10.9506     29.1751    248.6595   1.4723477773e+02   2.0064305408e+01    0.3285095    0.2077456 -72.25 0.0008769726    1.605    0.377
        11 -11.6721     35.2869    245.0211   1.4599239746e+02   2.0020734650e+01    0.6051356    0.3066086 -71.03   0.00371852    1.870    0.465
        12 -11.1374      3.7762    250.0846   1.5128376325e+02   2.2596437153e+01    0.4634562    0.2117354  57.22  0.001595103    1.652    0.395
        13 -11.1472     11.2799    249.1209   1.5008921769e+02   2.1986571844e+01    0.3080597     0.133617  59.93  0.001908908    1.763    0.433
        14  -9.6602     66.5541    250.0630   1.4105841086e+02   1.4988842203e+01    0.1767306    0.1255597  59.49 0.0004595185    1.132    0.116
        15 -10.3178    111.6136    250.3058   1.3296463024e+02   8.1211386863e+00    0.2351918    0.1224248  52.65  0.000805136    1.606    0.377
        16  -9.7809     22.4974    245.5135   1.4811474170e+02   2.1424641749e+01     0.111281   0.07774855  75.53 7.444192e-05    1.010    0.010
        17 -11.0208     18.8059    241.4934   1.4846507744e+02   2.2598196015e+01    0.2121451      0.20067 -56.77  0.001721895    1.827    0.453
        18 -11.5925     12.6029    239.9795   1.4937293255e+02   2.3558390060e+01    0.3311876    0.1409737  47.72  0.002010881    1.980    0.495
        19 -11.0249      5.7030    240.9374   1.5051774347e+02   2.4096709233e+01     0.214444    0.1974781 -28.24 0.0007839074    2.151    0.535
        20 -11.2872    119.6449    237.9817   1.2998259311e+02   9.0384226547e+00     0.393347    0.2009921 -79.27  0.001587201    3.338    0.700
        21 -10.8206    155.6410    249.8679   1.2462691010e+02   8.1958758197e-01    0.3238233    0.1266067  39.21  0.001411852    2.252    0.556
        22 -10.7832     50.3993    235.3097   1.4266118234e+02   2.0005362340e+01    0.2717806    0.1862303  81.97  0.000996997    1.183    0.155
        23 -14.2493    105.7841    229.8475   1.3168298259e+02   1.2901581626e+01     6.724786          nan  44.56  0.009712764   20.330    0.951
        24 -13.3958     50.7317    206.9732   1.4002549753e+02   2.5829092044e+01      2.74317    0.8115514  59.34  0.008329071    5.717    0.825
        25 -12.3744      9.8835    207.0444   1.4775232897e+02   3.0407425997e+01    0.5759954    0.4215603  29.42   0.00301163    1.957    0.489
        26 -11.5609     58.7604    198.6015   1.3751497538e+02   2.6610993948e+01    0.2993753    0.2291045 -73.75  0.000517923    1.223    0.182
        27 -11.0756     11.2561    194.8451   1.4660978452e+02   3.2851773138e+01    0.2489834    0.1666316  65.06 0.0007125395    1.314    0.239
        28  -9.4480    191.9749    193.2271   1.0799693497e+02   4.1228162064e+00    0.3926139    0.1962835 -61.25  0.001288617    3.861    0.741
        29 -11.9023     65.2962    190.1420   1.3513306992e+02   2.7618332473e+01    0.2890083    0.2356543 -66.50 0.0004706387    1.260    0.206
        30 -11.1352      2.0222    183.5105   1.4751482536e+02   3.6116527347e+01    0.4322521    0.1359145 -78.82  0.001979961    2.607    0.616
        31 -12.6092     46.5537    214.9715   1.4159953591e+02   2.4652138341e+01    0.8270193    0.6192752 -81.33  0.004313721    1.200    0.167
        32 -10.6938     75.8287    177.3127   1.3105807438e+02   2.9062649849e+01    0.2420632    0.2036907 -85.28 0.0003097862    1.041    0.039
        33 -13.1064     62.4051    175.3550   1.3386034027e+02   3.1419224215e+01    0.5199566    0.2789131 -46.71  0.001854728    2.303    0.566
        34 -10.0025     96.1899    172.9754   1.2562926656e+02   2.6865165831e+01    0.2364357    0.2039502  50.24 0.0003726655    1.195    0.163
        35 -11.7127     83.5144    168.2698   1.2787140632e+02   3.0021350270e+01    0.6143169    0.5927842  13.82  0.003736646    1.315    0.240
        36 -12.7515     31.4717    232.2713   1.4574015878e+02   2.2947588815e+01    0.3042272    0.2272286 -75.65 0.0007662857    1.387    0.279
        37 -13.8295     36.4994    225.5968   1.4435531735e+02   2.3689020390e+01    0.7747411    0.5438948  67.44  0.002384488    1.138    0.121
        38 -10.3172     96.5048    152.3857   1.2188165009e+02   3.1687887099e+01    0.3283768      0.27289 -51.19  0.000818309    1.225    0.183
        39  -8.9584     99.6476    148.0931   1.2024781120e+02   3.2171063185e+01    0.2059236    0.1737807 -58.14 0.0004085746    1.138    0.121
        40 -11.9856     85.0364    151.4406   1.2460993760e+02   3.3792231317e+01    0.3125996    0.2438602 -48.80 0.0005599294    1.325    0.245
        41 -12.1530     67.5423    143.6591   1.2771114203e+02   3.8237657701e+01    0.6723996    0.4413717  69.05  0.002731855    1.836    0.455
        42 -12.1566     10.3118    232.2089   1.4929024780e+02   2.5293960927e+01    0.4011744    0.2466625  85.12  0.002213776    1.204    0.169
        43  -9.7620    108.7047    137.5255   1.1570353275e+02   3.3051858510e+01    0.4415942    0.2783446 -25.06   0.00160893    2.623    0.619
        44 -10.4037     95.8077    134.6337   1.1847755825e+02   3.6033266018e+01    0.2642345     0.221084 -41.09 0.0005355027    1.258    0.205
        45  -9.3555     76.5567    129.5605   1.2262467494e+02   4.0309155157e+01    0.2705515    0.1842774  76.63 0.0007592643    1.959    0.490
        46 -11.8230     26.0128    128.5224   1.3616836826e+02   4.6470236682e+01    0.6629226    0.2423276  49.80  0.002395002    3.774    0.735
        47 -11.5939     20.9731    125.9942   1.3713117641e+02   4.7477409878e+01    0.4079146    0.2029625  56.47   0.00182586    2.662    0.624
        48 -10.3770     82.7890    125.4178   1.2003482174e+02   4.0338841889e+01    0.3309968    0.2231747  63.61 0.0009585027    1.865    0.464
        49  -8.9441    106.2107    123.9712   1.1328665503e+02   3.6680651625e+01    0.1958464    0.1816924 -57.66 0.0002520721    1.027    0.027
        50 -10.3434    167.8994    113.0178   9.5144884164e+01   2.5853830794e+01    0.3269333    0.2720323 -77.42 0.0005654506    1.350    0.259
        51 -10.5322     42.3005     96.9446   1.2573232988e+02   5.2082706389e+01    0.4311363    0.2277019  51.01  0.002000697    2.723    0.633
        52 -11.2555    243.0927     92.6115   7.6450417237e+01   1.2228318875e+01    0.3204079    0.2388009 -16.12    0.0015268    1.800    0.444
        53  -9.3914     81.5196    249.0151   1.3832124048e+02   1.3028933183e+01    0.1673299   0.08597381  81.77  0.000571584    2.442    0.591
        54  -9.8472    158.4895     76.9866   8.7458471100e+01   3.5101551139e+01    0.2269598    0.1502398 -37.85 0.0006043853    1.552    0.356
        55  -9.7285     47.7417     70.0676   1.1719670455e+02   5.7099657627e+01    0.2280218    0.1666395  47.40 0.0007536235    1.804    0.446
        56  -8.5631    152.4861    212.9896   1.1974984806e+02   7.9478523049e+00    0.1815616    0.1388276 -53.73 0.0003391045    1.443    0.307
        57 -12.8099      5.6340     50.9232   1.2740125984e+02   6.4299471031e+01    0.5731462    0.5237775 -50.46  0.002017137    1.298    0.230
        58 -12.4671      3.0912     40.3206   1.2548614929e+02   6.6348893208e+01    0.5210949     0.350226 -59.26  0.003632923    1.541    0.351
        59 -10.5210    209.1777    246.7068   1.1406698752e+02  -7.7173346753e+00    0.2324869    0.1500626  -3.12  0.001243363    2.077    0.519
        60 -11.3822    198.5778    245.4246   1.1583967986e+02  -5.7921633768e+00    0.2738977    0.2570179 -73.20  0.001878392    1.428    0.300
