#   1 NUMBER                 Running object number                                     
#   2 MAG_AUTO               Kron-like elliptical aperture magnitude                    [mag]
#   3 X_IMAGE                Object position along x                                    [pixel]
#   4 Y_IMAGE                Object position along y                                    [pixel]
#   5 X_WORLD                Barycenter position along world x axis                     [deg]
#   6 Y_WORLD                Barycenter position along world y axis                     [deg]
#   7 A_WORLD                Profile RMS along major axis (world units)                 [deg]
#   8 B_WORLD                Profile RMS along minor axis (world units)                 [deg]
#   9 THETA_WORLD            Position angle (CCW/world-x)                               [deg]
#  10 FWHM_WORLD             FWHM assuming a gaussian core                              [deg]
#  11 ELONGATION             A_IMAGE/B_IMAGE                                           
#  12 ELLIPTICITY            1 - B_IMAGE/A_IMAGE                                       
         1 -13.2585    236.8731     24.0610   9.6706513219e+00   2.6989914828e+01    0.7020078    0.5146941 -58.86  0.005190465    1.050    0.048
         2 -11.5937      9.4471     10.6671   6.2282437518e+01   7.6074074229e+01     0.241844    0.1865201  61.01  0.001135239    1.921    0.480
         3 -12.2548      1.9335      7.3435   6.7520525850e+01   7.7391641281e+01     1.025951    0.1513125 -56.68  0.003312176    5.983    0.833
         4 -10.1967     72.1965      6.3883   2.5851558354e+01   6.5040531527e+01    0.1873013    0.1095821  72.79 0.0007458458    1.668    0.401
         5 -10.1336     68.1938    246.0425   8.0597076764e+01   1.3866365819e+01    0.2879472    0.2121162  75.44  0.001590882    1.629    0.386
         6  -9.3724    100.9684    250.5571   7.3370812258e+01   9.4007388054e+00    0.1795849    0.1001207  25.64 0.0001176114    1.447    0.309
         7  -9.8828     75.6641    245.6619   7.8793438884e+01   1.3123125655e+01     0.226831    0.1655757 -64.48  0.001111536    1.663    0.399
         8 -15.9537     56.3986    230.7683   8.2286576137e+01   1.8223704355e+01     4.840178     3.104267 -35.84   0.02550116    2.064    0.516
         9 -12.0611     81.4788    220.7100   7.5038745318e+01   1.7463498907e+01    0.5019503    0.2562502  43.30 0.0006955642    1.796    0.443
        10 -10.1897     90.0230    217.4464   7.2529238051e+01   1.7100131028e+01    0.2303857    0.1786423 -36.03 0.0004857875    1.478    0.323
        11 -12.0731     87.6739    220.6042   7.3466217039e+01   1.6731710173e+01    0.4782725    0.3157293  62.82  0.002473549    1.864    0.463
        12 -11.6748     98.1146    223.3405   7.1184170071e+01   1.4887599717e+01    0.3465004    0.2251245 -80.92  0.001362101    2.172    0.540
        13 -10.2224    174.4916    223.4982   5.4398143760e+01   5.5722007330e+00     0.118564   0.09785938  -2.08 0.0008106363    1.001    0.001
        14 -14.8203     20.6885    195.4971   8.9379404469e+01   2.9851199249e+01     1.389783    0.8818806  62.19  0.003580763    1.485    0.326
        15 -11.1439     71.7859    224.8095   7.7896503812e+01   1.7749159631e+01    0.3033026    0.1752629  28.81  0.001144745    1.450    0.310
        16 -15.5197     29.9856    248.4825   8.9822428837e+01   1.7269464928e+01     2.045111    0.8693401  35.92   0.01043724    1.710    0.415
        17 -15.8635      9.5199    206.5243   9.3027901641e+01   2.8177442865e+01     1.124904    0.6463371   7.04  0.005589998    2.035    0.509
        18  -9.5129    210.9706    198.6845   4.4187183306e+01   5.3202126045e+00     0.151259    0.1259331  -1.58 0.0004501618    1.115    0.104
        19 -11.2040     69.0862    194.2574   7.5488834338e+01   2.4900561884e+01    0.3850449    0.2596503  77.16  0.001241663    1.793    0.442
        20 -16.0753      4.1052    245.8724   9.5750436671e+01   2.0066677370e+01     1.171947    0.4861611  38.61  0.006175358    1.709    0.415
        21 -11.6326    107.4986    192.9796   6.4973707618e+01   2.0020983094e+01    0.2787163    0.2315607 -41.98  0.001481301    1.291    0.226
        22 -11.1738     72.8229    187.2874   7.3617446715e+01   2.6076712102e+01    0.3978339     0.252766  65.04 0.0007647146    1.872    0.466
        23  -9.5186     59.3981    185.3092   7.7266847005e+01   2.8254079802e+01    0.1797699    0.1348515  86.49 0.0002836692    1.469    0.319
        24  -9.0448     78.6266    184.2486   7.1585064449e+01   2.6031130820e+01    0.1537926   0.09583996  50.80 0.0005569532    1.634    0.388
        25 -10.1621     62.9901    181.2172   7.5743462855e+01   2.8813864222e+01    0.2326928    0.2031635 -84.31 0.0007131809    1.216    0.178
        26 -10.5563    173.3799    178.1762   4.7607041421e+01   1.3482266304e+01    0.1786736    0.1159875 -54.35 0.0009541641    1.724    0.420
        27 -10.0427     96.6505    175.1130   6.5233933875e+01   2.5631085552e+01    0.2369855    0.1845034  45.55 0.0005553332    1.243    0.195
        28  -9.6140     75.0702    175.3821   7.1440273048e+01   2.8658886615e+01    0.2067627     0.170234  39.37 0.0005726245    1.114    0.102
        29 -18.0142      5.8043    225.6366   9.4718475077e+01   2.4166187962e+01     6.287123     3.155181 -75.27   0.01835248    2.161    0.537
        30 -10.3152    102.9294    239.0430   7.1751208350e+01   1.1270971353e+01    0.2050222    0.1790399 -50.85 0.0004974333    1.359    0.264
        31 -10.8360    180.9876    170.3178   4.4802462980e+01   1.3814447141e+01    0.1769085    0.1602175  -1.86 0.0008005458    1.074    0.069
        32 -10.8008    100.9690    167.9005   6.2904722001e+01   2.6665081040e+01    0.4125957    0.2181192 -39.88  0.001671756    2.293    0.564
        33 -10.0264    110.5019    166.9641   6.0158916749e+01   2.5390597550e+01    0.2121252    0.1446493 -57.97 0.0005148386    1.556    0.357
        34  -9.6748     41.0704    167.4783   8.0958019574e+01   3.4895913776e+01    0.2146655    0.1342434  27.23  0.000447988    1.504    0.335
        35 -12.9980     71.1861    159.2150   7.0330431549e+01   3.3234897706e+01    0.9951357    0.7413307 -16.65  0.003429814    1.722    0.419
        36 -13.7321     69.7991    144.7959   6.8519197187e+01   3.7121905236e+01     1.487148    0.7681397  60.47  0.003692502    2.658    0.624
        37 -11.8412     87.5213    162.0258   6.5799520088e+01   3.0134978461e+01     0.710133    0.4072454  71.65  0.002631892    2.864    0.651
        38 -11.6329     80.4025    163.3660   6.8128439044e+01   3.0866664896e+01    0.5164341    0.3546403  -1.83  0.002262256    1.980    0.495
        39  -9.5772     32.5660    163.6804   8.3324568719e+01   3.6780575665e+01    0.2490254    0.1413998  45.66 0.0005086588    1.628    0.386
        40  -9.3839     95.6452    160.8544   6.3245400600e+01   2.9165013766e+01    0.2038373    0.1412584 -76.00 0.0004614712    1.729    0.422
        41 -10.8978     35.3420    157.3366   8.1769038737e+01   3.8164898487e+01    0.7575253    0.2170328  44.01  0.002448547    3.208    0.688
        42 -11.8347     23.1420    155.0316   8.5660450416e+01   3.9958472381e+01     1.110785    0.3485021 -79.52  0.003664651    3.427    0.708
        43 -10.4705     28.5514    155.5157   8.3871983226e+01   3.9327936415e+01    0.2597649    0.2018852 -82.54 0.0005447855    1.287    0.223
        44 -11.5463     27.5627    151.8652   8.3852721485e+01   4.0392567615e+01    0.5716083     0.290243  49.46  0.002428718    1.919    0.479
        45 -10.8837     52.2152    155.6047   7.5937116443e+01   3.6692174224e+01    0.3598927    0.2217402  16.99  0.001587352    1.758    0.431
        46 -10.5144     89.5642    151.7381   6.3479758796e+01   3.2339786261e+01     0.410894     0.262745  69.63  0.001050223    2.138    0.532
        47 -11.6543     87.3416    145.7948   6.3107239546e+01   3.4161916250e+01    0.5351304    0.3928025 -12.61  0.001415666    1.857    0.462
        48 -10.3234     81.1343    150.8151   6.5896663424e+01   3.3887441959e+01    0.2473199     0.226684  51.08 0.0003862926    1.042    0.041
        49 -11.5584     53.8586    147.5311   7.4283873027e+01   3.8604500170e+01     0.553183    0.3453132  84.32  0.002015437    1.958    0.489
        50 -11.3607    133.2461    145.2858   5.0362586686e+01   2.6419580201e+01    0.7391289    0.2740932 -55.55  0.002556378    3.073    0.675
        51  -8.8688     43.2573    149.2515   7.8146435033e+01   3.9440000163e+01    0.1361961     0.110378 -30.55            0    1.427    0.299
        52 -10.7596    108.8903    145.3645   5.6720460743e+01   3.0657465562e+01    0.2767822    0.2649172  33.77 0.0006729509    1.036    0.035
        53 -10.5234    107.0051    233.5032   7.0200171641e+01   1.1827831382e+01    0.1754851    0.1680219  -8.05 0.0003714194    1.172    0.147
        54 -10.4502     36.8074    142.4912   7.9567938505e+01   4.1962476230e+01    0.3438773    0.2682107 -62.90  0.001769677    1.303    0.233
        55 -10.7348     56.3641    141.9207   7.2596411955e+01   3.9753709428e+01    0.2600278     0.196081  43.13 0.0007728722    1.255    0.203
        56  -9.3477    127.4857    137.4671   5.0224044520e+01   2.9151063580e+01     0.144091    0.1391297  73.66 4.501733e-05    1.042    0.040
        57  -9.5803     45.5084    135.8674   7.5540127764e+01   4.2739282193e+01    0.2113531    0.1466222 -72.80  0.000385231    1.475    0.322
        58 -11.7814    104.3945    131.6143   5.5259966946e+01   3.4679205358e+01    0.6362885    0.4930861  -4.03   0.00269793    1.751    0.429
        59 -11.3848     89.5969    132.3025   5.9858455140e+01   3.7119168219e+01    0.2753979    0.2666337 -50.75 0.0003147181    1.089    0.082
        60 -10.3549     43.6029    130.2997   7.5418609129e+01   4.4454271602e+01    0.3455396    0.2187667  59.23  0.001528765    1.725    0.420
        61 -11.6479     63.4928    129.5306   6.8042904523e+01   4.1999519115e+01    0.3519486    0.2535858  35.44  0.001112065    1.322    0.243
        62 -11.4193     66.4909    126.7239   6.6468389641e+01   4.2278065110e+01    0.4799567    0.3563482  81.09  0.002011776    1.577    0.366
        63  -9.6805    149.5819    128.7631   4.3226180272e+01   2.6931980526e+01    0.2018848    0.1288162 -59.57 0.0009436109    1.722    0.419
        64 -10.0026    111.0583    126.6611   5.2318943309e+01   3.4608872312e+01    0.2153311    0.1897701  35.30 0.0006549641    1.150    0.130
        65  -9.7885     21.1384    127.1224   8.3594452379e+01   4.7619551841e+01    0.2075956    0.1902207 -36.48 0.0003434288    1.165    0.142
        66 -10.2525    135.2142    125.2293   4.5752292938e+01   3.0357290452e+01    0.2310207    0.1123979 -58.65 0.0005390092    2.453    0.592
        67  -9.9359     48.5060    123.8098   7.2539735148e+01   4.5571179061e+01    0.2537255    0.1895412  54.98 0.0009361592    1.364    0.267
        68 -10.2413     98.4641    121.5925   5.4885382501e+01   3.8128578263e+01    0.2883272    0.2421648   5.94 0.0006194247    1.455    0.313
        69 -10.6280     56.1457    118.9034   6.8774528439e+01   4.5826189036e+01    0.4327841    0.1761051  39.05  0.001576601    2.270    0.559
        70  -9.6733     44.3732    118.0197   7.3155223516e+01   4.7626054559e+01    0.3045334    0.1800977  51.39  0.001303526    1.790    0.441
        71  -9.0888    107.5141    116.4194   5.1057048531e+01   3.7626166715e+01    0.1489717    0.1431206  56.62 7.352567e-05    1.031    0.030
        72  -9.9328     39.6808    113.1204   7.4196292153e+01   4.9489884452e+01    0.2499442    0.1871051  38.21 0.0004243815    1.290    0.225
        73 -11.6238     30.5812    108.7930   7.7265155009e+01   5.1641680055e+01    0.7541184    0.2352895  38.61  0.002557046    2.936    0.659
        74 -11.3487     23.9302    105.0466   7.9550530984e+01   5.3280246480e+01    0.3936543    0.3260067 -28.09  0.001183116    1.290    0.225
        75 -10.3427     54.8912    109.8280   6.7488262464e+01   4.8354508248e+01    0.2200663    0.1683816  55.05  0.001067265    1.346    0.257
        76 -10.4367     33.4242     97.7421   7.4109444338e+01   5.4231909651e+01    0.3054175    0.2084345  58.19 0.0009463035    1.633    0.387
        77  -9.0203     63.3225     95.3077   6.0934233695e+01   5.0692979251e+01    0.1516917    0.1177697 -16.35 0.0004812315    1.645    0.392
        78 -11.5265     20.5193    108.5319   8.1534887530e+01   5.2656519730e+01    0.5408583    0.3091519 -33.29  0.002355208    2.046    0.511
        79 -11.1905     58.1128     93.5439   6.2593884843e+01   5.1961740969e+01    0.4754571    0.2524743  32.79  0.001306091    1.817    0.450
        80 -10.9452     20.3591     93.2227   7.9309990853e+01   5.6693616141e+01    0.2431079    0.1778197 -87.83 0.0001585906    1.471    0.320
        81  -9.3708    102.3130     91.6178   4.6490827713e+01   4.4178015644e+01      0.15967    0.1153311  86.89 0.0001440323    1.810    0.448
        82 -10.2515     15.4419     89.4703   8.1056891556e+01   5.8063364327e+01    0.2629453    0.1028712  31.46  0.001031586    2.378    0.579
        83 -10.8228     45.5446     86.5138   6.6274140391e+01   5.5551908016e+01    0.4857948    0.1980518  45.01  0.001411354    2.621    0.618
        84  -9.9032     32.6313     86.7647   7.2286680159e+01   5.7121906443e+01     0.250708    0.1540026  45.37 0.0006751182    1.690    0.408
        85 -12.0983    109.9185    229.2629   6.9036336833e+01   1.2280759534e+01    0.4590065    0.1858725  22.76  0.001940226    2.360    0.576
        86 -10.7888     55.4944     83.9521   6.1278461533e+01   5.4687461566e+01    0.3373524    0.2039981  41.26 0.0007147725    1.580    0.367
        87 -10.1427     51.4687     83.5634   6.2917414469e+01   5.5405026604e+01    0.2259795    0.2038839 -86.22 1.809965e-05    1.193    0.162
        88 -10.6809     21.3727     82.2341   7.6865078963e+01   5.9412203951e+01    0.2586327    0.2039783  35.81 0.0005223806    1.270    0.213
        89  -9.1488     85.6871     74.3124   4.6916296334e+01   5.1270094635e+01    0.1510875    0.1136499  80.42 0.0003296132    1.634    0.388
        90 -11.7560    188.2522     62.6408   2.1857073192e+01   3.1019232764e+01    0.3038057    0.2667804 -72.54 0.0007426889    1.080    0.074
        91 -10.9706     13.6223     60.2216   7.6471917450e+01   6.5439749430e+01    0.2207928    0.1991395  60.54 0.0006459986    1.242    0.195
        92 -12.5274    157.4435    226.0818   5.8146922489e+01   7.1177529242e+00    0.5067752    0.2255854  31.42  0.002537018    2.023    0.506
        93 -13.6142    204.8089     50.7640   1.7437404025e+01   2.9467856046e+01    0.9380312    0.7680051  34.85  0.004965375    1.917    0.478
        94 -12.7960    211.0542     46.0825   1.5872387922e+01   2.8913360246e+01     0.561253    0.4638158 -55.49 0.0009736661    1.149    0.130
        95 -10.5556     90.9166     44.6941   3.5592321932e+01   5.5613814031e+01    0.3652237    0.2534631  23.27  0.001695172    2.187    0.543
        96 -11.1587      9.8354     41.5614   7.4076667278e+01   6.9966721678e+01    0.3220905     0.106969  22.70  0.001293913    2.695    0.629
        97  -9.8004     97.3298    232.3173   7.2357691997e+01   1.3210050426e+01    0.1306793   0.09234232 -11.18 0.0006013545    1.683    0.406
        98 -10.3574    164.9577    248.0469   5.9510123802e+01   2.7942351719e+00    0.1903158    0.1164073  -9.59  0.001137199    1.707    0.414
        99  -9.7754     60.5009     21.4442   3.6821205210e+01   6.5819672722e+01    0.1337429    0.1155383  51.01 0.0001312986    1.008    0.008
       100 -10.6888    145.1052    248.1650   6.3511036817e+01   4.8942452811e+00    0.1755431    0.1341037  -1.93 0.0003868362    1.181    0.153
       101  -9.6996    125.0045    243.8659   6.7291886986e+01   7.8527016827e+00    0.1914079    0.1664248 -37.63 0.0009718452    1.321    0.243
