#   1 NUMBER                 Running object number                                     
#   2 MAG_AUTO               Kron-like elliptical aperture magnitude                    [mag]
#   3 X_IMAGE                Object position along x                                    [pixel]
#   4 Y_IMAGE                Object position along y                                    [pixel]
#   5 X_WORLD                Barycenter position along world x axis                     [deg]
#   6 Y_WORLD                Barycenter position along world y axis                     [deg]
#   7 A_WORLD                Profile RMS along major axis (world units)                 [deg]
#   8 B_WORLD                Profile RMS along minor axis (world units)                 [deg]
#   9 THETA_WORLD            Position angle (CCW/world-x)                               [deg]
#  10 FWHM_WORLD             FWHM assuming a gaussian core                              [deg]
#  11 ELONGATION             A_IMAGE/B_IMAGE                                           
#  12 ELLIPTICITY            1 - B_IMAGE/A_IMAGE                                       
         1 -11.6082     12.9503     73.9011   9.2279897285e+01   6.2114191546e+01     1.992308    0.8904173  89.30   0.00774354    2.574    0.612
         2 -12.6319    120.0513     37.5251   3.4778183703e+01   5.0329700882e+01    0.9234927    0.4975633 -51.76  0.001915693    2.046    0.511
         3 -13.1888    163.9799     18.7772   2.1446362791e+01   4.1415337687e+01    0.4867817    0.3422229  34.42  0.002502602    1.916    0.478
         4 -12.2621    164.3602     27.6796   2.4149555145e+01   4.0299251471e+01    0.3141964    0.2743923  85.52 0.0004328496    1.118    0.105
         5 -11.0355    105.5987      2.7115   2.3158562368e+01   5.8276123533e+01    0.4677973    0.2815038 -58.41  0.001727602    1.796    0.443
         6 -12.2788    105.9339     20.9190   3.1175840479e+01   5.6267358027e+01    0.4571681    0.3586797 -75.31 0.0008646059    1.348    0.258
         7 -11.8976     26.5527     28.1271   7.0267438582e+01   7.2275786349e+01    0.5816206    0.3457477 -54.53  0.001990328    1.686    0.407
         8 -12.2143     20.2801     21.8460   7.2061757630e+01   7.4381718446e+01    0.6722607    0.4870072 -33.95  0.002013045    1.335    0.251
         9 -11.2784      6.1628     10.3669   7.9462034398e+01   7.8183297381e+01    0.5881704    0.3932054  22.33  0.002920961    1.507    0.337
        10 -10.3554     12.4121      8.2994   7.1493933569e+01   7.8038180627e+01    0.4575296    0.3155471  89.04  0.002236742    2.696    0.629
        11 -12.2445     16.3507     14.2973   7.1349585343e+01   7.6400328179e+01    0.7309792    0.4021942 -25.72    0.0031543    2.189    0.543
        12 -11.6958     22.6667     11.1551   6.3598254513e+01   7.6211284490e+01     0.458277    0.3163399   5.92  0.001787823    1.638    0.390
        13 -11.8610    145.7878     23.9909   2.5345420799e+01   4.5427147909e+01     1.049254    0.3201762  50.86  0.003403032    3.744    0.733
        14 -10.6437    148.2280     16.3240   2.2428027804e+01   4.5665143168e+01    0.5375535    0.2983593  42.26  0.002366428    2.316    0.568
        15 -10.2455    119.6967     16.2205   2.6509050141e+01   5.3169885443e+01    0.5218183    0.2102221  59.75  0.001541709    2.206    0.547
        16 -11.4724    122.3372      5.1868   2.1674371540e+01   5.3582285301e+01    0.3092109    0.2484494 -21.42 0.0003220346    1.399    0.285
        17 -10.9177    121.4413     11.6563   2.4392562410e+01   5.3192666596e+01     0.414499    0.3198025 -83.34  0.001472794    1.245    0.197
        18 -11.6628    135.6459     22.4042   2.6270324907e+01   4.8249803942e+01    0.8583905     0.393328  59.15  0.003584072    2.047    0.512
        19 -10.6024    127.1641     11.8617   2.3609079076e+01   5.1650217022e+01    0.3508593    0.2702945 -72.39  0.001459991    1.254    0.203
        20 -11.3350    134.7179     14.8885   2.3671911848e+01   4.9337355815e+01    0.6548501    0.3289239  68.69  0.002894905    1.826    0.452
        21 -10.6295    127.4885     16.3729   2.5291464333e+01   5.1085389505e+01    0.3443038    0.2367755  69.84  0.001058951    1.347    0.258
        22 -11.9958     48.4813     13.0330   4.6932540282e+01   7.1297237305e+01    0.8364151    0.3108597  50.30  0.003221218    2.544    0.607
        23 -11.8219     35.4131     18.3514   5.8402962831e+01   7.2905864734e+01    0.6733591    0.3016936 -33.14  0.002441603    2.751    0.636
        24 -10.9757    178.9633     20.7514   2.0552686170e+01   3.7564328811e+01    0.5020949    0.2533032  41.08  0.002097984    3.055    0.673
        25 -12.3698    104.9841     12.7403   2.7777351550e+01   5.7461542029e+01    0.6631112    0.4657255 -20.81  0.002705715    1.607    0.378
        26 -11.6514     68.0980     18.5041   4.1209789215e+01   6.6134509938e+01    0.4444385    0.4229769  16.98  0.001210225    1.079    0.074
        27 -11.7728    228.6874     15.9746   1.5763322278e+01   2.7333238768e+01    0.3235833    0.2227715  71.73 0.0004017411    1.664    0.399
        28 -10.1912     87.1730      7.2305   2.9091599442e+01   6.2724973068e+01    0.6050073     0.320664  66.73  0.002090314    1.711    0.415
        29 -11.4619     86.0735     13.6743   3.2682192534e+01   6.2308223870e+01    0.4880288    0.3445548 -19.99  0.001887993    1.602    0.376
        30 -11.2043    225.7316     13.9970   1.5470785684e+01   2.8113449584e+01    0.3002206    0.1816963 -34.92 0.0007012243    1.378    0.274
        31 -11.7035    192.6013      8.4985   1.6084897113e+01   3.5682865307e+01    0.5905575    0.3758876  13.50  0.002034992    2.676    0.626
        32 -11.5429    212.1276      8.8465   1.4995021895e+01   3.1394838338e+01     0.577706    0.3307468  -2.58  0.002792464    2.931    0.659
        33 -10.8151    218.6514      3.9217   1.3477811317e+01   3.0523702163e+01    0.2644776    0.2030094 -64.02 0.0009124693    1.103    0.093
        34 -11.4319    223.8454      2.6912   1.2953378970e+01   2.9593401623e+01    0.3479305    0.1897243 -73.84 0.0002169455    1.727    0.421
        35 -11.3619    169.8498      9.1811   1.7967301932e+01   4.0969677341e+01    0.4489713    0.2080884  62.94  0.002060691    2.152    0.535
        36 -11.0311    163.2339      7.0359   1.7874638541e+01   4.2808135996e+01    0.5137426    0.2508136 -13.34  0.002170533    2.707    0.631
        37 -10.3818    145.2581      9.8410   2.0561044961e+01   4.7102127809e+01    0.2427478    0.1968359  59.42  0.000501425    1.296    0.229
        38 -10.0595      1.2789      8.8602   8.4216739125e+01   7.8829414409e+01    0.2988211   0.09331114 -63.22  0.001217976    2.818    0.645
        39 -10.9543    232.8579      7.2882   1.3594159128e+01   2.7393883680e+01    0.2429133    0.1636769 -66.90  0.001622202    1.304    0.233
        40 -11.9046    233.7690      2.9023   1.2580283950e+01   2.7638587465e+01    0.4659521    0.2020754 -61.76  0.002525374    2.019    0.505
        41 -11.1670    185.0523      7.1796   1.6234344988e+01   3.7542729899e+01     0.257899    0.2006337  79.08 0.0007910662    1.302    0.232
        42 -11.1284    183.6604      4.6744   1.5632575851e+01   3.8106974666e+01    0.2323894    0.2140943  24.40  0.001352243    1.416    0.294
        43 -11.1003    152.8748      7.3217   1.8916036428e+01   4.5389419543e+01      0.39719    0.1512196  73.74  0.001603025    2.413    0.586
        44 -10.5681    157.3185      3.6605   1.7318299735e+01   4.4605499879e+01    0.2305561    0.1414661 -48.19 0.0009643331    1.473    0.321
        45  -9.7293     62.2929      7.3998   3.6909563421e+01   6.8940480914e+01    0.2409312    0.1686736  -7.01  0.001221159    1.704    0.413
        46  -9.2511     77.9879      7.5121   3.1692589197e+01   6.5058931228e+01     0.314818    0.1919933 -88.22 0.0009429849    2.155    0.536
        47 -10.1526     76.5311      3.4970   2.9848622015e+01   6.5836870915e+01    0.2665662    0.2042248  30.38  0.001381958    1.405    0.288
        48 -10.4294     73.1884      3.1502   3.0607074757e+01   6.6718389267e+01    0.3494048    0.3008316  64.19  0.001522893    1.062    0.059
        49 -11.1446    247.4897      5.6483   1.2625812070e+01   2.4842653217e+01    0.2189818    0.1908944 -88.95  0.001396069    1.362    0.266
        50 -10.9590    243.5486      2.6673   1.2146276774e+01   2.5836217234e+01    0.2950636    0.1778935  56.96  0.001863094    2.259    0.557
        51 -11.0464    176.5896      5.8018   1.6444688374e+01   3.9669703582e+01    0.3818627    0.2062868 -88.35 0.0009153491    1.805    0.446
        52 -10.3089     41.4614      3.7282   4.4320951556e+01   7.4055447365e+01    0.3379611    0.2293229 -14.41  0.001776622    1.679    0.404
        53 -11.4287    205.7965      2.7991   1.3840429438e+01   3.3320681801e+01    0.4286486    0.2461527 -83.43  0.002430692    1.678    0.404
        54 -11.0465    141.3465      3.3209   1.8707474790e+01   4.8733440007e+01    0.3573295    0.2364473 -83.98  0.001652322    1.413    0.292
        55 -11.8495    133.4056      2.6828   1.9331774664e+01   5.0871491373e+01    0.5806847     0.288501  81.25  0.002582961    1.885    0.470
        56 -10.5655     22.0491      3.2136   5.8190411004e+01   7.7695954949e+01    0.2147671    0.1809317 -34.60 0.0004307786    1.235    0.190
        57 -11.4902    114.4421      2.4786   2.1677819412e+01   5.5932173398e+01    0.4980115    0.2589411  75.61  0.002204219    1.747    0.428
        58 -10.1715     13.2620      1.8066   6.5822988991e+01   7.9172221075e+01    0.2363177    0.1691965  17.94 0.0008548477    1.339    0.253
        59 -10.1005    152.4775      1.4249   1.7008659472e+01   4.6033168160e+01    0.2508715    0.1201325  79.89 0.0004748675    1.937    0.484
        60 -11.0349      2.6234      1.9446   7.8679297408e+01   8.0205830995e+01    0.3290031    0.1944473  -7.73  0.001632623    1.775    0.437
        61  -9.8280    217.2171    138.8496   4.4312504483e+01   1.3246477074e+01     0.177595    0.1515864 -32.82 0.0005054798    1.192    0.161
        62  -9.1998    188.3974    250.2060   6.7281019842e+01   1.9380704693e+00     0.122849   0.09705108 -35.56 0.0005007972    1.727    0.421
        63 -11.1530     49.7673    249.1696   9.5073136780e+01   1.7274245127e+01    0.5559721    0.1257592  47.44  0.002305384    3.411    0.707
        64 -10.4759     40.0821    137.6048   8.9164153700e+01   4.2568056310e+01    0.3270687    0.2012323  65.42 0.0006981726    1.698    0.411
        65  -9.6847     39.6738    133.4458   8.8817919806e+01   4.3703837774e+01    0.2518924    0.1430612  18.46  0.000545031    1.915    0.478
        66  -9.8004     31.8570    137.4619   9.1993077765e+01   4.3450162240e+01    0.3848903    0.2036503  31.67  0.001240514    1.745    0.427
        67 -11.1174     22.6559    136.0916   9.5064867050e+01   4.4646237133e+01     0.663464    0.3315127  38.70  0.003013771    1.796    0.443
        68 -10.7859     29.9638    133.1129   9.2218930316e+01   4.4775938260e+01    0.3900116    0.2750744 -34.02 0.0007398529    1.740    0.425
        69 -10.1731     72.8620    133.6345   7.7448965708e+01   3.9336459268e+01    0.2608847    0.2061603 -52.65  0.001034522    1.332    0.249
        70 -10.6578    103.9605    131.3358   6.7280332528e+01   3.4726249537e+01    0.2333972    0.2134939 -59.63  0.001087691    1.140    0.122
        71  -9.7663     93.1350    129.8196   7.0231806249e+01   3.6993611648e+01    0.2414634    0.2059413  64.62  0.001235401    1.229    0.187
        72 -11.1013     10.2632    127.6929   9.8839974528e+01   4.7793717411e+01    0.4744718    0.2695202 -54.77  0.001734403    1.855    0.461
        73 -10.0002     26.8983    126.6637   9.2670095510e+01   4.6771656612e+01    0.3346101    0.1531825 -67.60 0.0009786824    2.047    0.512
        74  -9.6627     22.7378    126.9923   9.4232751647e+01   4.7045639743e+01    0.1908624    0.1647748  84.66 0.0003238241    1.078    0.072
        75  -9.8707      2.2650    125.9881   1.0163276845e+02   4.8724428918e+01    0.2634877    0.1497447  49.89  0.001305688    1.610    0.379
        76  -9.3916     47.4500    134.9835   8.6289800005e+01   4.2418690738e+01    0.2181077    0.1397169 -72.87 0.0009086915    1.570    0.363
        77 -11.9321    103.8426    122.4962   6.5407430986e+01   3.6811096629e+01    0.3692505    0.3349366  40.64  0.001191708    1.070    0.065
        78 -10.2806     49.6862    123.2052   8.3809052119e+01   4.5251408269e+01    0.2924022     0.211621   9.47  0.001393829    1.631    0.387
        79  -9.0916     78.6850    128.6859   7.4629518634e+01   3.9679021035e+01    0.1522281    0.1180725 -20.77 0.0002398121    1.642    0.391
        80 -10.6013     44.8245    119.8440   8.5106186949e+01   4.6736600211e+01    0.3039046    0.2255386  80.32 0.0006930361    1.404    0.288
        81 -10.3106     43.5542    116.4847   8.5078886592e+01   4.7785599215e+01    0.3460242    0.2524382  14.52  0.001458349    1.531    0.347
        82  -9.3685     33.3048    119.3256   8.9421548968e+01   4.8132052255e+01    0.1485792    0.1042198 -39.31 0.0007033965    1.645    0.392
        83  -9.0589     14.4895    119.4375   9.6662409348e+01   4.9702310263e+01    0.1410253    0.1229196  67.03 0.0001426439    1.053    0.051
        84 -12.4532      2.5769    111.7816   1.0075674780e+02   5.2469193624e+01    0.6799294    0.3500159  63.65  0.002126517    1.877    0.467
        85 -11.3360      4.6977    105.0329   9.9461940029e+01   5.4170513274e+01    0.4682876    0.3502131  12.54  0.002585816    1.473    0.321
        86  -9.7897     79.0787    114.7152   7.1661108379e+01   4.3130896927e+01    0.2904791    0.2253225 -51.85 0.0009322164    1.324    0.245
        87 -10.2149     36.4618    103.1591   8.5822049864e+01   5.2178361259e+01    0.6399221    0.3253739   5.95  0.002403667    2.780    0.640
        88 -11.0855     29.9545     97.5051   8.7719696504e+01   5.4375812477e+01     0.797121    0.4879506 -40.29   0.00361247    1.829    0.453
        89 -10.8202     35.4254     92.8968   8.4493445971e+01   5.5066393137e+01    0.4237614    0.2943136 -81.93  0.001371022    1.473    0.321
        90 -11.8694      7.1208     88.8478   9.7040807162e+01   5.8415294414e+01    0.9697176    0.4569086   7.24  0.004155355    2.418    0.587
        91 -11.7183     27.5677     85.3445   8.6776892875e+01   5.7896272300e+01    0.8394899    0.5946758   7.39   0.00297731    1.595    0.373
        92 -12.0613     42.7742     85.2158   7.9562275684e+01   5.6264552299e+01     1.002769    0.4223682  19.08  0.003207969    2.955    0.662
        93 -11.5464     25.5474    107.0235   9.0958263364e+01   5.2190948065e+01    0.7751408    0.4837904 -49.42  0.003165307    1.666    0.400
        94 -11.7734      9.6542     97.4669   9.6715653544e+01   5.5944554210e+01    0.6551658    0.5366753  -4.08  0.001573362    1.384    0.278
        95 -13.0489     17.6316    100.3520   9.3517536698e+01   5.4640424381e+01    0.3913743    0.3423894  44.29 0.0005469123    1.151    0.131
        96 -11.4847     23.0668     94.6278   9.0366758547e+01   5.5775502835e+01    0.4405172     0.365757 -20.04  0.001585775    1.358    0.264
        97 -11.1242     17.9975     91.0200   9.2196997799e+01   5.7151756871e+01    0.4518866    0.2910701  69.74  0.001328253    1.642    0.391
        98 -11.2473     21.6536    114.4584   9.3403519411e+01   5.0501785715e+01    0.5487312    0.2817827   0.74   0.00200148    2.606    0.616
        99 -11.1445     28.2748    113.2056   9.0623094561e+01   5.0268328858e+01    0.4017709    0.2976691  -7.79  0.001032243    1.642    0.391
       100  -9.2342     57.6620    114.3101   7.9328275526e+01   4.6553927001e+01    0.1628977    0.1077987  61.76 0.0007044392    1.686    0.407
       101 -10.0734     48.9831    112.4451   8.2316067442e+01   4.8206843063e+01    0.3076892    0.2416409  38.52 0.0009066964    1.242    0.195
       102  -9.5773     78.2397    123.2051   7.3713300078e+01   4.1129073866e+01    0.2088962    0.1669022  61.19 0.0005191462    1.301    0.231
       103  -9.9140     66.7462    110.8480   7.5250741248e+01   4.6121081305e+01    0.2596304     0.210581  20.72 0.0006691162    1.334    0.250
       104  -8.9334    170.3442    110.3175   4.6140574531e+01   2.6075845297e+01    0.1447391    0.1086717   5.16  0.000601328    1.719    0.418
       105 -10.0062    102.1382    109.2042   6.2796844788e+01   4.0248428216e+01    0.2332942    0.2124142  -2.67 0.0009005974    1.239    0.193
       106 -11.1292     79.9356    108.2234   6.9903678738e+01   4.4615903325e+01    0.5248992    0.3106643  27.93 0.0009608291    1.856    0.461
       107 -10.5201     15.1047    108.6527   9.5460617779e+01   5.2566166263e+01    0.4147118    0.2449286  -1.66  0.001901395    2.090    0.522
       108  -8.9058    175.6762    106.6894   4.4259379247e+01   2.5649685661e+01    0.1405123    0.1073598   4.59 0.0007038456    1.654    0.395
       109  -9.2232    143.4982    106.0261   5.0789661596e+01   3.2401532000e+01    0.2060773    0.1270581 -65.20 0.0008075056    2.381    0.580
       110  -9.6257    182.8124    104.4798   4.2448318380e+01   2.4613791843e+01    0.1835014    0.1368045  50.28 0.0004752282    1.460    0.315
       111  -9.9031     85.7566    103.8217   6.6815630576e+01   4.4662901989e+01    0.2244223    0.2146862 -19.77 0.0007459751    1.133    0.117
       112  -9.4533     64.7231    101.6941   7.4023985235e+01   4.8811173891e+01    0.2744056    0.1721205 -53.31 0.0002009017    1.593    0.372
       113 -12.1006     68.7742     95.8939   7.1069191438e+01   4.9644274662e+01    0.3929633    0.3228806  13.27 0.0003829999    1.398    0.285
       114 -10.6962     51.9118     99.4492   7.8667470713e+01   5.1287064051e+01    0.6572876    0.2424782 -49.23  0.002128824    2.824    0.646
       115  -8.7505    210.0115     98.0000   3.6685310977e+01   2.0481105349e+01    0.1833246   0.07465237  54.14 0.0005983926    2.846    0.649
       116 -10.3552     82.9730     93.2839   6.5059277229e+01   4.7757195391e+01    0.4219458    0.2936019  69.80 0.0003005035    1.862    0.463
       117 -10.9820     79.2071     93.3948   6.6463124699e+01   4.8433891984e+01    0.5301379    0.4981932  59.99  0.002805646    1.048    0.045
       118 -10.7668     42.8917     94.3752   8.1462959332e+01   5.3809708924e+01    0.3792751    0.3293658  36.23  0.001436581    1.161    0.138
       119 -11.8823    125.7731     94.7493   5.2178585135e+01   3.8512771626e+01    0.2655742    0.2578013  54.28 0.0002211211    1.030    0.030
       120  -9.5902    121.6177     94.1544   5.3123798378e+01   3.9548532599e+01    0.2516018    0.2200223  -2.20   0.00076575    1.357    0.263
       121 -10.8434     98.2751     91.0257   5.9181303709e+01   4.5243836625e+01    0.2814429    0.2375801  50.18 0.0003179908    1.168    0.144
       122 -11.1149     89.8350     89.8352   6.1671785758e+01   4.7243659349e+01     0.577356    0.3382539 -40.73  0.002346973    1.883    0.469
       123 -10.3028     49.1220     91.2786   7.8082184385e+01   5.3831313290e+01    0.3633261    0.2422462  35.18  0.001683814    1.484    0.326
       124  -9.8019    120.4798     90.4943   5.2397723129e+01   4.0568644360e+01    0.1539989    0.1484139  89.27 0.0001733327    1.037    0.036
       125  -9.8583     65.8205     88.9730   7.0470857945e+01   5.1895691908e+01     0.408112    0.2685491  -5.99  0.001572141    2.552    0.608
       126  -8.9443    199.7104     88.3122   3.5888539696e+01   2.3871563155e+01    0.1331464   0.09403952 -59.11 0.0003495319    1.585    0.369
       127  -9.9209    104.1937     87.1143   5.6160855208e+01   4.4868970861e+01    0.2588781    0.2571914  88.24 0.0007660008    1.033    0.032
       128 -10.9992    143.1948     84.6347   4.5085311884e+01   3.6599529174e+01    0.2538174    0.2392175 -42.49 0.0002881797    1.054    0.051
       129  -9.9333    121.2026     84.0564   5.0319147791e+01   4.1738331966e+01    0.4874314    0.1873736 -48.51  0.001558537    2.760    0.638
       130 -10.4841     80.2921     83.8066   6.3356338275e+01   5.0552373238e+01    0.4204427    0.3858525  63.10  0.001966681    1.096    0.087
       131 -10.6598     76.3855     78.6472   6.3291516734e+01   5.2532840260e+01    0.6620498     0.286639 -55.41  0.002339435    2.455    0.593
       132 -10.2774     72.5236     77.9804   6.4616713194e+01   5.3423338081e+01    0.3709191    0.3286972  88.55  0.001436115    1.222    0.182
       133  -9.4129    133.0753     84.5607   4.7425814528e+01   3.8926834912e+01    0.2037128    0.1337296  79.60 0.0004282219    2.282    0.562
       134 -10.4010    113.0725     82.4666   5.2104571768e+01   4.3908515814e+01     0.267069    0.2567176 -41.64 0.0006583522    1.075    0.070
       135 -10.0337     66.9405     81.5772   6.7969466006e+01   5.3555687996e+01    0.4089778    0.2637548  16.02  0.001671611    2.097    0.523
       136 -11.4837     53.3990     76.4886   7.2427723057e+01   5.7050309460e+01    0.7030948    0.5196003  81.37  0.003264684    1.692    0.409
       137 -11.1859     58.4344     77.9504   7.0569753205e+01   5.5890209211e+01    0.3835897    0.3579083 -67.59  0.001414966    1.069    0.065
       138  -9.1758    113.3230    249.3344   8.1598340980e+01   1.0368351370e+01    0.1138007   0.07664214  -0.86 0.0006156219    1.708    0.415
       139  -9.5153     14.3321     67.5257   9.0479673943e+01   6.3723805421e+01    0.5275109    0.2146114  13.99  0.002085362    2.657    0.624
       140 -12.3770      5.0524     62.2811   9.4995015360e+01   6.5614529999e+01    0.5460167    0.4709847  29.13  0.002063886    1.252    0.201
       141 -11.4267      9.7000     62.6691   9.2312616406e+01   6.5284989264e+01    0.4759538    0.2339046 -49.02 0.0006509382    1.888    0.470
       142 -10.0146    233.4941     77.5301   2.9256402663e+01   1.9157516554e+01    0.1230405   0.09817047 -40.35 0.0008095251    1.042    0.041
       143 -10.5216     94.6058     76.7272   5.6060339767e+01   4.9235126294e+01    0.5082815    0.2670106  46.16  0.001342709    1.874    0.466
       144 -11.0574     78.7834     67.8677   5.8831638713e+01   5.4542935679e+01    0.8047439    0.5325603 -89.07  0.003051844    2.641    0.621
       145 -10.6809     84.3276     74.3170   5.8899751355e+01   5.1950910572e+01    0.3386725    0.2845689  34.95  0.001355612    1.224    0.183
       146 -11.0934     87.8225     72.7990   5.7131132383e+01   5.1557587967e+01    0.5985297    0.3516571 -52.74  0.002367866    1.780    0.438
       147 -11.0667    248.6435     76.2424   2.7486376506e+01   1.6790783739e+01    0.1890181    0.1439731 -86.15  0.001283164    1.714    0.416
       148  -9.0705     19.3931     76.2349   8.9261896351e+01   6.1042271922e+01    0.1455505   0.09802781 -29.64 0.0006910732    1.651    0.394
       149  -9.2345     92.1364     72.1018   5.5385545716e+01   5.0781653946e+01    0.3304635      0.22309  45.17 0.0005578701    1.459    0.315
       150 -11.0879      2.0424     71.7309   9.7854365145e+01   6.3234315017e+01    0.4102699    0.2049292 -70.67  0.001577131    1.752    0.429
       151 -11.0215    187.1597     71.0784   3.3399624196e+01   2.9043919180e+01    0.4935575    0.2786992 -40.70  0.001847258    1.572    0.364
       152 -10.0014     28.8663     72.0891   8.3458514905e+01   6.1309722966e+01    0.3103501    0.2144414  24.52  0.001042543    1.494    0.330
       153 -10.8902     35.0035     71.8803   8.0198334998e+01   6.0705459198e+01    0.5155963    0.2766241  36.45  0.002237218    1.859    0.462
       154  -9.9919     41.0169     73.0183   7.7426910221e+01   5.9679854541e+01     0.300037    0.2468578 -17.40 0.0007758701    1.369    0.269
       155 -11.3868     40.4681     69.1130   7.6649070893e+01   6.0753863536e+01    0.3662769    0.2662822  26.30  0.001300571    1.414    0.293
       156  -9.5535    153.4731     72.5375   3.9448711383e+01   3.6388142099e+01    0.2562724    0.1281022  45.70  0.000858935    2.219    0.549
       157  -9.4327     19.1767     72.1401   8.8644468854e+01   6.2152727010e+01    0.2185447    0.1676454 -40.46 0.0004802133    1.317    0.240
       158 -11.1216    122.8111     68.9404   4.5187246275e+01   4.4334587880e+01    0.4968647    0.2984022  51.03  0.001438467    1.649    0.394
       159 -10.5428    219.9303     66.9071   2.8298146977e+01   2.3013020126e+01     0.352177    0.1896255  71.21  0.001807249    2.342    0.573
       160  -9.8025     24.3350     74.0257   8.6260019937e+01   6.1224105039e+01    0.3110345    0.2259893 -41.07 0.0009475923    1.405    0.288
       161  -8.9895     25.3692     65.2869   8.3795070219e+01   6.3431785173e+01    0.1524393   0.09933826 -30.96 0.0004313891    1.706    0.414
       162 -10.9099     91.6294     62.5949   5.2255165502e+01   5.2902574682e+01    0.4659341    0.2935071  67.25  0.001555428    2.059    0.514
       163 -10.4384     87.9018     55.9502   5.1079680213e+01   5.5089596190e+01    0.5931318    0.2050248 -37.26  0.001812068    3.464    0.711
       164 -10.1326     91.7436     57.2089   5.0227305436e+01   5.3961203375e+01    0.3544028    0.2469447  66.43  0.001019171    1.640    0.390
       165 -10.1810     59.2171     63.8309   6.5769152292e+01   5.9200083155e+01     0.403802    0.3065981 -89.38  0.001333366    1.719    0.418
       166 -10.0075     62.5039     61.5506   6.3456479122e+01   5.9143488723e+01    0.4806355    0.1782759  38.56   0.00164315    2.670    0.625
       167 -10.7932     51.9029     48.2181   6.3511062549e+01   6.4042455351e+01    0.9468651    0.2948237  33.82  0.002611315    3.631    0.725
       168  -9.8138     51.0610     56.6670   6.7207705536e+01   6.2262317492e+01    0.2678008     0.234443  40.76  0.001133509    1.150    0.130
       169 -10.9862     40.6462     56.9379   7.2839189486e+01   6.3771113232e+01    0.5295013    0.3880056 -21.92  0.002202892    1.604    0.377
       170 -12.3796     43.9919     61.4264   7.2510748609e+01   6.2203125451e+01     1.031571    0.4023615 -47.49  0.001183761    2.558    0.609
       171 -10.3253     50.9572     61.2091   6.8858483826e+01   6.1203112623e+01     0.335341    0.2691786  51.73  0.001404418    1.323    0.244
       172 -11.4468     44.0230     43.9900   6.6059970389e+01   6.6290214495e+01    0.6466852     0.352074 -52.82   0.00283947    1.849    0.459
       173 -11.3820     39.9924     44.0090   6.8421228407e+01   6.6906187478e+01    0.6274304    0.3692599  13.81  0.001987102    2.252    0.556
       174 -10.1622    158.1961     63.1382   3.5817087629e+01   3.6827646234e+01    0.4211962    0.1617271  48.74  0.001511235    2.867    0.651
       175  -9.8043    106.0256     63.5007   4.7977530547e+01   4.9385215808e+01    0.2466606    0.1491131  50.59  0.001040474    1.618    0.382
       176 -11.4099    235.1428     60.8947   2.5432758385e+01   2.0990022793e+01    0.3315905    0.2784603  78.38   0.00232378    1.416    0.294
       177  -9.7612     84.4857     61.5231   5.4406403526e+01   5.4711577551e+01     0.279167    0.2140057  86.35  0.001268445    1.700    0.412
       178 -10.3395     81.5427     50.5124   5.1250602306e+01   5.7597966205e+01    0.5703665    0.2080188  44.27  0.001838992    2.747    0.636
       179 -10.3747     82.8983     46.8414   4.9235472951e+01   5.7994249647e+01    0.3020591    0.2575101  -0.11 0.0006349251    1.413    0.292
       180 -12.5232     74.2949     51.4695   5.4479569779e+01   5.8993345375e+01     1.049465     0.415027 -52.88  0.002070684    3.159    0.683
       181 -11.1998     72.6891     47.6875   5.3575501899e+01   6.0097784726e+01    0.2623451    0.2456851 -27.85 0.0005177481    1.115    0.103
       182  -9.3050    113.6008     60.7749   4.4870127840e+01   4.8084512299e+01    0.2243324    0.1402591 -49.80 0.0009576558    1.666    0.400
       183 -10.6681     31.9215     52.7629   7.6481570335e+01   6.5914198085e+01    0.6851264    0.2526011  18.93  0.002277877    3.511    0.715
       184 -10.7027     20.4858     55.4811   8.4264824060e+01   6.6399940172e+01      0.43527    0.2993472  78.76  0.002137582    1.762    0.432
       185 -11.1119     24.7639     59.6132   8.2742796752e+01   6.4956174999e+01    0.8573236    0.2291594  24.99   0.00283811    3.491    0.714
       186 -11.0556     25.0075     56.0236   8.1638957272e+01   6.5848023458e+01    0.4988387    0.3525839 -15.76  0.002035806    1.611    0.379
       187 -10.5710    110.0354     40.8597   3.8436004699e+01   5.2397391652e+01    0.5879849     0.522369  19.35  0.003119792    1.317    0.241
       188 -10.5304    112.0577     50.7096   4.1666261916e+01   5.0263736123e+01    0.2916541    0.2681384 -76.27 0.0006386969    1.088    0.081
       189 -11.2179    116.0026     49.0089   4.0023223003e+01   4.9563350423e+01    0.4281726    0.3299404 -47.35 0.0004393031    1.310    0.237
       190 -11.5972    117.7727     44.0381   3.7749163713e+01   4.9922579510e+01    0.6071508    0.4374409 -88.33  0.002209101    1.631    0.387
       191  -9.5928    213.4987    248.4894   6.2832494930e+01  -3.9540639942e-01    0.1032521   0.07194182   5.43 0.0008104679    1.025    0.025
       192  -9.3868     66.9920     55.0671   5.9016573093e+01   5.9737760809e+01    0.1855676    0.1690418 -47.86 0.0009831372    1.116    0.104
       193 -10.0154    158.2605     55.1128   3.3411999216e+01   3.8061818453e+01    0.4409684    0.2940195 -77.41  0.002039304    1.826    0.452
       194 -11.3856     60.8517     48.0721   5.8995634650e+01   6.2432698774e+01    0.8723167    0.3764006 -44.19   0.00328574    2.378    0.579
       195  -9.8421     57.2378     41.5985   5.7931071717e+01   6.4471040965e+01     0.283729     0.135787  46.01   0.00112525    2.097    0.523
       196 -10.9546    240.5432     50.4826   2.2685259794e+01   2.1292706663e+01    0.1901136    0.1739361  61.43  0.001335487    1.382    0.276
       197  -9.3658    125.4464     56.4711   4.0377514190e+01   4.5936020094e+01     0.150074    0.1440507 -87.83 9.372773e-05    1.014    0.014
       198 -10.3434    106.5054     58.5430   4.6075316381e+01   5.0217915877e+01    0.3428954    0.2255928 -78.37   0.00107779    2.334    0.571
       199  -9.7838      2.0232     49.0845   9.4891214708e+01   6.9159082678e+01    0.2244417    0.1809056  16.68 0.0008885716    1.344    0.256
       200 -10.0736    172.5983     48.6204   2.9318141843e+01   3.5587161667e+01    0.3485796    0.1388211  72.24  0.001278777    3.056    0.673
       201 -10.1126    146.2017     46.9361   3.2927695955e+01   4.2256334865e+01    0.2977911     0.182451 -38.77 0.0008855238    1.572    0.364
       202 -10.5522     23.0779     37.8254   7.7006298596e+01   7.0493730474e+01     0.624155    0.3817802  63.01  0.002550543    2.481    0.597
       203 -10.9063     20.6081     46.0625   8.1543877083e+01   6.8753274274e+01    0.4978854    0.2703186 -39.02   0.00157123    1.886    0.470
       204 -10.7391     26.3466     43.2924   7.6771746718e+01   6.8846753386e+01     0.257608    0.1761167  14.80 0.0006306622    1.546    0.353
       205 -10.0472     13.2487     46.6250   8.6711060212e+01   6.9201872937e+01    0.2842715    0.1715359 -34.66  0.001280851    1.680    0.405
       206 -10.2164    200.6877     45.0051   2.4982670809e+01   2.9751689966e+01     0.344091     0.182114  88.33  0.001589511    2.438    0.590
       207 -10.3759    137.6588     44.7488   3.3769839770e+01   4.4737412195e+01    0.6720243    0.2107389  49.22   0.00211019    3.531    0.717
       208 -10.8958    118.2791     56.3036   4.2072754001e+01   4.7744189044e+01     0.867327    0.4858541 -73.92  0.002770925    3.683    0.728
       209 -10.0842    160.3700     43.3869   2.9510931145e+01   3.9251410330e+01    0.2857418    0.1704652  79.51 7.351093e-05    1.845    0.458
       210 -10.3703    155.6875     42.3812   2.9905576495e+01   4.0544967309e+01    0.2769327    0.2518533  11.76  0.001276176    1.342    0.255
       211 -10.3161     92.2486     41.7355   4.3880091891e+01   5.6697402204e+01     0.410181    0.2421632  58.43  0.001429205    1.672    0.402
       212  -9.6378     17.0864     41.9710   8.2711204542e+01   7.0064795938e+01    0.2350397    0.1384797 -34.99  0.001116748    1.743    0.426
       213 -11.3967      4.7013     36.3561   9.0379709114e+01   7.2250350923e+01     0.611431    0.4093881 -35.52  0.002973628    1.412    0.292
       214 -10.3838     11.4829     30.0306   8.3017532392e+01   7.3369707062e+01    0.3745148    0.1802773 -38.37  0.001302975    2.053    0.513
       215 -10.4032      7.5711     30.2706   8.6352423612e+01   7.3574260209e+01    0.3887597    0.1997123 -15.91  0.001236917    2.226    0.551
       216 -10.5131     79.0165     38.5015   4.7049622861e+01   6.0405930624e+01     0.561825    0.3312177  77.00  0.002025616    3.007    0.667
       217 -11.2147     80.0248     33.1721   4.4220908110e+01   6.1073772120e+01     0.692619     0.421507  33.26  0.002949288    2.011    0.503
       218 -11.1730     60.9863     36.4570   5.3706401960e+01   6.4735346472e+01     0.467107    0.3589968 -40.56  0.001529051    1.342    0.255
       219 -10.6612     68.1932     32.7353   4.8648351402e+01   6.3870009580e+01    0.5206385    0.3377258  61.04  0.002382349    1.706    0.414
       220 -10.3193     43.1395     28.1001   5.9023079638e+01   6.9746454884e+01    0.2194252    0.1899205  25.98  0.001243613    1.117    0.105
       221 -11.2409     57.2602     30.8554   5.2724305655e+01   6.6537074368e+01    0.4810707    0.3282772 -21.66  0.001079429    1.804    0.446
       222 -11.5873     48.8814     30.4678   5.6934012025e+01   6.8250241295e+01    0.7862881    0.2877509  37.70  0.002450676    2.858    0.650
       223  -9.8121    231.5626     38.2463   2.0650299301e+01   2.4359743444e+01    0.2495711   0.08609638 -34.73  0.001157616    2.166    0.538
       224 -10.7921    176.2350     35.2152   2.4995499110e+01   3.6503905785e+01    0.4824272     0.202138 -49.08  0.001601774    2.262    0.558
       225  -9.6968    132.8811     37.0581   3.2001143715e+01   4.7076287366e+01    0.3720947      0.18986 -86.23  0.001248333    3.337    0.700
       226  -9.5639     12.9614     36.7983   8.4120790908e+01   7.1646217153e+01    0.1854493    0.1633876 -49.29 0.0006062205    1.053    0.050
       227  -9.4455     94.0760     36.0135   4.0865574899e+01   5.7190961974e+01    0.2339868    0.1756752 -76.49   0.00064894    1.627    0.385
       228 -10.1028    174.6619    246.6887   6.9301005643e+01   3.8177140413e+00    0.2034594    0.1336026   6.96  0.001426272    1.264    0.209
       229 -12.6326    160.0195     29.6441   2.5294746318e+01   4.1136260949e+01    0.4656871    0.3970149 -36.99 0.0003753191    1.191    0.161
       230 -10.2192     79.6263    138.0169   7.6023278145e+01   3.7206113635e+01    0.3064671    0.2692775  65.72  0.001638629    1.143    0.125
       231 -11.9342    126.5092    241.6644   7.8104444568e+01   9.9832739710e+00    0.3249824    0.2488945  39.24  0.001740021    1.312    0.238
       232 -10.6712     73.9114    238.5121   8.9137580319e+01   1.6551480321e+01    0.4539142     0.184029  32.98  0.002337411    1.780    0.438
       233 -11.5820    106.7991     32.0880   3.5712262649e+01   5.4550120806e+01    0.7263652    0.4364018  13.82  0.002629236    3.263    0.693
       234 -12.0774    114.2290     25.0363   3.1119556035e+01   5.3566825693e+01    0.7326357    0.2953632  59.96  0.001739027    2.221    0.550
       235 -10.4900    239.7627     32.7458   1.8855315492e+01   2.3460191243e+01    0.2274138    0.1833548  35.70  0.001268554    1.764    0.433
       236  -9.1575    183.3047     32.3196   2.3396166076e+01   3.5205475016e+01    0.1263352    0.1028187  28.58  0.000344535    1.632    0.387
       237 -11.2493     32.3853     30.7544   6.7367160127e+01   7.0924717798e+01    0.3497485    0.2337628 -56.79 0.0004118783    1.592    0.372
       238  -9.5303    230.0372     30.6974   1.9041896161e+01   2.5501225226e+01     0.156827    0.1340629 -64.77 0.0004357462    1.143    0.125
       239  -9.8471      5.7977     21.9901   8.5069576061e+01   7.5623178902e+01    0.3407337    0.1851273 -11.71  0.001583789    2.021    0.505
       240 -11.3156    147.0333    238.1416   7.3542073985e+01   8.0794144685e+00    0.3559222    0.2439163  35.55  0.001790195    1.382    0.276
       241 -10.0151    167.5031    238.0520   6.9556972706e+01   5.7151099071e+00    0.1462705    0.1048134 -32.85  0.001028102    1.576    0.366
       242 -10.1309    199.8008    234.4443   6.3252761314e+01   2.5806339180e+00    0.1509253   0.08014099  16.42 0.0004510565    1.607    0.378
       243  -9.2117     15.3841    233.7851   1.0193465772e+02   2.3201659249e+01    0.1351324    0.1001457 -74.39 0.0009432306    1.662    0.398
       244 -10.9593     67.4207    240.9292   9.0744510722e+01   1.6845068490e+01    0.4005507    0.1726806  34.03  0.002153331    1.662    0.398
       245  -9.9317    247.1641    231.1815   5.5303522571e+01  -1.7818545452e+00    0.1252339   0.09729972  -1.15 0.0007488402    1.332    0.249
       246 -10.1203    197.6062     29.2684   2.1199262900e+01   3.2334478777e+01    0.2536674     0.206254  75.00  0.001579958    1.319    0.242
       247 -10.9228    189.0249     28.1368   2.1675961601e+01   3.4387848690e+01    0.3367827    0.2747033  -9.71  0.001473126    1.508    0.337
       248 -12.3334    126.2707     28.6590   3.0165877986e+01   4.9933806757e+01    0.5686846    0.4185275  85.81  0.002855728    1.368    0.269
       249 -10.2204     88.0652     29.4097   3.9755668716e+01   5.9706155156e+01    0.4909224    0.2092569  46.93  0.001834401    2.336    0.572
       250 -10.9300    155.2662     24.5076   2.4263245093e+01   4.2946729292e+01     0.445874    0.2483195 -82.79  0.001511867    2.047    0.511
       251  -9.4523    197.6217    228.2711   6.2779452199e+01   3.5629847275e+00   0.09830713   0.07727256  35.62 0.0003863635    1.691    0.409
       252  -9.7499     75.2343    224.2440   8.7716583471e+01   1.8932329463e+01    0.1784478    0.1164483  47.31  0.001065934    1.359    0.264
       253  -9.5469    233.8522    223.3926   5.6167713351e+01   3.1020722916e-01    0.1420441    0.0752864  15.25 0.0006204005    1.656    0.396
       254  -9.4768    152.8162    219.3963   7.0012827551e+01   1.0110289730e+01    0.1701115   0.09515292  20.21 0.0004751117    1.603    0.376
       255  -9.9008    164.7251    211.9604   6.6582882836e+01   9.7062606585e+00    0.2029202    0.1466004  23.40 0.0005916855    1.165    0.142
       256 -10.1228    152.8661    207.1823   6.8306847787e+01   1.1992543275e+01    0.2405986     0.186695 -67.47  0.001453546    2.046    0.511
       257  -9.2004     61.5111    206.5069   8.9561587250e+01   2.3943719101e+01    0.1294941    0.1061383  40.13 -1.434145e-05    1.005    0.005
       258  -9.7548     78.7701    204.0989   8.5029267465e+01   2.2371195395e+01    0.2469472    0.1402856  74.63  0.001147357    2.586    0.613
       259  -9.2870    238.3162    204.3109   5.2627867822e+01   1.9912301253e+00    0.1104876   0.06332735  -3.37 0.0006741075    1.638    0.389
       260 -11.1521    183.4895     25.3392   2.1426083848e+01   3.5985112030e+01    0.4096684    0.2290231  56.74  0.001641494    1.978    0.494
       261  -9.4827    213.7766     24.5938   1.8735041588e+01   2.9409585329e+01    0.1695633    0.1045386 -80.15 0.0009538351    1.682    0.405
       262 -10.6039     90.9911     22.2805   3.5538628837e+01   5.9975340949e+01    0.3770592    0.3048114 -27.53  0.001669338    1.343    0.255
       263 -10.0034     59.6704     23.6638   4.7710636715e+01   6.7264615118e+01    0.2450714    0.1730408 -40.44 0.0004187424    1.494    0.330
       264 -10.3324    139.3523    198.9836   7.0018375185e+01   1.5193635522e+01    0.2339377    0.1650664  47.11 0.0008796736    1.595    0.373
       265 -10.1047      6.2513    197.9780   1.0306773695e+02   3.1102662746e+01    0.1539105   0.09435262  86.48 0.0008972431    1.612    0.380
       266  -9.8531    234.0163    196.6304   5.2062482348e+01   3.3582482244e+00    0.2140816     0.126997 -22.60  0.001045787    1.399    0.285
       267  -8.7180     16.6508    191.6893   1.0018265802e+02   3.1631455413e+01    0.1178429    0.0926244 -31.55 0.0007045192    1.715    0.417
       268  -9.5459    223.2543     22.1974   1.7523816626e+01   2.7749365098e+01    0.1732797    0.1093719 -55.57 0.0005672123    1.327    0.246
       269 -10.3639    156.4900     20.5197   2.2828578086e+01   4.3096198036e+01    0.3344932    0.1328866  75.60  0.001301346    2.542    0.607
       270  -9.3204    171.6807    190.6490   6.1936284512e+01   1.2035570751e+01    0.1318613   0.08545072  -4.10 0.0007047835    1.741    0.426
       271 -11.2498    246.2540     19.6425   1.5644430592e+01   2.3681305710e+01    0.2294068   0.09376326 -40.28  0.000997199    1.719    0.418
       272  -9.4461    216.5271     20.5104   1.7557246794e+01   2.9285692449e+01    0.1230174   0.09953839 -51.97 5.445885e-05    1.020    0.020
       273  -9.8850     74.6286     19.5604   3.9345699940e+01   6.4426088064e+01     0.269823    0.2099799  38.42 0.0005962526    1.294    0.227
       274  -9.9616     46.9742     19.4766   5.1830763127e+01   7.0586646180e+01    0.2707278    0.2378612 -10.04  0.001569286    1.168    0.144
       275  -8.8046      1.4965     20.4688   8.8634565539e+01   7.6199880733e+01    0.1304085    0.1096421 -38.27 7.852034e-05    1.046    0.044
       276 -11.3518      5.1259    185.7326   1.0300623652e+02   3.3876209195e+01    0.3936337     0.335416  23.83  0.002234611    1.265    0.210
       277 -10.8085      2.9871    181.6994   1.0346001725e+02   3.4943557461e+01      0.27389    0.2553385  75.67  0.001665838    1.195    0.163
       278  -9.2299     86.2522    185.5673   8.1060945518e+01   2.5228879652e+01    0.1914634    0.1222326  19.77 0.0009479398    1.603    0.376
       279 -10.1446    250.4885    176.9788   4.6458878635e+01   3.8580630828e+00    0.1654326   0.08379908 -29.20  0.001032589    1.591    0.371
       280 -10.6664    186.9230     15.0060   1.8258658553e+01   3.6320414679e+01    0.2035895    0.1695514 -77.18 0.0003197301    1.105    0.095
       281 -10.9593     38.8397     22.1940   5.8419245899e+01   7.1614329541e+01    0.2508444    0.2296623  27.24 0.0004346376    1.069    0.064
       282  -9.4434     28.1755    175.8446   9.6212379507e+01   3.4222812854e+01    0.1661012    0.1546047 -38.96 0.0005236313    1.318    0.241
       283  -9.6081     74.7727     13.5674   3.6047122249e+01   6.5172020666e+01    0.1984259    0.1325132  74.29 0.0007973103    1.625    0.384
       284  -9.0037    113.6596    175.6729   7.2590853349e+01   2.3347109482e+01    0.1424634    0.1036512  -8.00 0.0007051479    1.734    0.423
       285  -9.6626     51.8193    173.8253   8.9268502219e+01   3.2227198110e+01    0.1991605    0.1393635  54.33 0.0006243757    1.314    0.239
       286  -9.0272    206.7178    172.6443   5.2386236425e+01   9.8764157836e+00    0.1252654   0.07975113  -6.83  0.000701674    1.663    0.399
       287 -10.2808     89.4874     16.4819   3.3155448913e+01   6.1097059412e+01    0.2826683    0.2212632  34.89  0.001069245    1.384    0.277
       288  -9.0713     35.6768    169.3317   9.3581322261e+01   3.5042753309e+01    0.1509936   0.08238348  55.30 0.0007050175    1.702    0.413
       289  -9.1652    198.3836    167.8133   5.2957201434e+01   1.1752751788e+01    0.1705172    0.1015564 -25.43 0.0008249159    1.608    0.378
       290 -11.4303      9.2008    166.8401   1.0121222696e+02   3.7962556976e+01    0.3407432     0.238032  23.90  0.001167538    1.423    0.297
       291  -9.7652     66.2587     10.4539   3.7266095033e+01   6.7628520653e+01    0.2736872    0.1203049  54.85  0.001118076    2.010    0.502
       292 -10.0747     18.7618    164.8916   9.8299682909e+01   3.7678971363e+01    0.2823588    0.1879652  -4.24  0.001455152    1.971    0.493
       293  -9.8895    205.0477    163.3795   5.0989833101e+01   1.1453842539e+01    0.2227911    0.1595646 -34.01 0.0006474531    1.332    0.249
       294 -10.2775     28.1408    161.4734   9.5250880812e+01   3.7687683034e+01    0.2896144    0.1737049 -72.48  0.001461543    1.691    0.408
       295  -9.7663     14.0246    159.4822   9.9434375270e+01   3.9385566989e+01    0.1942876    0.1213604  25.10 0.0008774865    1.550    0.355
       296  -9.5050    215.6002    157.1802   4.8099882617e+01   1.0847295301e+01    0.1689975   0.09724052 -24.35 0.0005099693    1.608    0.378
       297 -10.3202      9.5924    155.4203   1.0059368175e+02   4.0722734537e+01    0.2510425    0.1499668 -82.59  0.001300162    1.613    0.380
       298 -10.1020    104.3409    154.8160   7.1639025661e+01   2.9286569321e+01    0.2868956      0.24486  23.84  0.001563267    1.147    0.129
       299 -12.5578     22.6453    149.1646   9.6086877505e+01   4.1266458494e+01    0.6157861    0.3541228 -34.68  0.002784755    2.387    0.581
       300 -10.7476     16.5019    148.0143   9.8001711331e+01   4.2064987787e+01     0.267065    0.2240298  48.84 0.0004390385    1.084    0.077
       301 -10.0701      4.3568    153.6899   1.0213783204e+02   4.1514031029e+01    0.2470708    0.1254906  36.10  0.001220996    1.705    0.413
       302  -9.3858    142.5427    152.5557   6.1446841980e+01   2.3300363858e+01    0.1391562    0.1294333  13.64 7.416424e-05    1.010    0.009
       303 -10.1217     30.4635    152.0051   9.3787726773e+01   3.9834948950e+01    0.2567299    0.1964188  -4.89  0.001371763    1.624    0.384
       304 -10.3875     65.7750    149.6531   8.2238807244e+01   3.6332943679e+01    0.5308404    0.2966826   2.49  0.001886484    3.134    0.681
       305 -10.9907     47.3081    146.7318   8.7794430407e+01   3.9398423196e+01    0.5663866    0.3677125 -30.92  0.002511286    2.085    0.520
       306 -10.1444      3.2033    147.3880   1.0225228687e+02   4.3163185849e+01    0.2149413    0.1658314 -78.70 0.0008479971    1.285    0.222
       307 -11.2224      5.5552    142.4527   1.0127832481e+02   4.4264934273e+01    0.4809235    0.2095758  55.96 5.761775e-05    2.070    0.517
       308 -11.8925      2.0515    140.1752   1.0233693825e+02   4.5062510939e+01    0.3963524    0.2311148  76.64  0.000252783    1.557    0.358
       309  -9.6290     74.0314    146.0344   7.9112542486e+01   3.6066883850e+01    0.2227088    0.1739323 -23.11 0.0005121488    1.608    0.378
       310 -10.9771     33.1466    144.2872   9.2221061810e+01   4.1548378227e+01    0.2804995    0.2603484  57.57 0.0007497423    1.052    0.049
       311 -10.0312    249.4823    143.5083   4.0693321711e+01   8.0910561678e+00    0.1135518   0.08672272 -19.64 9.713182e-05    1.001    0.001
       312 -10.4254     15.6437    140.6424   9.7810853244e+01   4.4023675791e+01    0.3839189    0.1240317  48.26  0.001416466    2.751    0.637
       313 -11.0808     12.0775    136.1770   9.8739976696e+01   4.5444753416e+01    0.5037182    0.3061348 -47.02  0.002476038    1.898    0.473
