#   1 NUMBER                 Running object number                                     
#   2 MAG_AUTO               Kron-like elliptical aperture magnitude                    [mag]
#   3 X_IMAGE                Object position along x                                    [pixel]
#   4 Y_IMAGE                Object position along y                                    [pixel]
#   5 X_WORLD                Barycenter position along world x axis                     [deg]
#   6 Y_WORLD                Barycenter position along world y axis                     [deg]
#   7 A_WORLD                Profile RMS along major axis (world units)                 [deg]
#   8 B_WORLD                Profile RMS along minor axis (world units)                 [deg]
#   9 THETA_WORLD            Position angle (CCW/world-x)                               [deg]
#  10 FWHM_WORLD             FWHM assuming a gaussian core                              [deg]
#  11 ELONGATION             A_IMAGE/B_IMAGE                                           
#  12 ELLIPTICITY            1 - B_IMAGE/A_IMAGE                                       
         1 -11.6069    207.7471     11.1166   5.9715256502e+01   3.2394184955e+01     1.318727    0.8657438 -85.84  0.007662269    1.382    0.276
         2 -13.8460    185.1802     78.0315   7.9342994859e+01   2.8407630760e+01     3.854139     1.802886 -43.25  0.009492999    2.094    0.522
         3 -15.8582    210.1173     67.9796   7.2686924837e+01   2.4149430590e+01     9.948936     5.860847 -79.80   0.04174499    2.359    0.576
         4 -14.1277    194.9760     50.3424   7.0629786928e+01   3.0459280599e+01     7.949106     2.046328 -46.46   0.02458011    4.141    0.759
         5 -14.6553    240.0707      6.9726   5.5951058832e+01   2.5677439592e+01    0.7592797    0.5507638 -68.72  0.003389139    1.124    0.111
         6 -17.0407    245.0873     27.5265   5.9584239553e+01   2.2125082984e+01     3.613162     2.752254  70.65   0.01828646    1.359    0.264
         7 -14.0841    138.6924     10.8767   6.8865854451e+01   4.8594013535e+01     5.760848      1.75163  39.41   0.01721555    5.559    0.820
         8  -9.0288    171.5645     11.2602   6.3971401335e+01   4.0859362681e+01    0.1871049    0.1248117 -33.00 0.0007958824    1.699    0.411
         9  -8.9547    165.1304     12.1530   6.5090146764e+01   4.2293970039e+01     0.178325     0.157002  56.89 0.0004625553    1.143    0.125
        10 -12.5867    119.5678      9.9824   7.2167757374e+01   5.2968361482e+01     1.061927    0.5957737  45.73  0.003594311    1.540    0.351
        11 -10.3900    217.7039      2.7085   5.6952143835e+01   3.1028963075e+01    0.2141252    0.1811449 -25.51 0.0008410591    1.587    0.370
        12  -9.6539    210.0203      2.1973   5.7535909790e+01   3.2810407048e+01    0.2596592     0.161499 -65.82  0.001029101    1.510    0.338
        13  -8.6030    171.8734      2.7404   6.1738683058e+01   4.1591683682e+01    0.1658995    0.1250157 -71.34 0.0004846667    1.352    0.260
        14 -14.8864    248.0656      6.9959   5.5341097355e+01   2.3989828613e+01    0.8446986    0.5938656 -16.33  0.003782689    2.427    0.588
        15 -12.3528     69.1699    145.7321   1.2498238877e+02   3.7342321135e+01     1.172767     1.018427 -83.98  0.004069795    1.100    0.091
        16 -13.7484    236.8224    245.5638   1.0573426259e+02  -1.2223205887e+01     2.066963      1.46059  16.04   0.01030857    1.238    0.192
        17 -12.7043    248.3358    235.4224   1.0191858165e+02  -1.2474351432e+01    0.8394737    0.4377775 -35.95 0.0006235279    1.905    0.475
        18 -12.0103     46.6038    165.1348   1.3379510847e+02   3.5521669405e+01    0.4619397    0.4101577 -15.88  0.001495834    1.537    0.349
        19 -10.2791     27.4854    167.7403   1.3863018239e+02   3.6975538230e+01    0.2081027    0.1702932 -88.81  0.001206743    1.050    0.048
        20  -9.3187    203.7875    161.4230   9.5820842938e+01   7.8273295751e+00      0.38357    0.1954351 -57.51  0.001226975    2.769    0.639
        21 -12.5277     54.0644    160.1749   1.3126069520e+02   3.5816385651e+01    0.8072194    0.6116322  86.74  0.002601227    1.285    0.222
        22 -12.1388     59.7496    155.8532   1.2916291144e+02   3.6143230278e+01    0.8008401    0.5349715  87.25  0.001633691    1.668    0.400
        23  -8.9931     14.8641    233.8662   1.4682992868e+02   2.3710224034e+01    0.1592068    0.1244419 -88.36 0.0003559596    1.222    0.182
        24 -13.0277    169.2053     72.0506   8.0788069413e+01   3.3292851030e+01     1.377103    0.9236445 -49.06  0.001523289    1.533    0.348
        25  -8.5159    201.3050    222.3011   1.0840843064e+02  -3.0942037997e+00    0.1344706   0.09742152   4.22  0.000205973    1.593    0.372
        26  -9.3793    174.9376    150.8970   9.9549423704e+01   1.6104084210e+01    0.2700781    0.2273496  62.83 0.0007104544    1.278    0.218
        27  -9.8087    249.3875    149.6178   8.4955948094e+01   1.2479529261e+00    0.2682897    0.1663381 -40.22  0.001345652    1.417    0.294
        28  -9.9689    133.2894    144.0603   1.0781470754e+02   2.6521153383e+01    0.9333723    0.1960984 -53.07  0.002009422    6.303    0.841
        29  -8.0871    162.2949    144.6769   1.0097325979e+02   2.0215563857e+01    0.1592738    0.1245339 -85.70 0.0003567564    1.618    0.382
        30  -9.6888    184.8716    142.2606   9.5405936312e+01   1.5792038807e+01    0.2771172    0.2061463 -54.09 0.0005850246    1.374    0.272
        31  -8.2216    107.8986    141.2261   1.1372424834e+02   3.2149253808e+01    0.1915388    0.1683067 -32.55  0.000353869    1.248    0.199
        32 -10.8972    192.9642    139.1734   9.2996382007e+01   1.4665484785e+01    0.4989255    0.2968214 -51.07  0.001184925    1.719    0.418
        33 -11.3733    188.6308    137.8970   9.3594006714e+01   1.5883603481e+01    0.4177089    0.3511881  57.61   0.00158875    1.250    0.200
        34  -8.4686    168.3226    138.7115   9.8197502211e+01   2.0208234039e+01    0.1582962    0.1246098 -89.89 0.0002675224    1.604    0.377
        35 -10.4645    210.2966    136.9916   8.9068746887e+01   1.1360567753e+01    0.3318871    0.1878521 -39.08  0.001411574    1.694    0.410
        36  -8.1022     97.2838    133.2789   1.1482700129e+02   3.5956305461e+01    0.1435371    0.1157287 -22.25 0.0002141766    1.512    0.339
        37 -10.7328    188.6368    130.1626   9.1759029414e+01   1.7494716502e+01    0.4960714      0.30777 -63.54  0.001974639    2.105    0.525
        38 -13.0010    185.7819    122.0529   9.0387170766e+01   1.9817855989e+01    0.8865235    0.8520049 -21.06  0.004511402    1.108    0.097
        39 -11.4331    194.0628    117.5681   8.7620446287e+01   1.8839445094e+01     0.440117    0.3355555 -87.15  0.001129522    1.648    0.393
        40 -11.5042    203.9221    128.8663   8.8401927882e+01   1.4362105703e+01    0.6232376    0.4199852 -10.77  0.002515748    2.401    0.583
        41 -10.9707    205.8911    122.8607   8.6611949474e+01   1.5123257099e+01    0.3641728    0.3272194 -43.55   0.00148931    1.065    0.061
        42 -10.0211    136.0000    128.0261   1.0334134218e+02   2.9662027943e+01    0.6685995    0.1761895 -44.68  0.001827179    3.804    0.737
        43 -10.7388    135.0000    121.4923   1.0196857626e+02   3.1351896484e+01    0.7776714    0.4986309 -57.00  0.003215723    1.671    0.401
        44 -10.6102    196.2732    129.0310   8.9939175118e+01   1.6021135502e+01    0.3821819     0.230887 -56.26  0.001102254    1.846    0.458
        45 -11.2143    160.4470    128.7753   9.7601136635e+01   2.4140612793e+01    0.4556545    0.4111584  26.13  0.002303218    1.217    0.178
        46  -9.9604    161.6549    213.6843   1.1502730117e+02   5.5850708696e+00    0.2376275    0.2231218  44.93 0.0005143336    1.024    0.023
        47  -9.6098    192.0386    143.9967   9.4305230973e+01   1.3864870305e+01    0.2306485    0.2256121 -57.41 0.0003604334    1.022    0.021
        48 -11.0495    218.5073    125.7872   8.4982450147e+01   1.1804189071e+01    0.4483211    0.3082262 -14.84  0.001088603    2.082    0.520
        49 -11.1121    198.5658    120.9956   8.7568292185e+01   1.7131478098e+01    0.4228012    0.2321539 -33.19  0.001677272    2.013    0.503
        50 -11.1366    205.9129    101.8482   8.1575298801e+01   1.9182270173e+01    0.5712689    0.3637767 -58.98  0.002534379    1.713    0.416
        51 -10.6544    202.7627    104.9662   8.2898710020e+01   1.9314585690e+01    0.6139547    0.3409636 -65.86  0.002225224    2.762    0.638
        52 -11.9110    215.7628    117.7131   8.3600131073e+01   1.3952705329e+01    0.7034639    0.5133268 -89.32  0.002800797    1.808    0.447
        53 -12.4738    205.6556    111.0153   8.3832541937e+01   1.7493097571e+01    0.8641022    0.6823091  -9.88  0.003761356    1.685    0.406
        54  -8.5603    121.5462    118.7498   1.0477602578e+02   3.4774998658e+01     0.222671    0.1453585 -60.34 0.0009423704    1.699    0.411
        55 -10.7126    176.3824    116.0529   9.0876628704e+01   2.3216411251e+01    0.5203564    0.3444918 -72.89   0.00207369    2.167    0.538
        56 -11.5587    167.6845    113.8258   9.2207591384e+01   2.5691007401e+01    0.5711195    0.4301202  49.80 0.0007877121    1.348    0.258
        57 -10.1164    135.0000    108.9821   9.8729598566e+01   3.4104232194e+01    0.5213366    0.2062822 -43.39  0.001777463    2.504    0.601
        58  -9.9799    156.4356    112.3434   9.4384941656e+01   2.8591452416e+01    0.3162028    0.2472077 -78.73 0.0009382089    1.564    0.361
        59  -9.9063    126.9690    111.8107   1.0155361967e+02   3.5204818325e+01    0.3312703    0.2246663 -59.40 0.0008793537    1.635    0.389
        60 -10.7620    210.9316    112.4190   8.3214047927e+01   1.6036619710e+01    0.4833173    0.2555205  42.14  0.001950026    2.240    0.554
        61 -10.6829    216.4324    104.2950   8.0337748290e+01   1.6343025834e+01    0.4034692    0.2645954  52.02  0.001657612    1.624    0.384
        62  -9.4013    139.8898    105.3678   9.6532438268e+01   3.3799714432e+01    0.2802902    0.2504801  -5.21  0.001418889    1.273    0.215
        63 -10.5039    123.0008    102.8149   1.0020157128e+02   3.7982296339e+01    0.4528941    0.2939611 -75.39   0.00172831    2.601    0.616
        64  -9.8648    118.4536    101.1174   1.0096333481e+02   3.9282131626e+01    0.4806122    0.3057631 -80.27  0.001695199    3.209    0.688
        65  -9.7161    147.0640    101.5161   9.3737681735e+01   3.2987485725e+01    0.3995722    0.3066995  70.71  0.001385698    1.516    0.340
        66  -9.2656     91.9942    100.8302   1.0842099058e+02   4.4349834344e+01    0.5283915    0.2572317 -65.74  0.001643421    4.080    0.755
        67  -9.6008    170.9056     97.6074   8.7300444802e+01   2.8212747412e+01     0.330238    0.2192521  28.77  0.001362814    2.072    0.517
        68  -9.1765    133.4664     97.4726   9.5999461997e+01   3.6858175168e+01    0.2846414    0.2406788 -88.14  0.000580402    1.409    0.290
        69 -10.7735    208.9476     96.1246   7.9663461760e+01   1.9549301828e+01    0.4591726    0.3107235 -74.06  0.002060044    1.853    0.460
        70  -9.8793    191.8576    193.1561   1.0486956169e+02   3.9017014986e+00    0.8705118    0.4392869 -66.19  0.002129729    7.582    0.868
        71 -10.8641    156.2254     95.4042   8.9936454575e+01   3.2102200226e+01    0.5093402    0.3514791  34.18  0.001735608    1.691    0.409
        72  -9.9564    140.1232     91.5890   9.2692188277e+01   3.6558242758e+01    0.4351395    0.2835779 -51.46  0.001921856    1.627    0.385
        73 -11.4360    170.3816     86.5601   8.4476180383e+01   3.0437092117e+01    0.6146042    0.4940503  23.76  0.002992343    1.555    0.357
        74 -11.1361    153.6275     85.6909   8.7857179534e+01   3.4577578926e+01    0.3303582    0.2757565 -38.38 0.0007284061    1.222    0.182
        75 -10.9909    158.9130     85.2391   8.6555480266e+01   3.3415132320e+01    0.4726629    0.3767885 -68.44 0.0006920442    1.412    0.292
        76  -9.9584    163.0262     83.4991   8.5188712542e+01   3.2758192915e+01    0.3825969    0.2452276  56.80  0.001132438    1.556    0.357
        77 -12.4973     67.2724     73.8510   1.0857388001e+02   5.3833707928e+01    0.8347457    0.4846704  15.45  0.003848317    2.296    0.564
        78  -7.9191    124.7122     76.6684   9.2267927463e+01   4.2804571929e+01    0.1486402    0.1149256   5.13 0.0005184305    1.622    0.383
        79  -8.7055    129.4972     73.5064   9.0097332764e+01   4.2325146129e+01    0.2582588    0.1329936 -49.14  0.001025588    2.208    0.547
        80 -10.9298    213.8678    188.1391   9.9431327865e+01   7.2149940535e-01    0.4021199    0.2937292  48.28  0.001103598    1.495    0.331
        81  -9.1979    122.0000     65.9967   8.9726539979e+01   4.5263580023e+01    0.2532218    0.1751631 -28.67 0.0003383183    1.540    0.351
        82 -10.4816    118.7189     63.8880   8.9925818952e+01   4.6320684039e+01    0.4085925     0.289177 -56.89   0.00104857    1.764    0.433
        83  -8.1193    155.6763    160.2972   1.0601968581e+02   1.8127548528e+01    0.1575341     0.122598  83.66 0.0003060681    1.625    0.384
        84  -9.1727    145.7753    156.7372   1.0758068866e+02   2.1000352627e+01    0.3190645    0.2221953  71.91 0.0008052282    1.901    0.474
        85 -13.1720     17.8784    182.6650   1.4228987954e+02   3.4451472032e+01    0.8680497    0.6582949 -88.23  0.003737322    1.018    0.018
        86 -10.1766    144.7502     27.5677   7.2780919266e+01   4.5480869006e+01    0.3259036    0.2288439 -29.75   0.00152289    1.591    0.372
        87 -10.1292    136.0407     26.8338   7.4231838689e+01   4.7584456095e+01    0.2748801     0.181435  83.46   0.00104099    1.923    0.480
        88  -8.8380    109.7263    156.7027   1.1649378853e+02   2.8083940558e+01    0.1947559     0.164446  81.48  0.000426056    1.248    0.199
        89  -8.8781    198.5059    153.0061   9.5025939428e+01   1.0623862180e+01    0.2292498    0.1447776 -41.68 0.0004705962    1.528    0.346
        90  -9.4287     56.8418     19.1328   9.2890827368e+01   6.3914469148e+01    0.2512705    0.1428756 -26.73 0.0009869038    1.701    0.412
        91  -8.7731    196.4250     18.5483   6.2666913838e+01   3.4206416631e+01    0.3098262    0.1768928  21.68  0.001173294    4.502    0.778
        92  -8.7320     71.9644     55.0105   1.0097626799e+02   5.6521732628e+01    0.1811476     0.162095 -71.43 0.0004424578    1.600    0.375
        93  -9.0708    190.8692    180.6761   1.0256433644e+02   6.5535096274e+00    0.2860632    0.1665082 -52.53 0.0007750927    1.913    0.477
        94 -10.4859    221.4993    177.1214   9.5702416878e+01   1.3480116659e+00    0.5355271    0.3448127 -65.28  0.002110744    2.560    0.609
        95  -9.7113    204.1963    177.2017   9.9107489786e+01   4.6253165155e+00    0.3354413    0.1830108  66.07  0.001067028    4.228    0.763
        96 -10.3353    228.5580    172.9790   9.3516016477e+01   8.0864129068e-01     0.251399    0.2032206  59.25  0.001185223    1.530    0.346
        97 -10.8069    218.0014    169.2816   9.4725750336e+01   3.4808046381e+00    0.8097274    0.3438075  59.31  0.002229668    5.699    0.825
        98 -10.3255    230.2576    166.7447   9.1895543343e+01   1.6413815073e+00    0.3091516    0.2187396 -56.40  0.001538689    1.664    0.399
