#   1 NUMBER                 Running object number                                     
#   2 MAG_AUTO               Kron-like elliptical aperture magnitude                    [mag]
#   3 X_IMAGE                Object position along x                                    [pixel]
#   4 Y_IMAGE                Object position along y                                    [pixel]
#   5 X_WORLD                Barycenter position along world x axis                     [deg]
#   6 Y_WORLD                Barycenter position along world y axis                     [deg]
#   7 A_WORLD                Profile RMS along major axis (world units)                 [deg]
#   8 B_WORLD                Profile RMS along minor axis (world units)                 [deg]
#   9 THETA_WORLD            Position angle (CCW/world-x)                               [deg]
#  10 FWHM_WORLD             FWHM assuming a gaussian core                              [deg]
#  11 ELONGATION             A_IMAGE/B_IMAGE                                           
#  12 ELLIPTICITY            1 - B_IMAGE/A_IMAGE                                       
         1 -10.9089     35.1038     22.2867   8.2209861324e+01   6.7885686798e+01    0.3555643     0.194277 -30.21   0.00140183    1.596    0.373
         2 -11.2397     45.6598     27.6510   7.9906276794e+01   6.5696538095e+01    0.5211052    0.3888244 -18.97   0.00327633    1.138    0.121
         3 -11.5546     40.7822     22.1234   7.9547631705e+01   6.7185703603e+01    0.5723229     0.387265 -50.19  0.003143452    2.097    0.523
         4 -11.1491    127.9073     30.4901   5.5125586781e+01   4.9265839057e+01    0.3789816     0.301467 -56.03  0.001367228    1.474    0.322
         5 -11.4273      2.1118     22.1515   9.8835900491e+01   7.0945664833e+01    0.3860498    0.1499969 -49.08  0.001797367    1.950    0.487
         6  -9.8534     15.4914      8.8558   8.5597897901e+01   7.2032647066e+01    0.1965442    0.1195122  -9.87 0.0005208131    1.509    0.337
         7 -11.4198     13.8867     15.5486   8.9699250983e+01   7.1169061668e+01     0.477183    0.3272666 -60.84  0.002820081    2.484    0.597
         8 -11.4804    234.7470     15.0240   3.6163768337e+01   2.5334877220e+01    0.2355625     0.192162 -57.06 0.0002365716    1.086    0.079
         9 -10.2282     86.0335     12.2402   5.8399990381e+01   6.0626803240e+01    0.2389731    0.1781184  51.70 0.0004769446    1.325    0.245
        10 -10.7308     43.6875     13.7893   7.4277455909e+01   6.7935460983e+01    0.2867542    0.2382466 -53.30  0.001824964    1.977    0.494
        11 -10.7148    208.1773     13.6159   3.8175662473e+01   3.1529022236e+01    0.2184734    0.1539438 -48.99 0.0004925184    1.326    0.246
        12 -11.5672     66.6297     13.5077   6.5134690700e+01   6.4236833402e+01    0.4471479    0.2698853  55.30   0.00153825    2.017    0.504
        13 -11.4391     34.7290     12.6939   7.7786967806e+01   6.9307478586e+01    0.3277417    0.2451232 -25.45 0.0009603285    1.258    0.205
        14 -10.7851     37.3959      7.4785   7.3881971219e+01   6.9617732492e+01    0.4636311    0.3337398  11.98  0.003087835    1.185    0.156
        15 -11.9067     30.7509      7.3070   7.6923994907e+01   7.0524135772e+01    0.4525753    0.3844551 -10.27  0.003312079    1.266    0.210
        16 -10.9848    135.0597     11.5478   4.7092379114e+01   4.9582801923e+01    0.2339015    0.2107961  22.57 0.0005578207    1.164    0.141
        17  -9.8869     99.4726     11.7680   5.4614847440e+01   5.7821762198e+01    0.2368488    0.1699408  55.13 0.0008716519    1.315    0.240
        18 -11.0844    125.9985     11.0097   4.8553803496e+01   5.1809160988e+01     0.197252    0.1748177  48.21            0    1.014    0.014
        19  -9.8826      3.8283     10.7660   9.3055880799e+01   7.2739071694e+01    0.1289142    0.1088366 -19.19 0.0002641372    1.263    0.208
        20  -9.6077    104.2146     10.2113   5.2842029557e+01   5.6919756210e+01      0.16335    0.1521401 -80.61 0.0004383563    1.308    0.235
        21  -9.9955     92.9955     10.0183   5.5540077904e+01   5.9387458798e+01    0.2064949    0.1288511  28.10  0.001086546    1.582    0.368
        22 -11.9104     57.1541      4.5337   6.4193425278e+01   6.6860637672e+01    0.6272235    0.3073913 -21.97  0.003298244    1.996    0.499
        23 -10.5680     22.5248      9.6807   8.2283619530e+01   7.1184670678e+01    0.3094344    0.1819309  11.87  0.001879435    1.692    0.409
        24 -10.8326    187.2524      7.3972   3.8694329988e+01   3.7170370727e+01    0.3603301     0.206419  67.83    0.0018619    1.568    0.362
        25 -10.8284    217.9794      7.2915   3.5776267102e+01   2.9931208284e+01     0.180524    0.1466925 -86.35 0.0007755458    1.083    0.077
        26 -10.9516    211.4624      6.3317   3.6103518063e+01   3.1529311489e+01    0.2569698    0.1806642   7.99  0.001383547    2.259    0.557
        27 -10.6582     71.1036      6.4029   6.0286284581e+01   6.4149905283e+01    0.3158688    0.2734791  31.41  0.002116966    1.148    0.129
        28 -10.1078     74.4933      4.5113   5.8334952800e+01   6.3674854366e+01    0.1973938    0.1613557  23.30 0.0007250487    1.012    0.012
        29 -11.1919    151.0063      5.4913   4.2584811813e+01   4.6233766602e+01     0.287429     0.190052 -30.28 0.0003682772    1.642    0.391
        30  -9.8673      2.4630      6.6601   9.1896289304e+01   7.3479736757e+01    0.1683422   0.09101779  14.82 0.0009890315    1.889    0.471
        31 -10.9660    102.4269      2.3889   5.0103880525e+01   5.7991085433e+01    0.3860816    0.2655228  70.69  0.001354215    1.565    0.361
        32 -10.2118    176.1093      2.5639   3.8582017440e+01   4.0333211897e+01    0.2000013    0.1691594  47.62 0.0007332457    1.281    0.220
        33 -10.4037    130.0075      3.0725   4.5025826292e+01   5.1537151495e+01    0.2021882    0.1783285  57.73 0.0005388903    1.010    0.010
        34 -10.6133     19.9548      2.0302   7.9577982892e+01   7.2493112826e+01    0.2249116    0.1659953  28.10  0.001588711    1.546    0.353
        35 -11.1257     80.2258      1.6516   5.5335069720e+01   6.2784685659e+01    0.2957614    0.1382005  49.27  0.001130263    1.807    0.447
        36 -10.4940     11.6594      1.8296   8.4046975802e+01   7.3390484465e+01    0.1759147    0.1386631  14.49 0.0005179512    1.389    0.280
        37  -9.6512      1.3935      2.2771   9.0334383984e+01   7.4217896598e+01    0.1414735   0.08790969 -43.63 0.0009447495    1.606    0.377
        38  -9.9902    192.9590      2.0000   3.6708333161e+01   3.6313079953e+01    0.2141358   0.06521835  72.96 0.0008045554    2.957    0.662
        39 -10.1208    153.9346      1.3662   4.0899754691e+01   4.5866064518e+01    0.1958801    0.1113773  70.67 0.0004117601    1.558    0.358
        40  -9.2969     67.3949      1.4451   5.9111647687e+01   6.5307536684e+01    0.1220271   0.09998265  18.78 0.0001285017    1.022    0.021
        41 -10.0951    212.6459    133.8710   6.7750272116e+01   1.1673887707e+01     0.258717    0.2173547  59.38 0.0008866476    1.395    0.283
        42 -12.6212     14.1941    239.0058   1.2602138886e+02   2.2520182137e+01    0.3949514    0.1419453  50.98  0.001621395    2.084    0.520
        43 -12.1879      4.0713    232.7218   1.2742823766e+02   2.4700620469e+01    0.2744372    0.1906877  73.12  0.002088265    1.015    0.014
        44 -12.8348      9.6803    227.4162   1.2620742998e+02   2.5183305013e+01    0.4470453    0.3264283 -89.64  0.001745414    1.204    0.169
        45 -12.7237      4.8607    240.8435   1.2766294197e+02   2.3101832117e+01    0.5743372    0.2647732  48.24  0.003738169    1.708    0.414
        46 -10.2333      2.4958    132.9720   1.2098836011e+02   4.6604060582e+01     0.303099     0.165594  64.01  0.001550622    1.991    0.498
        47 -10.3942     12.0731    129.9100   1.1810449426e+02   4.6678753549e+01    0.1931937    0.1528742 -82.07 0.0006334181    1.052    0.050
        48  -9.0690     28.6693    128.2633   1.1327719793e+02   4.5729830956e+01    0.1278372    0.0888995  70.09 0.0002238369    1.573    0.364
        49 -10.3182      1.9609    123.2082   1.2011349764e+02   4.8953400725e+01    0.2148566    0.1376992 -74.93 0.0004308351    1.201    0.167
        50 -11.3455     23.8819    121.3616   1.1365958427e+02   4.7829360892e+01    0.4024814    0.2323455  69.36  0.001546664    2.167    0.539
        51 -11.2943      8.3460    120.7025   1.1804225294e+02   4.9146527099e+01    0.3450831    0.2170754 -48.76  0.001487856    1.552    0.356
        52  -9.2873     17.6788    121.7680   1.1551357546e+02   4.8225602391e+01    0.1188496   0.08330786 -43.43 0.0006852687    1.508    0.337
        53  -8.9861     76.2777    120.3484   9.7838262441e+01   4.2012862555e+01      0.15038    0.1057953 -32.96 0.0004761576    1.638    0.389
        54 -10.8469     65.8119    110.8330   9.8916212933e+01   4.5834032297e+01    0.3187008    0.2514639  86.53  0.001082891    1.511    0.338
        55 -11.7893      3.3808    108.9666   1.1801921188e+02   5.2248131455e+01    0.3703409    0.2330052  -9.04  0.001973235    2.224    0.550
        56 -10.9452     57.7793    107.7502   1.0076205462e+02   4.7638659588e+01    0.2551798    0.1998069 -24.41 0.0007053197    1.463    0.317
        57  -9.9640     27.0962    106.2679   1.1027323292e+02   5.1220906495e+01    0.3077056    0.1622418   8.51  0.001444699    2.765    0.638
        58  -9.6807     89.3154    104.6779   9.0132927185e+01   4.3684743053e+01    0.1497546    0.1181826  86.53 0.0005072111    1.661    0.398
        59  -9.9576    186.9100    103.0293   6.4990246335e+01   2.3112146789e+01    0.2291176    0.2179471 -43.35 0.0005578001    1.011    0.010
        60  -9.4531     66.6708    102.2868   9.6645297136e+01   4.7769308632e+01    0.1394015    0.1100954  77.94 0.0003808136    1.615    0.381
        61  -9.6847    246.6421    101.6927   5.4724417253e+01   1.0435254874e+01    0.1359271     0.104395   5.35 0.0003890465    1.728    0.421
        62  -9.9821     58.3013     99.6514   9.8738298585e+01   4.9515744955e+01    0.1400773    0.1070606  84.78 0.0005615032    1.691    0.408
        63  -9.5362     55.5740     97.3018   9.9081444470e+01   5.0416597836e+01    0.1995593    0.1124665 -47.50 0.0009312297    1.561    0.359
        64 -10.4778      3.4170     95.3599   1.1612129390e+02   5.5447961335e+01    0.2437378     0.150582 -54.31 0.0007358461    1.311    0.237
        65 -10.9917     24.3219     88.0693   1.0774432531e+02   5.5767545991e+01    0.3379556    0.2387092 -46.46 0.0006346109    1.219    0.179
        66 -12.2640     20.8431     92.7358   1.0987013337e+02   5.4944068314e+01     0.340036     0.241814 -41.13 0.0004072202    1.333    0.250
        67 -10.6868     19.2472     87.0146   1.0931395499e+02   5.6398780170e+01    0.3878682    0.1844712 -60.16  0.001291467    1.628    0.386
        68 -11.9472    125.2019     93.3141   7.6552155726e+01   3.9228352118e+01    0.2704332    0.2634357 -34.87 0.0002211436    1.019    0.018
        69  -9.6947     78.8528     93.9421   9.0545575814e+01   4.7897618381e+01    0.2171184    0.1794546 -23.47 0.0003131713    1.267    0.211
        70 -10.2398     94.1646     93.1625   8.5488828411e+01   4.5463948574e+01    0.2318458    0.2005536 -16.26  0.000638841    1.220    0.181
        71  -8.9062    113.3100     92.2622   7.9540465372e+01   4.1958068191e+01    0.1502672    0.1198618   1.14 0.0006933548    1.532    0.347
        72 -11.4550     57.8236     91.6451   9.6924133573e+01   5.1458155167e+01    0.3303016    0.2459267   8.70  0.001108387    1.624    0.384
        73 -10.3737     43.9113     90.0200   1.0131674425e+02   5.3480391562e+01    0.3933306    0.2776687  89.18  0.001106169    1.943    0.485
        74 -10.0664     29.5375     92.2815   1.0680234177e+02   5.4347417958e+01    0.2034402    0.1496524  38.74 0.0007710672    1.628    0.386
        75 -10.3695     10.2346     91.6576   1.1327362433e+02   5.5919824752e+01      0.21289    0.1419944 -62.28 0.0007239989    1.161    0.139
        76 -11.6269     11.7825     86.5045   1.1183219396e+02   5.7021632708e+01     0.371734    0.1917524 -81.80  0.001791052    2.215    0.549
        77  -9.2344     99.2912     89.3342   8.2802195960e+01   4.5356309888e+01    0.1544338    0.1157132 -13.49 0.0007022269    1.635    0.388
        78 -12.2405     55.5815     85.7389   9.6156843028e+01   5.3102092522e+01    0.2802174    0.2438615  11.15 0.0004868964    1.274    0.215
        79  -9.2401     76.6373     82.8231   8.8098846856e+01   5.0739757383e+01    0.1898187    0.1289889 -54.83 0.0003426345    1.484    0.326
        80 -10.4027      3.0967     81.9687   1.1407233425e+02   5.8558345671e+01    0.3265703     0.146101 -71.33  0.001629956    1.892    0.471
        81 -10.3662    124.5211     80.2420   7.2776487491e+01   4.2040027191e+01    0.4796638    0.1484653 -40.34  0.001467966    3.160    0.684
        82  -9.9159    250.2558     80.9720   4.9524697472e+01   1.3021116048e+01    0.1794834    0.1006974 -37.71 0.0005313758    1.519    0.342
        83 -10.7023     64.4071     80.4415   9.1586148933e+01   5.3106739648e+01    0.3033656    0.2123558 -28.18 0.0009238387    1.482    0.325
        84  -9.1318     80.7862     78.9970   8.5553063842e+01   5.0886145048e+01    0.1836101    0.1097587 -45.60 0.0003912708    1.550    0.355
        85 -10.3015     26.4933     78.0109   1.0474056742e+02   5.7901830829e+01    0.4482201    0.2165367 -10.25  0.001535591    3.655    0.726
        86 -11.3129     11.1072     78.4505   1.1052999325e+02   5.8909476009e+01    0.2799363    0.1242587  15.35  0.001378632    2.824    0.646
        87  -9.6566    176.7508     76.6216   5.9743476945e+01   3.0358883659e+01    0.2111291    0.1460235  69.18 0.0008386869    1.626    0.385
        88 -10.1797     55.5248     76.0585   9.3475761428e+01   5.5269905103e+01    0.2901011     0.194749  -0.27  0.001211829    1.925    0.480
        89 -10.1896     42.4610     75.7084   9.8192220165e+01   5.6894689288e+01    0.2823395    0.2077956  46.16  0.001379869    1.716    0.417
        90 -11.2107     37.0352     74.9648   1.0002643256e+02   5.7623166133e+01     0.597155    0.1969125 -53.40  0.001172696    2.383    0.580
        91 -10.0727     33.1600     73.3645   1.0107297869e+02   5.8353114915e+01    0.2854736    0.1906458  29.72  0.000975357    1.748    0.428
        92 -10.7600     14.9963     75.5683   1.0848728676e+02   5.9312663567e+01    0.2586287    0.1927951  60.74 0.0009400775    1.805    0.446
        93  -9.3984     36.4238     81.4175   1.0190158774e+02   5.6231801488e+01    0.1325208    0.1095625 -46.73 6.227876e-05    1.012    0.011
        94  -9.8635     89.3989     80.8182   8.3305784607e+01   4.9006070210e+01    0.2753747    0.1762878 -59.95 0.0009530355    1.910    0.476
        95 -10.6663     20.8671     73.1195   1.0570878093e+02   5.9445752356e+01    0.3149341    0.1644578 -59.87 0.0008331551    1.572    0.364
        96  -9.4646     81.1948     73.4223   8.3656155108e+01   5.1983705792e+01     0.199113    0.1623027 -31.97 0.0002932803    1.136    0.120
        97  -9.2395    217.0000     72.0456   5.1810287518e+01   2.1569716100e+01    0.2221143   0.07596122 -34.78 0.0003629135    2.714    0.632
        98 -11.3501    106.2856     71.3023   7.5036715853e+01   4.7675405295e+01    0.3613505    0.2966588  72.92   0.00164067    1.579    0.367
        99  -9.3255     80.5235     67.4944   8.1931223017e+01   5.3295558992e+01    0.2471182    0.1402672  39.07  0.001054876    1.861    0.463
       100 -10.2874     77.4930     66.8929   8.2763993220e+01   5.3929002687e+01    0.5242165    0.1830904 -33.86  0.001592964    3.971    0.748
       101 -10.7910     10.4169     69.1607   1.0883161318e+02   6.1032261155e+01    0.3555653    0.1493527 -57.17  0.001425183    1.748    0.428
       102 -10.2649     46.1732     69.4826   9.5019703310e+01   5.7836809997e+01    0.2087935    0.1320407  19.85 0.0006335521    1.815    0.449
       103 -11.0137      4.2470     67.9127   1.1096169159e+02   6.1653305311e+01    0.4012124    0.2101066  49.36  0.002032355    2.928    0.658
       104 -10.1398     16.0741     67.2424   1.0616746546e+02   6.1089426426e+01    0.2201117    0.1747769  69.26  0.001378722    1.733    0.423
       105 -10.1423     14.4356     63.5162   1.0590884159e+02   6.2010950966e+01    0.2597294    0.2029663   3.37  0.001409359    1.474    0.322
       106  -8.9199     96.7237     64.2738   7.5562680618e+01   5.0927905359e+01    0.1329329    0.1165434 -78.19            0    1.491    0.329
       107  -9.3648     72.6568     63.7635   8.3390322190e+01   5.5342125571e+01    0.1879016    0.1228279 -48.94 0.0004502062    1.550    0.355
       108 -10.8211      6.2793     63.1725   1.0912007913e+02   6.2580725806e+01    0.2799916    0.1919892  45.65  0.001721215    1.996    0.499
       109  -9.7034     62.8145     62.2720   8.6445392783e+01   5.7150361465e+01    0.2936325    0.1645893 -36.47  0.001390173    1.658    0.397
       110 -10.5682     38.9654     61.8583   9.5525576816e+01   6.0247978397e+01    0.3311989     0.187799 -50.26  0.001171671    1.513    0.339
       111 -13.1690     20.4504     58.2021   1.0202657650e+02   6.2711470133e+01    0.3919016    0.2521281 -62.30  0.001154124    1.513    0.339
       112  -9.6683    194.3081     58.9668   5.1777853877e+01   2.8966455174e+01    0.1961689     0.186724 -88.60 0.0007382596    1.046    0.044
       113 -10.8612     84.2324     56.9930   7.7020134813e+01   5.4630117430e+01    0.3642243    0.2335871 -51.98  0.001713813    1.859    0.462
       114 -11.1371     88.3928     52.9276   7.4165858276e+01   5.4573545118e+01    0.3292491    0.2691292  -2.46  0.001061499    1.230    0.187
       115  -9.6872     48.3149     58.6590   9.0777891453e+01   5.9827163148e+01    0.1874055    0.1586571 -84.60  0.001017788    1.737    0.424
       116 -10.3948      9.5217     59.5088   1.0692317633e+02   6.3182942750e+01     0.174827    0.1174642  10.69 0.0001444868    1.761    0.432
       117  -9.3153     11.7015     57.3080   1.0545264165e+02   6.3515529981e+01    0.1335472   0.09411947 -41.49  0.000254792    1.133    0.117
       118 -10.1595    104.0308     56.5008   7.0626605610e+01   5.0836846626e+01    0.2429843    0.1900876 -17.40 0.0004012189    1.314    0.239
       119 -10.8698    105.6432     52.6594   6.8782382178e+01   5.1142383627e+01    0.2548253    0.2371518  10.90 0.0002945396    1.013    0.013
       120  -9.7751     71.5854     56.9132   8.1372422680e+01   5.6828647879e+01    0.2069335    0.1250065 -41.78 0.0007267266    1.556    0.357
       121 -10.3276     33.3462     55.7497   9.5902541498e+01   6.2081856653e+01    0.4948304    0.1793688 -38.13  0.002019501    2.673    0.626
       122 -10.1754     26.7520     56.9742   9.9034113208e+01   6.2447698849e+01    0.2630554    0.1604004  -9.23  0.001415174    1.951    0.487
       123 -10.5741      4.4880     57.5170   1.0852938371e+02   6.3890926609e+01    0.1786684    0.1018101 -12.29  0.001018093    2.045    0.511
       124 -11.4100    114.7371     53.7839   6.6641052394e+01   4.8984892602e+01    0.3254231     0.294906 -76.54 0.0008152935    1.335    0.251
       125  -9.1722    165.0199     54.1969   5.5398238858e+01   3.6910896900e+01    0.1885333    0.1131849  59.33            0    1.637    0.389
       126 -11.7939     65.6021     52.6083   8.1991996398e+01   5.8577525346e+01    0.4375239    0.2253855  37.53  0.001430323    2.053    0.513
       127  -9.4926    149.4748     51.9837   5.7769197237e+01   4.1088507933e+01    0.2118948    0.1436783 -35.01 0.0008043116    1.493    0.330
       128  -9.9532    121.8174     51.7704   6.4073702070e+01   4.7712455232e+01    0.2108169    0.1877946  19.80 0.0003410045    1.120    0.107
       129 -11.8745     77.9555     46.8696   7.5382466259e+01   5.7523573563e+01    0.5325496    0.3805567  11.38 0.0008769027    1.542    0.351
       130 -10.0132      4.1751     50.7961   1.0697508406e+02   6.5316895435e+01    0.1725978     0.102728 -40.81 0.0004153381    1.327    0.247
       131  -9.2025    161.2495     49.9972   5.4824612057e+01   3.8474134225e+01    0.1794537    0.1246779 -32.65 0.0002972558    1.470    0.320
       132 -10.6011     38.6295     48.4583   9.1227551677e+01   6.2963526359e+01    0.2088394     0.170305 -25.14  0.000160361    1.021    0.021
       133 -10.9588      8.0964     34.5213   1.0026865614e+02   6.8310454725e+01      0.47306    0.2681961  47.75  0.002432435    3.331    0.700
       134 -11.5644      9.2302     46.8029   1.0362259716e+02   6.5840431024e+01    0.3826757    0.2158006 -54.75    0.0017409    1.434    0.302
       135 -11.2958      2.7796     35.0664   1.0304983943e+02   6.8529455144e+01    0.4362596    0.2691187 -77.25  0.002400674    2.544    0.607
       136 -10.0987     14.2210     48.9477   1.0202595398e+02   6.5077216264e+01    0.2220147    0.1445837 -59.96 0.0007291583    1.468    0.319
       137 -11.0701     15.4289     43.7558   9.9869814914e+01   6.6025053528e+01    0.4836714    0.3530483  88.31  0.002751323    2.459    0.593
       138  -9.5596     19.6657     44.6942   9.8249346927e+01   6.5514321662e+01    0.2014397   0.09634237 -47.87 0.0006501272    1.640    0.390
       139  -9.3868    101.9586     48.0401   6.8166903024e+01   5.2665636661e+01    0.1698909    0.1563559  16.98 0.0004302856    1.028    0.028
       140  -9.7749     58.1503     48.3859   8.3253530075e+01   6.0466407697e+01    0.4517139    0.1829526  40.89 0.0001521063    2.779    0.640
       141 -10.1885     56.6806     45.6752   8.2796977261e+01   6.1164224359e+01    0.3771175    0.1601467  28.86  0.001575181    2.741    0.635
       142  -9.5813    154.5321     47.4837   5.5325323143e+01   4.0506512261e+01    0.2220456    0.1910923 -21.59 0.0005187317    1.236    0.191
       143  -9.7142    152.3923     44.5932   5.4825714471e+01   4.1447978117e+01     0.209228    0.1974236 -73.93 9.589496e-05    1.093    0.085
       144 -10.2299     30.9369     45.3507   9.3445100805e+01   6.4370933789e+01    0.3237477    0.2447218 -60.35  0.001298806    1.599    0.375
       145  -9.3257    135.5532     46.4816   5.8965824894e+01   4.5289239163e+01     0.142188    0.1398284  78.16 0.0004803649    1.064    0.060
       146  -9.7858     67.7865     46.8289   7.9003977372e+01   5.9259881627e+01     0.296197    0.0939066  35.04   0.00102215    3.614    0.723
       147 -10.8077      3.1824     42.3644   1.0509221342e+02   6.7081791592e+01    0.2050294    0.1372246 -24.47  0.001239653    1.380    0.275
       148 -12.1796    141.2246     41.4998   5.6067695041e+01   4.4622789947e+01    0.3005709    0.2584043 -73.37  0.001291378    1.319    0.242
       149 -10.4291     69.1781     42.0606   7.6624009014e+01   5.9833937089e+01    0.2056197    0.1889502  20.22            0    1.191    0.160
       150 -10.4592     35.7353     41.1600   8.9802493972e+01   6.4648664666e+01     0.276275     0.205513 -28.27  0.001726285    1.105    0.095
       151  -9.6269    184.0025     41.4595   4.8494319429e+01   3.4016873223e+01     0.301662    0.1813523  88.96  0.001312111    2.083    0.520
       152 -10.3963     43.1691     40.4061   8.6291280343e+01   6.3911421377e+01    0.2224724    0.1831029 -33.59 0.0009569921    1.169    0.145
       153 -10.6378     26.1739     45.0785   9.5457340431e+01   6.4879222457e+01    0.3735825    0.1723984 -55.84  0.001799061    2.171    0.539
       154 -10.1282    128.1719     38.8373   5.8009505964e+01   4.8126181496e+01     0.199931    0.1884328 -69.42 0.0003278134    1.182    0.154
       155 -11.6195    121.3237     37.2661   5.9055706462e+01   4.9944804943e+01    0.3842097    0.3730925  11.76  0.001241386    1.056    0.053
       156 -10.1977     22.4462     38.0770   9.4672896202e+01   6.6540305147e+01     0.195752    0.1640736  12.99 0.0005580626    1.348    0.258
       157 -10.9540     27.0396     34.9324   9.1345956709e+01   6.6682134968e+01     0.301168    0.1686599 -22.63 0.0007942243    1.791    0.442
       158  -9.3771    223.6559     36.2179   4.2112218367e+01   2.5237609319e+01    0.1728707    0.1210125 -26.87 0.0004593083    1.569    0.363
       159 -10.0041     90.0435     35.9770   6.7122700947e+01   5.6923648299e+01    0.2109203    0.1810177  13.77 0.0004801215    1.069    0.064
       160  -9.1039    185.4678     35.4495   4.6594847018e+01   3.4445613319e+01    0.1407252    0.1263786 -78.05 6.406158e-06    1.051    0.049
       161 -10.6058     73.8192     33.7167   7.1552707592e+01   6.0327404216e+01    0.3866676    0.2478117 -48.64   0.00186005    2.046    0.511
       162  -9.5189     35.3279     28.8339   8.5011607143e+01   6.6826969017e+01     0.214324   0.09463307 -40.49 0.0004024333    1.986    0.496
       163  -9.8442    229.6733    247.9811   8.6977766613e+01  -9.1548219876e+00    0.1556854    0.1232156  -1.10 0.0005865746    1.133    0.117
       164 -11.8624     39.4435     32.9627   8.4905383637e+01   6.5650730241e+01    0.4605823    0.2986524 -32.76  0.001674571    1.318    0.241
       165 -10.2148    224.9965    247.2313   8.7679976639e+01  -8.4252890496e+00    0.2002818    0.1479211 -14.83  0.001374496    1.310    0.237
       166  -9.4610    170.5939    247.1649   9.7659385004e+01  -4.1692340864e-01    0.1531743    0.1096963 -22.90 0.0008630464    1.695    0.410
       167  -9.5549     97.2779     34.7034   6.4447277696e+01   5.5619733931e+01    0.1260451    0.1092831 -65.83 0.0006949568    1.533    0.348
       168 -10.6900     19.2180     32.4859   9.4112126673e+01   6.7843657255e+01    0.4502089    0.2568291  11.01  0.002610395    1.924    0.480
       169  -9.4137     96.0264    133.9413   9.5122834053e+01   3.5520148259e+01    0.1814207     0.168402 -65.18 0.0005334132    1.014    0.013
       170  -9.1516    162.5946     31.7185   4.8971697783e+01   4.0603663442e+01    0.1515664    0.0976036  37.78 0.0003856636    1.785    0.440
       171  -9.5479    119.7787     29.8038   5.6708827759e+01   5.1262859478e+01    0.1805729    0.1619401 -67.40 0.0004257909    1.317    0.241
       172 -10.8313     68.9093     26.6291   7.0269225978e+01   6.2199248166e+01    0.3219969    0.2442183 -37.75  0.001021084    1.479    0.324
       173 -10.9593    113.7934     26.1236   5.6754961159e+01   5.3084320356e+01    0.2633769    0.2209086 -38.27  0.000677772    1.316    0.240
       174 -10.5477    100.5426     26.3904   6.0241169691e+01   5.6000028906e+01    0.2843485    0.1916715  41.09 0.0008256856    1.366    0.268
       175 -10.0740     77.1750     26.8561   6.7497911077e+01   6.0668776764e+01    0.2888738    0.1823287  -7.56  0.001464359    1.770    0.435
       176  -9.4705     80.7093     23.6250   6.4951682798e+01   6.0409427165e+01    0.2629294     0.131295  19.64 0.0005924551    3.130    0.681
       177  -9.7943     84.2136     21.5848   6.2975825599e+01   5.9968998916e+01    0.2023596     0.120102  46.39  0.001036347    1.579    0.367
       178  -9.0487    139.0680     27.0000   5.1628179101e+01   4.6989230497e+01     0.237525   0.07471275  61.69 0.0008063283    2.969    0.663
       179  -9.0097     18.6916     25.7581   9.1684045345e+01   6.9067164732e+01    0.3204047   0.09933049 -36.40  0.001350995    2.911    0.656
       180 -10.8155     14.8025     21.6033   9.1910306233e+01   7.0107292868e+01    0.3943709    0.1930854  22.41  0.001743039    2.183    0.542
       181  -9.0141     74.2629    243.6771   1.1563162912e+02   1.4537392050e+01    0.1190702   0.07221754  67.36 0.0003856118    1.557    0.358
       182  -9.2683    154.0470     25.7621   4.8530361325e+01   4.3439270241e+01    0.1840575    0.1104128  65.78 0.0008670639    1.571    0.363
       183 -10.3847     59.4686     23.4645   7.2379477374e+01   6.4228484191e+01    0.2189077    0.1628479 -11.88 0.0006364466    1.209    0.173
       184 -10.0661     58.5162     19.5217   7.0938820232e+01   6.4907621217e+01    0.2010575    0.1930706  77.68 0.0005648829    1.601    0.375
       185 -11.9467      9.9957     29.5140   9.7537793199e+01   6.9106372317e+01    0.4416855    0.2897988  51.53  0.001173775    2.940    0.660
       186 -10.2423     90.7165     22.2897   6.1329592149e+01   5.8566373582e+01    0.3029622    0.1924647  44.92  0.001501298    1.445    0.308
       187 -10.5359     75.1536     21.8493   6.6000405775e+01   6.1687539494e+01     0.288101    0.2108925  -2.79 0.0006159525    1.329    0.248
       188 -10.9326     76.0579     17.9908   6.3991826596e+01   6.1979094856e+01    0.3366807    0.1648803  41.08  0.001301061    1.868    0.465
       189 -10.9782     30.2398     21.2756   8.4042585327e+01   6.8616382460e+01    0.2450237    0.1775639  15.06  0.001099932    1.339    0.253
       190  -9.7542      6.9721     20.9125   9.5742140434e+01   7.0838002871e+01     0.138624    0.1366194 -88.38 0.0004556832    1.621    0.383
       191  -9.1613    131.6953     20.6804   5.0883723813e+01   4.9482240332e+01    0.1436627   0.09548616  31.76 0.0007029099    1.632    0.387
       192 -10.1810     35.8324    240.8037   1.2238735660e+02   1.9852725953e+01     0.163381   0.09834126  65.89  0.001011585    1.322    0.243
       193  -9.6242     20.5843     17.2879   8.6993948103e+01   7.0266475075e+01    0.2376703    0.2059385  -8.51  0.001757095    1.264    0.209
       194  -9.5726    202.4493    240.0824   9.0628857137e+01  -4.2566381715e+00    0.1624649    0.1138983 -29.64 0.0007042614    1.544    0.352
       195 -11.0296    209.0217     18.3012   3.9251651875e+01   3.0812561966e+01    0.1880191    0.1530197 -89.74 0.0005867955    1.115    0.103
       196 -10.2625    114.8035     17.3397   5.3197562975e+01   5.3819934070e+01    0.2259242    0.1450547  49.79 0.0002816688    1.385    0.278
       197  -9.6582    117.5389    239.4676   1.0691608570e+02   9.0528794273e+00    0.1238195    0.1033113  49.77 0.0001155875    1.003    0.003
       198  -9.5323     91.3119     16.6701   5.8804241144e+01   5.9073154197e+01    0.2195282    0.1250416  61.80  0.001052561    2.006    0.501
       199  -9.6323     89.5147     13.5000   5.7960505819e+01   5.9779513060e+01    0.2068106    0.1505574  38.52 0.0005609577    1.210    0.174
       200  -9.0903    148.5057    238.5010   1.0071979468e+02   4.3814563229e+00    0.1257527    0.1058821  37.81 5.657801e-05    1.001    0.001
       201 -10.2067     82.9273     16.0278   6.0965582686e+01   6.0858700791e+01     0.194598    0.1706977  15.16 0.0003845336    1.045    0.043
       202 -10.2607    154.3022     14.9947   4.5090146263e+01   4.4531331053e+01    0.1815734    0.1743182  67.14 0.0004074645    1.061    0.058
       203  -9.7658     91.0066    237.0848   1.1182770839e+02   1.3422886177e+01    0.1622722    0.1455946 -19.59 0.0008544188    1.618    0.382
       204 -12.0198     25.6033    235.9594   1.2389043326e+02   2.1902617570e+01    0.2881247    0.1799572  40.30  0.001134883    1.604    0.377
       205  -9.8251    249.3259    233.9290   8.1284877501e+01  -1.0083831794e+01    0.1604865    0.1194713  -2.88 0.0004297224    1.078    0.072
       206 -12.2269      2.2379    222.5108   1.2726208256e+02   2.6847661675e+01    0.5518639    0.1630388 -78.20  0.002707381    2.833    0.647
       207  -9.1604    243.3165    230.3023   8.1692073402e+01  -8.8329520944e+00    0.1227358   0.07499131   4.13 0.0007023235    1.620    0.383
       208  -9.3941     47.8465    229.8782   1.1944098654e+02   2.0538259039e+01    0.1636062    0.1046213  67.12 0.0004382557    1.309    0.236
       209 -10.3973    164.9574     12.5274   4.2810708300e+01   4.2138537007e+01    0.1996238    0.1203806  68.59 1.016645e-05    1.498    0.332
       210  -9.6879    209.4875    229.5234   8.7617739344e+01  -3.8466643680e+00    0.1258652    0.1015464  12.72 7.918999e-06    1.024    0.024
       211 -10.4724    140.5994    228.6008   1.0093104931e+02   7.3264221246e+00     0.254284    0.1250888 -50.57  0.001033985    2.336    0.572
       212 -10.0729    223.2055    226.8158   8.4645535210e+01  -5.5245525525e+00    0.1741976    0.1209555   4.49  0.000425063    1.361    0.265
       213  -9.0292    126.5228    220.5677   1.0269973840e+02   1.1071358451e+01    0.1309049    0.1134519  49.21 0.0001639207    1.016    0.016
       214 -11.1605      9.0120    217.8929   1.2582264331e+02   2.7132622577e+01    0.2197726    0.2014257 -73.35  0.001612986    1.497    0.332
       215 -10.0234    205.6401    212.4430   8.5402994719e+01  -7.1301027980e-01    0.2261562    0.1538414 -27.77  0.000743032    1.492    0.330
       216  -9.7698     15.4256    213.4786   1.2439017276e+02   2.7408487612e+01    0.1156692   0.08383986  76.16 6.525429e-05    1.033    0.032
       217 -12.8163     13.4015    247.6537   1.2657415709e+02   2.1007989689e+01    0.9195126    0.1957124  46.66  0.004516586    2.915    0.657
       218  -9.0777    249.4880    211.4937   7.7302194223e+01  -7.2412267755e+00    0.1250641    0.0958617  -1.08 0.0008100878    1.047    0.045
       219  -9.1130    209.6760    211.3119   8.4433054857e+01  -1.1901768612e+00     0.116071    0.1049967  70.18 0.0007039832    1.657    0.397
       220 -10.0697     20.1972    209.8460   1.2325697764e+02   2.7683929269e+01    0.1857133    0.1164622  67.45  0.000665402    1.301    0.232
       221 -11.4605      3.0464    249.0969   1.2830607695e+02   2.1775514194e+01    0.4362966    0.2468799  53.24  0.003186543    1.361    0.265
       222  -9.5315    193.6164    201.8208   8.5823317461e+01   3.0130496564e+00     0.189062    0.1518041  21.83 0.0006407273    1.141    0.124
       223 -10.0932     23.5375    196.8275   1.2167669665e+02   3.0121407450e+01    0.2071673    0.1719182 -57.98  0.001154159    1.501    0.334
       224 -10.8929     13.8780    192.6072   1.2333327926e+02   3.1978818593e+01    0.2137307    0.1369813  74.40 0.0005155407    1.287    0.223
       225 -10.6862      6.0862    191.9180   1.2485365081e+02   3.2830107373e+01    0.1819866    0.1374912  86.72  0.001288515    1.051    0.048
       226  -9.5455      1.2637    191.1173   1.2576093549e+02   3.3414406843e+01    0.1663908   0.07664452 -89.35 0.0006457539    1.792    0.442
       227  -9.5846     22.4933    179.9559   1.2054398439e+02   3.3982649618e+01    0.1777927    0.1000618 -77.96 0.0004400824    1.482    0.325
       228  -9.3911     13.3606    180.6596   1.2257219909e+02   3.4672922506e+01    0.1327466   0.06828765  67.05 0.0006574051    1.829    0.453
       229 -10.3654      5.0697    167.1275   1.2334592449e+02   3.8440133513e+01    0.1794982    0.1390031 -71.01 0.0009299598    1.241    0.194
       230  -9.4737    226.3977    163.8273   7.1938449546e+01   3.7115240908e+00    0.1954906    0.1194118 -25.33 0.0007037487    1.616    0.381
       231 -10.5684      2.4984    153.5011   1.2285227794e+02   4.1777743633e+01    0.2089388    0.1194145  25.31  0.001220433    2.198    0.545
       232 -10.1303     15.8496    150.6359   1.1937223812e+02   4.1421356140e+01    0.1688516    0.1469716 -45.70 0.0006042445    1.401    0.286
       233  -9.0651     37.2930    146.2522   1.1339305861e+02   4.0492120742e+01    0.1215138   0.09205221 -44.79 0.0001894927    1.486    0.327
