#   1 NUMBER                 Running object number                                     
#   2 MAG_AUTO               Kron-like elliptical aperture magnitude                    [mag]
#   3 X_IMAGE                Object position along x                                    [pixel]
#   4 Y_IMAGE                Object position along y                                    [pixel]
#   5 X_WORLD                Barycenter position along world x axis                     [deg]
#   6 Y_WORLD                Barycenter position along world y axis                     [deg]
#   7 A_WORLD                Profile RMS along major axis (world units)                 [deg]
#   8 B_WORLD                Profile RMS along minor axis (world units)                 [deg]
#   9 THETA_WORLD            Position angle (CCW/world-x)                               [deg]
#  10 FWHM_WORLD             FWHM assuming a gaussian core                              [deg]
#  11 ELONGATION             A_IMAGE/B_IMAGE                                           
#  12 ELLIPTICITY            1 - B_IMAGE/A_IMAGE                                       
         1 -12.2801    197.4886     38.2431   4.7960286509e+01   3.1118387495e+01    0.9545825    0.9387591  51.99  0.003831391    1.155    0.134
         2 -12.5446    207.9514     27.1644   4.3713183462e+01   2.9958851068e+01    0.9139699    0.7746181  29.82  0.002091808    1.507    0.336
         3 -11.1573     32.6457     34.2383   9.2219054937e+01   6.6269754458e+01    0.7025705    0.1611497 -46.36  0.002609569    3.493    0.714
         4  -8.9701     61.6282      8.1917   6.7966389304e+01   6.6090983898e+01    0.1733721    0.1038809 -11.49 0.0005583931    1.688    0.408
         5 -11.0922    232.2096      3.2225   3.5664126671e+01   2.6973267728e+01    0.7639193    0.3517118  75.18  0.003797379    2.012    0.503
         6  -9.7631     42.7645      6.5766   7.4977340322e+01   6.9251149855e+01    0.1548982    0.1073517  41.26 0.0006515713    1.684    0.406
         7  -8.6844     53.8219    231.1510   1.2025131782e+02   2.0009504819e+01    0.2532632    0.1368088 -89.76  0.001454499    1.864    0.464
         8 -10.1324    116.6243    249.6775   1.1013726886e+02   7.8819305098e+00    0.3860537    0.1922082  55.38   0.00201811    1.948    0.487
         9 -13.9477     86.0220    227.3356   1.1372419473e+02   1.6399356781e+01     4.243114     2.348518  39.10   0.02331276    1.653    0.395
        10  -8.7117    192.4936    193.9758   8.6753943066e+01   4.5996108664e+00    0.1821541    0.1230097 -66.83 0.0008103924    2.614    0.617
        11  -9.5011     73.3231    187.9719   1.1207312210e+02   2.6386560889e+01    0.5503793    0.2572144  70.05  0.002083673    3.301    0.697
        12  -8.3270     99.4404    180.7263   1.0505798710e+02   2.4046567798e+01    0.1799541    0.1287582 -52.47 0.0009322464    1.502    0.334
        13 -10.0907     70.0208    176.4815   1.1140533267e+02   2.9453366879e+01      0.27849    0.2456817 -19.99 0.0006139116    1.582    0.368
        14 -10.7923     73.9468    171.7895   1.0984670640e+02   2.9990501737e+01    0.5177455    0.3419243 -31.57  0.002432385    2.441    0.590
        15  -9.3443    114.3233    173.3600   1.0034375479e+02   2.3178956393e+01    0.3565657     0.244879  83.11  0.001647677    1.895    0.472
        16 -10.2730     99.3924    170.1327   1.0341625349e+02   2.6461189213e+01    0.7885779     0.247451  49.01  0.002525995    3.581    0.721
        17 -11.4374     18.0056    191.9370   1.2435816517e+02   3.2029795619e+01     0.310543    0.2394705  55.12 0.0004511341    1.265    0.209
        18 -12.7237     68.5923    144.2928   1.0709000602e+02   3.7315293352e+01     2.251253     1.109554  82.80  0.004480707    4.761    0.790
        19 -11.0341     83.1088    161.8173   1.0612395442e+02   3.0991198144e+01    0.8729757    0.3968625  58.52 0.0004923039    2.982    0.665
        20 -12.0598     71.5307    156.9335   1.0830955645e+02   3.3847830351e+01    0.5515103    0.5013526 -42.48  0.001280526    1.299    0.230
        21  -8.5034    159.2455    162.4996   8.7694809178e+01   1.6986121297e+01    0.2668062    0.2079887 -48.44 0.0009705953    1.335    0.251
        22 -10.5954     89.7813    154.8483   1.0327588262e+02   3.1613417663e+01    0.5943889    0.4177264 -24.22  0.001700532    2.198    0.545
        23 -10.9882     58.6696    145.8584   1.0999404701e+02   3.8239191903e+01    0.7534194    0.3541052 -71.09   0.00325719    2.073    0.518
        24 -10.1435     53.0488    148.4913   1.1186082005e+02   3.8290917548e+01    0.3900959    0.2621556  55.69  0.002104288    1.528    0.345
        25  -7.8351    174.3419    148.6746   8.1306064366e+01   1.6723361817e+01    0.1545949    0.1230043  89.06 0.0005799233    1.734    0.423
        26  -9.2826     40.9874    147.2875   1.1484161700e+02   3.9946598396e+01    0.2862071    0.1593351 -71.33  0.001461382    1.549    0.355
        27  -9.5029     44.4118    144.2885   1.1355215030e+02   4.0299955423e+01    0.2584412    0.1731169  21.01 0.0008936383    1.929    0.482
        28  -9.1820     84.9211    144.2892   1.0268992072e+02   3.4923181283e+01    0.2705849    0.2226196 -88.78 0.0006923811    1.223    0.182
        29  -9.4195    103.1437    140.2294   9.7001883337e+01   3.2874212440e+01    0.4757915    0.2939219 -28.51   0.00188585    2.508    0.601
        30 -10.5530     90.8689    139.9048   1.0025659484e+02   3.5037454848e+01    0.2959595    0.2554009 -45.61 0.0003682543    1.219    0.179
        31  -8.7498     44.6493    139.1433   1.1277678619e+02   4.1521760572e+01    0.2751148    0.1149519 -76.38   0.00109379    2.549    0.608
        32 -10.3763     33.2081    131.6656   1.1486860579e+02   4.4503332620e+01    0.4024382    0.2037478 -53.34  0.001990021    1.832    0.454
        33  -8.3925    135.4963    133.4854   8.7026650394e+01   2.8218017895e+01     0.153154    0.1521642 -23.28 0.0008102521    1.035    0.034
        34 -10.2203     45.1844    131.2682   1.1147008724e+02   4.3381525470e+01    0.3518401    0.1809883 -80.66  0.001562484    2.112    0.527
        35  -9.2994    133.7519    143.1576   8.9661420898e+01   2.6377232833e+01    0.4882917    0.2252721 -52.35  0.001500213    2.242    0.554
        36  -8.9105    106.2646    130.7986   9.4149818415e+01   3.4567732103e+01    0.3497263    0.2720578 -58.91  0.001730661    1.255    0.203
        37  -8.6061    135.7650    128.7142   8.5827683829e+01   2.9242649925e+01    0.2506005    0.1261835 -57.40 0.0008892349    2.364    0.577
        38 -13.1655     58.5432    242.9720   1.2026693572e+02   1.7210394586e+01    0.9703498    0.6018499  47.56 0.0008735096    1.329    0.247
        39  -9.2024     99.4026    126.5554   9.5115329050e+01   3.6812852410e+01    0.2874386    0.2428251 -19.07 0.0007430978    1.427    0.299
        40  -9.0818    112.2783    130.1953   9.2373523533e+01   3.3594131135e+01    0.2554248    0.2126661  24.11 0.0008526953    1.365    0.267
        41  -9.4784    119.4552    123.3817   8.8834910323e+01   3.3800656786e+01    0.3760838    0.2415586 -10.98  0.001306908    3.165    0.684
        42  -8.2041    108.2160    119.1599   9.0919550978e+01   3.6964491654e+01    0.2172364    0.1998333 -25.32 0.0003128657    1.168    0.144
        43  -9.6961     53.2833    118.0016   1.0687619833e+02   4.5706284010e+01    0.2028557    0.1620647 -64.22 0.0005593899    1.094    0.086
        44  -8.4556    167.5152    112.9883   7.4168252339e+01   2.5601284716e+01    0.3204191    0.2018432  87.83  0.001032182    3.488    0.713
        45 -11.2360     43.5851    109.3575   1.0825652157e+02   4.8882530784e+01    0.4722377    0.3373197  37.98  0.002637374    1.585    0.369
        46  -9.0458    115.2282    109.7047   8.6573600393e+01   3.7797872361e+01    0.2497965    0.1174099 -39.23 0.0008844683    2.343    0.573
        47  -9.3340    134.6161    106.0506   8.0330635390e+01   3.4542078191e+01    0.3772562    0.1496246 -44.25  0.001263724    2.486    0.598
        48  -8.9089     40.4246    224.1788   1.2224186317e+02   2.2980240777e+01    0.2915635    0.1671038  87.28 0.0009043491    1.584    0.369
        49  -9.2107     53.0702     94.9076   1.0218733241e+02   5.1281138907e+01    0.3347831    0.1824128 -83.05  0.001254184    3.286    0.696
        50 -11.4469     47.3271    222.2504   1.2080020991e+02   2.2541062373e+01    0.5495266    0.3760405 -88.30 0.0007583881    1.314    0.239
        51 -10.4146    162.4327    224.9798   9.8048158580e+01   4.6203749830e+00    0.2907848    0.1751703  40.19  0.001555692    1.409    0.290
        52  -9.0055     92.9554    218.1401   1.1135133650e+02   1.7162697084e+01    0.2072093    0.1722399 -69.29 0.0005801375    1.324    0.245
        53 -13.5789     51.0696    196.7061   1.1788822117e+02   2.7387954976e+01     3.713078     2.360406 -39.68   0.01936448    2.586    0.613
        54 -11.8500    187.3816     45.8992   5.1560549021e+01   3.2598130103e+01    0.9231607    0.6616889  11.89  0.003072431    2.050    0.512
        55 -15.9690      5.6721    212.8199   1.2793966395e+02   2.8864140034e+01     20.05982    0.6902562 -76.60   0.03058063   12.515    0.920
        56  -8.2511     41.5312    231.9996   1.2257330048e+02   2.1338094967e+01    0.1617068    0.1215468  65.45 0.0003836235    1.045    0.043
        57  -9.7841    147.5018     51.6444   6.0703693982e+01   4.1825594554e+01    0.4732235    0.3145877 -77.93  0.001956335    2.292    0.564
        58  -7.8721     55.9091    223.5027   1.1925555596e+02   2.1231545497e+01    0.2047903      0.09125  44.56   0.00072341    1.864    0.464
        59  -8.8991    149.0813     45.0762   5.8234890449e+01   4.2416973948e+01    0.2211671    0.2065842  80.71 0.0004581032    1.091    0.084
        60  -8.4613    113.5664    207.7675   1.0573881816e+02   1.5989109039e+01    0.1764032    0.1241433 -80.83 0.0009424904    1.663    0.399
        61 -15.4362      6.8978    245.4966   1.2920887350e+02   2.2576570782e+01     4.423045     1.450332  31.45  0.007921412    3.893    0.743
        62  -9.3861     60.7487    233.4958   1.1914049223e+02   1.8683525636e+01    0.2156094    0.1657223  88.53 0.0004692613    1.225    0.183
