#   1 NUMBER                 Running object number                                     
#   2 MAG_AUTO               Kron-like elliptical aperture magnitude                    [mag]
#   3 X_IMAGE                Object position along x                                    [pixel]
#   4 Y_IMAGE                Object position along y                                    [pixel]
#   5 X_WORLD                Barycenter position along world x axis                     [deg]
#   6 Y_WORLD                Barycenter position along world y axis                     [deg]
#   7 A_WORLD                Profile RMS along major axis (world units)                 [deg]
#   8 B_WORLD                Profile RMS along minor axis (world units)                 [deg]
#   9 THETA_WORLD            Position angle (CCW/world-x)                               [deg]
#  10 FWHM_WORLD             FWHM assuming a gaussian core                              [deg]
#  11 ELONGATION             A_IMAGE/B_IMAGE                                           
#  12 ELLIPTICITY            1 - B_IMAGE/A_IMAGE                                       
         1 -13.0298    152.3711     49.5186   2.9028566442e+02   6.3297417578e+00   0.05530443   0.04760772 -55.06   0.00367044    1.143    0.125
         2 -13.0321    162.0553     18.6915   2.8998752394e+02   6.6310273578e+00   0.04798764    0.0456711  33.94  0.003736962    1.059    0.056
         3  -9.8782    189.0589     15.1120   2.8965135935e+02   6.5155353359e+00   0.01027593  0.009997923  58.64 0.0008852781    1.054    0.051
         4  -9.6525    235.7762      2.6925   2.8903276715e+02   6.3873688043e+00   0.01594863   0.01065492 -62.26  0.001232913    1.487    0.327
         5 -11.8567    203.6550    168.4836   2.9040228775e+02   4.6509914179e+00   0.04079274     0.026699 -70.96  0.003969989    1.637    0.389
         6  -9.7889    155.3056    248.7198   2.9144414053e+02   3.9990439498e+00   0.02216455   0.01116068 -31.21  0.001483408    2.864    0.651
         7 -19.1677     86.2492    227.7219   2.9212214385e+02   4.6422620035e+00    0.3005179    0.2875701 -24.50   0.02353504    1.050    0.048
         8 -10.2598     17.2667    188.3312   2.9269076202e+02   5.4980064263e+00   0.01696172   0.01329312 -66.03  0.001204663    1.287    0.223
         9 -10.9115    187.5509    231.2064   2.9096476129e+02   4.0158254059e+00   0.01844223   0.01142273 -64.30 0.0007481699    1.626    0.385
        10  -9.3131    207.8042    225.6603   2.9069625851e+02   3.9628775008e+00   0.01682732  0.008903281 -57.03  0.001572466    1.808    0.447
        11  -9.8443    187.4504    174.5182   2.9062686181e+02   4.6749101568e+00    0.0299961   0.01505869  88.67   0.00197166    4.494    0.777
        12 -10.4530    174.0009    175.9321   2.9079176130e+02   4.7364681640e+00   0.01844846   0.01431238  32.00 0.0009048847    1.285    0.222
        13 -11.0806    177.4144    170.9539   2.9072225744e+02   4.7745085737e+00   0.03174014    0.0170809 -82.78  0.002615567    2.733    0.634
        14 -10.0671     26.0097    221.6014   2.9278690741e+02   5.0607812374e+00   0.01238742  0.009258274 -57.97 0.0006085866    1.310    0.237
        15  -9.4598      6.1464    229.3771   2.9306437972e+02   5.0846730938e+00   0.00972648  0.008581432 -40.10 0.0004550182    1.138    0.121
        16  -9.6835    236.7569    159.0100   2.8996075371e+02   4.5687917145e+00  0.009273379  0.008636046 -54.48 0.0003912316    1.061    0.057
        17  -9.7034    192.5041    158.5847   2.9047266283e+02   4.8306565513e+00   0.01474798   0.01240112 -57.83  0.001568778    1.172    0.147
        18  -9.1019    192.3973    154.1839   2.9044753960e+02   4.8823847001e+00   0.01227472  0.009708809 -74.69 0.0008924999    1.338    0.253
        19 -12.4093    134.1286    147.3338   2.9108467125e+02   5.2997512738e+00    0.0681458   0.02272705 -71.74   0.00401578    5.024    0.801
        20 -14.6776    112.9840    212.5188   2.9172036775e+02   4.6645366249e+00   0.03944477   0.02326937  37.79  0.003789793    1.684    0.406
        21  -9.9146    154.2591    153.0560   2.9088455541e+02   5.1166496977e+00   0.01314602   0.00938644  38.89 0.0008612148    1.408    0.290
        22 -11.0282    230.5266    168.0181   2.9008714925e+02   4.5004036008e+00   0.02343527   0.01226574 -75.80  0.002000989    2.425    0.588
        23 -11.7200    143.3271    145.6640   2.9096756888e+02   5.2658700521e+00   0.04044048   0.01941823 -81.74  0.002927087    3.555    0.719
        24 -10.5648     28.2850    146.1002   2.9231066203e+02   5.9255638748e+00   0.02650025   0.01794027 -35.75  0.002586938    1.617    0.382
        25  -9.5499     13.4395    143.0562   2.9246560108e+02   6.0464488881e+00   0.01070047  0.009421722  24.82  0.001273362    1.144    0.126
        26 -11.8127    135.9425    131.4000   2.9096815988e+02   5.4743601053e+00   0.05217512   0.01492925 -68.47   0.00301997    5.059    0.802
        27 -10.9560    135.2632    122.6784   2.9092383751e+02   5.5796083210e+00   0.02369202   0.01205178 -69.82    0.0020795    2.198    0.545
        28  -8.3866    190.9678    134.4972   2.9034618050e+02   5.1192970670e+00  0.009301119  0.006554177  24.51 0.0009803927    1.440    0.305
        29  -9.0280     20.9500    210.4612   2.9277955985e+02   5.2194599769e+00   0.01184947  0.007993582 -48.93 0.0005323002    1.462    0.316
        30 -11.0869    160.4488    128.9612   2.9066818766e+02   5.3606522354e+00   0.02049335   0.01736762 -34.75  0.002170741    1.214    0.176
        31  -9.6727    100.1000    126.5998   2.9135700506e+02   5.7376072048e+00   0.01936927  0.006441028  37.07  0.001458491    2.833    0.647
        32  -9.1500     40.3444    124.1661   2.9203910393e+02   6.1110046301e+00    0.0117424   0.00928523   8.61  0.001215573    1.365    0.267
        33  -9.5477    142.7937    122.4198   2.9083457696e+02   5.5389779493e+00   0.01751231  0.009457974  48.80  0.001321116    2.111    0.526
        34 -12.1110     11.1452    207.1443   2.9287401605e+02   5.3144658376e+00   0.03326527   0.02475399  -8.79  0.003479025    1.587    0.370
        35  -9.6897     90.1362    119.4057   2.9143008941e+02   5.8788144670e+00   0.01433258   0.01043266  30.68 0.0007733113    1.367    0.268
        36 -10.3396     25.1513    202.5926   2.9268380939e+02   5.2867720466e+00    0.0177761   0.01132505 -42.89  0.001084531    1.625    0.385
        37 -10.6866     14.3701    197.7774   2.9278073058e+02   5.4048341302e+00    0.0164422   0.01285865 -16.09  0.001154043    1.451    0.311
        38 -11.1491    134.5967    113.0284   2.9087378980e+02   5.6955574272e+00   0.02696533   0.01065827 -61.38  0.002183361    2.452    0.592
        39 -10.8679    134.4604    105.9989   2.9083325351e+02   5.7779892210e+00   0.02496053  0.009017132 -58.94  0.001960867    2.575    0.612
        40  -9.3488     39.5887    116.1236   2.9199987071e+02   6.2088286527e+00   0.01332256  0.008791913   0.23 0.0007856033    1.909    0.476
        41  -7.8732    183.3253    112.2900   2.9030194193e+02   5.4215079108e+00  0.006897815  0.004954514 -25.42 0.0002814324    1.613    0.380
        42 -10.3800    237.0082    126.6930   2.8976397243e+02   4.9424325640e+00   0.01314038   0.01156294  28.98 0.0004365532    1.140    0.123
        43 -12.5393     65.1932    107.2310   2.9164807665e+02   6.1644004039e+00   0.04590935   0.03208867 -39.39  0.003943024    1.503    0.334
        44  -9.2429    240.2014    107.3967   2.8961101179e+02   5.1477757660e+00  0.009763851  0.005775878  38.91 0.0006555703    1.690    0.408
        45 -10.1959     22.9455    192.3163   2.9264832984e+02   5.4189701739e+00   0.01196984  0.009612923 -47.74 0.0003882554    1.232    0.188
        46  -8.5364    189.7099    100.3570   2.9015603496e+02   5.5229603886e+00  0.006952268  0.005018318  67.20 0.0007027057    1.684    0.406
        47 -10.7559    123.6321     96.6595   2.9090345645e+02   5.9491880298e+00   0.01719908   0.01185347 -62.03  0.001511473    1.438    0.305
        48 -10.4115    240.3137    191.4128   2.9011362213e+02   4.1719700639e+00   0.03302202  0.008194865  20.61  0.001539709    7.816    0.872
        49  -9.7894    113.4675     95.0379   2.9101221179e+02   6.0268857711e+00   0.01198518  0.009309614  -1.28 0.0005059472    1.456    0.313
        50  -9.6166    139.9300     82.3278   2.9062759203e+02   6.0211440011e+00   0.01093813  0.009279869 -84.62 0.0004504131    1.275    0.216
        51 -12.7731    143.3551     63.9718   2.9047752663e+02   6.2143476196e+00   0.05518755   0.04858022  53.04  0.006619439    1.188    0.158
        52 -10.2841    248.2212    246.4897   2.9035147043e+02   3.4866975715e+00   0.03278771   0.00759631 -59.56  0.002135276    3.756    0.734
        53 -11.9742    156.0874     39.7299   2.9018354555e+02   6.4217211170e+00   0.02403352    0.0235634  82.82   0.00070864    1.045    0.043
        54  -8.2038    191.3708     64.4540   2.8992111007e+02   5.9299419301e+00  0.006555837  0.006198026 -45.07 0.0001811836    1.046    0.044
        55  -9.0713    131.9676     52.9957   2.9054437732e+02   6.4077650045e+00  0.009577982  0.009519065  48.56  0.001208914    1.023    0.023
        56 -10.0284    246.4408     51.2485   2.8920100187e+02   5.7626265368e+00   0.01232614   0.01104094 -19.05 0.0004225988    1.167    0.143
        57  -8.4650    250.3413     47.2823   2.8913179469e+02   5.7858738637e+00  0.006906432  0.004964359 -23.61 0.0007012433    1.631    0.387
        58 -10.1653    141.7907     29.4128   2.9028820330e+02   6.6243712159e+00   0.01134171   0.01052412 -52.37 0.0002944293    1.064    0.060
        59 -12.6266    194.4884    168.8766   2.9051123179e+02   4.6996130668e+00   0.06263377   0.03854549  83.70  0.002149417    2.406    0.584
        60 -12.3680    204.3673    176.8954   2.9044438816e+02   4.5491682493e+00   0.05520433   0.03399984  74.63  0.003980909    2.412    0.585
