#   1 NUMBER                 Running object number                                     
#   2 MAG_AUTO               Kron-like elliptical aperture magnitude                    [mag]
#   3 X_IMAGE                Object position along x                                    [pixel]
#   4 Y_IMAGE                Object position along y                                    [pixel]
#   5 X_WORLD                Barycenter position along world x axis                     [deg]
#   6 Y_WORLD                Barycenter position along world y axis                     [deg]
#   7 A_WORLD                Profile RMS along major axis (world units)                 [deg]
#   8 B_WORLD                Profile RMS along minor axis (world units)                 [deg]
#   9 THETA_WORLD            Position angle (CCW/world-x)                               [deg]
#  10 FWHM_WORLD             FWHM assuming a gaussian core                              [deg]
#  11 ELONGATION             A_IMAGE/B_IMAGE                                           
#  12 ELLIPTICITY            1 - B_IMAGE/A_IMAGE                                       
         1 -14.4318     40.4347    118.6476   1.1686034289e+02   4.6729400757e+01     2.698272     2.013653  52.74   0.01706518    1.376    0.273
         2 -12.9797     43.7343     93.1202   1.1179346566e+02   5.2218030963e+01     2.970495     1.450778  52.77   0.01381593    2.542    0.607
         3 -15.2320    244.0271     75.3785   6.0066373107e+01   1.4171095517e+01     5.756597     1.178222 -27.63   0.01534322    5.135    0.805
         4 -14.0437     76.4656      7.2254   7.0520000842e+01   6.4012230722e+01     1.801448     1.167126  71.08  0.008702451    2.491    0.599
         5 -14.3420     50.3662     15.5543   8.4819988495e+01   6.7321598140e+01     1.898666     1.455018 -13.08    0.0118646    1.193    0.161
         6 -14.4682     59.4022     78.6946   1.0359717050e+02   5.3646927801e+01     3.407309     2.041047  71.44    0.0146759    2.883    0.653
         7 -13.6248     81.0597     44.2425   8.5318177869e+01   5.7454534996e+01      1.21374     0.752579 -61.46  0.005352101    2.390    0.582
         8 -13.8206     48.6840     34.9015   9.4002208888e+01   6.4179797461e+01     1.083903    0.6247206 -62.97  0.005073104    2.496    0.599
         9 -13.1256     81.5558     25.9346   7.7633762897e+01   6.0456409368e+01    0.8801078    0.6555341 -59.62  0.004182596    1.871    0.466
        10 -13.8687     73.7223     24.1205   7.9571689736e+01   6.2184376508e+01    0.8669603    0.6661856  24.18  0.004296284    1.325    0.245
        11 -12.6556    190.8364     20.3097   5.1746983617e+01   3.4370587467e+01    0.5532613    0.3751294 -71.82  0.002607343    1.670    0.401
        12 -11.9414     30.8482     10.2573   9.1406313188e+01   7.0706629819e+01    0.4712113    0.3231965 -40.23  0.002997304    1.289    0.224
        13 -14.3217     64.4338     50.7829   9.3623979818e+01   5.8909314751e+01     2.244799      1.34565  50.62   0.01097054    2.137    0.532
        14 -11.8505    195.4880      3.0461   4.5960531229e+01   3.4906276874e+01     0.534758    0.3350699 -74.57   0.00253604    1.732    0.423
        15 -10.5882    110.2153      2.2545   5.8762230742e+01   5.7166973517e+01      0.25745    0.1600896  54.64  0.001279102    1.480    0.324
        16 -12.8000    109.8408    172.4622   1.0775652776e+02   2.5543490692e+01     1.632696    0.6565762  55.73  0.006357818    2.991    0.666
        17 -12.2619     48.5811    242.6784   1.2591912296e+02   2.1621706387e+01     1.273984    0.3830408  61.98  0.006081373    3.463    0.711
        18  99.0000    104.2722    214.2324   1.1400327371e+02   1.8909464723e+01      1.18141    0.7437212 -72.47  0.007405216    1.864    0.464
        19  99.0000     24.9491    196.5793   1.2739367108e+02   3.2055039739e+01     2.050088    0.5423896  54.97  0.009666014    3.063    0.673
        20  99.0000     79.0885    209.6524   1.1826414809e+02   2.3262425947e+01     2.498771     1.156782  36.86   0.01346139    2.121    0.529
        21  -6.4598     42.5537    197.9747   1.2419905414e+02   2.9919234345e+01     2.266513    0.9210165  69.67   0.01129724    2.682    0.627
        22  99.0000     35.1010    219.6179   1.2688795162e+02   2.6886906841e+01     1.638861    0.9934547  68.77   0.01204097    1.255    0.203
        23 -13.0298     67.5197    222.5920   1.2143380831e+02   2.2568712465e+01     1.668774    0.4031714  41.43  0.007560264    3.050    0.672
        24 -12.9384     51.6190    215.8844   1.2377452035e+02   2.5659022904e+01    0.5486176    0.3459122  70.87  0.002889287    1.295    0.228
        25 -13.7119      7.5613    241.6078   1.3226602968e+02   2.6079862004e+01    0.9708107    0.5454798  86.28  0.007861964    1.497    0.332
        26 -13.6821     67.5358    242.1900   1.2280530639e+02   1.9431931180e+01     1.514778    0.3325663  48.55  0.007109241    3.006    0.667
        27 -13.9499     82.8520    240.2643   1.2011915479e+02   1.7768063126e+01     1.269603    0.6315886  59.71   0.00797698    1.717    0.418
        28 -13.7502     91.1957    234.6345   1.1825121252e+02   1.7510860698e+01     1.507304    0.5992204  54.06  0.008151287    2.115    0.527
        29 -14.0614     87.5240    224.0624   1.1799719231e+02   1.9684564259e+01     1.427831    0.4727809  42.53  0.006856916    2.332    0.571
        30 -13.1109     44.4414    249.4610   1.2692937489e+02   2.1055418237e+01    0.8110789    0.1447737  46.82  0.004018688    3.032    0.670
        31 -13.5138     25.5876    247.7018   1.2975724454e+02   2.3356263802e+01    0.9612815    0.2062175  48.23   0.00531683    2.615    0.618
        32 -12.9345     24.9048    238.7850   1.2949211507e+02   2.4812120006e+01    0.7087446    0.2240203  46.28  0.004314194    2.108    0.526
        33 -11.9248     95.7085    183.1814   1.1218028964e+02   2.5716142538e+01    0.9064419    0.5283699  44.76  0.005049468    1.506    0.336
        34 -11.4044     97.4622    174.7043   1.1072862703e+02   2.7083282029e+01    0.5653235    0.3761673  81.89  0.002949103    1.706    0.414
        35 -11.4583     10.7176    174.1258   1.2883004766e+02   3.7689440865e+01    0.7144423    0.2021118  58.60  0.003301212    3.208    0.688
        36  -4.2031      5.1708    172.3821   1.2982876402e+02   3.8504088536e+01    0.2157207    0.1132679  53.69  0.001024608    1.577    0.366
        37 -10.5408      2.0165    169.5123   1.3030362764e+02   3.9325636124e+01    0.2520021    0.1388366  78.54  0.001463391    1.411    0.291
        38 -11.0799    107.8246    183.3953   1.0969057834e+02   2.3791963824e+01    0.5152614    0.3141878  80.27  0.002589422    2.212    0.548
        39 -11.0687     85.5796    170.9623   1.1281404181e+02   2.9618632154e+01    0.4219865    0.2854473 -66.20  0.002484797    1.510    0.338
        40  -8.8851     13.8118    160.4408   1.2736306435e+02   4.0166599789e+01    0.2843977    0.2078961 -54.34  0.002009294    1.743    0.426
        41 -12.0208    112.1597    153.2577   1.0424481577e+02   2.8973337371e+01    0.7331418    0.5352056  86.25  0.003645228    1.599    0.375
        42 -10.5835      7.2905    156.3100   1.2848183150e+02   4.1557963821e+01    0.3772354    0.2159839  56.79  0.002510993    1.510    0.338
        43 -12.0516     96.7235    147.5117   1.0689913831e+02   3.2752948886e+01     1.116001    0.6313654  69.32  0.004900318    2.405    0.584
        44  -9.7163      2.7460    149.2022   1.2902278191e+02   4.3377236156e+01    0.1852498   0.06861158  64.09 0.0009233016    2.582    0.613
        45 -11.7139     37.0435    170.5206   1.2321005930e+02   3.5862324209e+01     1.016546    0.6687278 -88.29  0.006725242    1.299    0.230
        46 -10.5288      3.3525    134.8531   1.2794117397e+02   4.6351486838e+01    0.2175789    0.1899865 -19.19  0.001190055    1.710    0.415
        47  -9.9092     10.5217    131.7068   1.2599024488e+02   4.6499218399e+01    0.3693442    0.2629208  40.62  0.002291022    1.551    0.355
        48 -12.4158    117.1687    130.1674   9.8758749553e+01   3.2883592992e+01    0.7779507    0.4780962  50.59  0.003681253    1.606    0.377
        49 -12.7152     78.6977    122.9472   1.0721445289e+02   4.0934573623e+01     1.106728    0.8041376  47.75  0.005842051    1.390    0.281
        50 -11.0402     99.1258    124.9946   1.0225048372e+02   3.7221237476e+01    0.5129261     0.294388 -70.13  0.002260241    2.094    0.522
        51 -12.0849    130.1806    120.7303   9.3534231887e+01   3.2336116813e+01    0.6040815    0.3501753 -62.38  0.002513619    2.172    0.540
        52  99.0000     10.5049    223.6667   1.3117155986e+02   2.8695515114e+01    0.7770027    0.3743698  42.20   0.00550814    1.770    0.435
        53 -12.2360    104.3829    112.1565   9.8156349235e+01   3.9114341467e+01     0.865954    0.3685331 -39.89  0.003068365    3.080    0.675
        54 -14.0712    249.1079    193.3448   8.4903689895e+01  -2.0423504360e+00     2.216796    0.3133545 -30.31  0.006237553    8.122    0.877
        55 -10.9551      4.0197    113.6672   1.2609252163e+02   5.0901811053e+01    0.3471787    0.2034058  35.74  0.001745064    1.918    0.479
        56 -11.5032    119.1437    102.8520   9.2028660171e+01   3.8304596788e+01    0.2356411     0.206743  87.92  0.001060896    1.239    0.193
        57 -11.4674    126.5344     96.7461   8.8522135764e+01   3.8058480125e+01    0.3052813    0.2959501  60.32  0.001698069    1.034    0.032
        58  99.0000     11.2756    211.2074   1.3054003057e+02   3.0750168200e+01    0.3042627    0.2419534  36.64  0.002537279    1.647    0.393
        59  99.0000      2.1481    206.7605   1.3190811722e+02   3.2358370890e+01    0.3260202    0.1368345  84.34  0.002030569    1.974    0.493
        60 -10.9814      4.7553    199.7648   1.3118147605e+02   3.3376382490e+01    0.3601528    0.1237175  50.32  0.002162717    2.100    0.524
        61 -13.5269     60.8948     67.3943   1.0009319940e+02   5.5937499979e+01    0.8386281     0.716881 -83.50  0.004440596    1.328    0.247
        62 -10.0076     12.4334    200.1119   1.2984318514e+02   3.2618051570e+01    0.1728606    0.1383485  39.04  0.001165209    1.566    0.361
        63 -11.7309     52.9045    184.3533   1.2111199858e+02   3.1307809843e+01     1.459295    0.4666654  47.94  0.006894985    2.552    0.608
        64 -11.8220     34.3554     59.1478   1.0758562788e+02   6.0789203739e+01    0.9502063    0.7384852 -69.63  0.006006917    1.241    0.194
        65  99.0000     22.6769    164.1563   1.2574618892e+02   3.8604513451e+01     1.067361    0.4134182  65.42  0.005194744    2.656    0.624
        66 -12.6896    239.7660    240.3975   9.3916772256e+01  -5.3412512793e+00    0.2852308     0.166785  28.13  0.001963085    1.271    0.213
        67 -11.3470    131.7060     25.4267   6.3562744962e+01   4.9317447308e+01    0.2897084    0.1455783  64.83  0.001151347    2.138    0.532
        68 -12.4688     55.1684    166.7200   1.1897317491e+02   3.4571878413e+01     1.329743     0.472433  38.20  0.006192854    2.624    0.619
        69 -14.1488     64.1577    150.6890   1.1509942784e+02   3.6822854118e+01     4.209935    0.5681543  45.71   0.01196211    6.132    0.837
        70 -11.9180     33.7001    150.8045   1.2221216960e+02   4.0318319601e+01     1.997402    0.7721269  54.80  0.009575164    2.549    0.608
        71 -10.6986     72.4937    187.1809   1.1740630197e+02   2.8269671913e+01    0.7118165    0.1469272  49.03  0.002485176    4.291    0.767
