#   1 NUMBER                 Running object number                                     
#   2 MAG_AUTO               Kron-like elliptical aperture magnitude                    [mag]
#   3 X_IMAGE                Object position along x                                    [pixel]
#   4 Y_IMAGE                Object position along y                                    [pixel]
#   5 X_WORLD                Barycenter position along world x axis                     [deg]
#   6 Y_WORLD                Barycenter position along world y axis                     [deg]
#   7 A_WORLD                Profile RMS along major axis (world units)                 [deg]
#   8 B_WORLD                Profile RMS along minor axis (world units)                 [deg]
#   9 THETA_WORLD            Position angle (CCW/world-x)                               [deg]
#  10 FWHM_WORLD             FWHM assuming a gaussian core                              [deg]
#  11 ELONGATION             A_IMAGE/B_IMAGE                                           
#  12 ELLIPTICITY            1 - B_IMAGE/A_IMAGE                                       
         1 -11.7025     79.8139     23.4199   9.2744108514e+01   6.1356776829e+01    0.8792226    0.2895585  43.29  0.003412154    2.998    0.666
         2  -9.2479     27.4968     22.5150   1.1344669654e+02   6.9044377863e+01    0.5948163    0.2440285 -26.13  0.002434761    3.553    0.719
         3  -8.8173     45.9521     21.5134   1.0467558505e+02   6.7054768909e+01    0.3608034    0.1570462 -29.60  0.001211692    2.314    0.568
         4  -8.9393    127.6247     16.9537   7.7356959884e+01   5.1761615087e+01    0.3292886    0.2208996  27.57 0.0003856581    1.635    0.388
         5  -8.9180    103.5068     17.2464   8.3085016112e+01   5.7307738831e+01     0.383146    0.1964029  14.75  0.001435363    3.268    0.694
         6  -9.2937     63.7011     14.7761   9.4382486873e+01   6.5342730499e+01    0.4885696    0.2600391   6.04  0.002047855    3.135    0.681
         7  -9.1112     69.7601      9.2709   8.9538824188e+01   6.4962521037e+01    0.5870636    0.2436881  50.76  0.002679509    2.514    0.602
         8  -9.4986     79.3330     12.9498   8.8133199293e+01   6.2766493801e+01    0.4448979    0.2632779  43.67  0.001180387    1.609    0.379
         9  -9.2512     74.4962     13.5164   8.9978096716e+01   6.3605680120e+01    0.3733333    0.2228188   8.35    0.0014677    2.060    0.515
        10  -9.2678     96.6902     12.9703   8.3049495535e+01   5.9255390619e+01    0.4102757    0.2229658  18.66  0.001587545    2.435    0.589
        11  -9.4969    134.0176     13.5703   7.4806258569e+01   5.0553065428e+01    0.2574619    0.2376033  14.39 0.0002935901    1.108    0.097
        12  -8.4639    137.2625     10.3538   7.3014289795e+01   5.0067712454e+01     0.252367     0.186986  20.85 0.0003809537    1.491    0.329
        13  -8.9036    125.2146     10.3233   7.5291480295e+01   5.3023555871e+01    0.2465788     0.184607  27.84 0.0003675246    1.362    0.266
        14  -8.1748    155.7904      7.8587   6.9108742553e+01   4.5613031991e+01    0.2857028    0.1771502 -12.46  0.001374728    1.884    0.469
        15  -9.4028     32.0837      5.9955   1.0330523855e+02   7.1069432454e+01    0.2805971    0.1857745  -9.18 0.0004151983    1.392    0.282
        16  -9.0909     40.6314      6.5542   9.9628668553e+01   6.9897422607e+01    0.3617814     0.208201  -1.43  0.001580932    2.094    0.523
        17  -9.5304     46.7509      6.4308   9.6894368224e+01   6.9051914003e+01    0.2278097    0.1950503  -7.44 0.0002707693    1.146    0.128
        18  -9.0067    119.2741      6.7675   7.5096627704e+01   5.4778428617e+01    0.2636251    0.1952532  33.69 0.0001980747    1.301    0.231
        19  -9.0021     76.1650      5.6354   8.5648958629e+01   6.4172668433e+01    0.3507079    0.2662229 -30.59  0.002153094    1.417    0.294
        20 -10.1553      8.0598      5.2623   1.1553397009e+02   7.3572678655e+01    0.4300254    0.2101548   4.06  0.002387316    2.664    0.625
        21  -8.1069     91.1687      5.1868   8.1052313864e+01   6.1214901633e+01    0.2042668    0.1528155  28.07 0.0004839107    1.222    0.181
        22  -8.8340    235.9431      2.9756   5.9229942274e+01   2.5885170767e+01    0.3230564    0.1964572 -36.03  0.001555058    1.548    0.354
        23  -9.3926    110.7380      3.1419   7.5416138162e+01   5.7093953215e+01    0.3426608    0.2132196 -33.48  0.001453183    1.739    0.425
        24  -7.6465     84.4858      3.9778   8.2347654725e+01   6.2704850244e+01     0.189631    0.1181726 -18.19  0.001031471    1.587    0.370
        25  -8.3687    143.0837      2.1942   6.9079139144e+01   4.9348977989e+01     0.205501    0.1918314  -4.91 0.0002997904    1.164    0.141
        26  -8.5683    100.5860      6.1295   7.9044692406e+01   5.9105997337e+01    0.2516041    0.1895296  63.82 0.0009124322    1.416    0.294
        27  -8.4861     55.5811      3.3984   9.1712740672e+01   6.8049027772e+01     0.304492    0.1307813  43.38  0.001512291    2.269    0.559
        28  -8.9776    130.3381      6.1331   7.2694986478e+01   5.2171233797e+01    0.3024506    0.1540035  48.22 0.0009391314    1.779    0.438
        29  -8.3174     33.6193      9.5895   1.0444472413e+02   7.0383076563e+01    0.2625502    0.1014504  29.48   0.00123954    2.957    0.662
        30  -7.9080    105.8797      1.4908   7.5787832833e+01   5.8342418162e+01    0.1988418    0.1182179  58.05 0.0007968516    1.551    0.355
        31  -7.9144      2.7658      1.3503   1.1664027487e+02   7.4576783024e+01    0.1375848   0.08410403  -1.66 0.0005402192    1.677    0.404
        32  -9.6664     12.1176     93.8882   1.3842192945e+02   5.5490113210e+01    0.2820277    0.1779499 -56.39 0.0009042186    1.330    0.248
        33  -8.8920    216.9978    250.0296   1.1631704002e+02  -5.7185126855e+00     0.160719    0.1280967  55.26  0.001131003    1.688    0.407
        34  -9.6681    194.7721    249.1927   1.1993391380e+02  -2.2407192987e+00    0.2784673    0.1921441  40.90  0.001771123    1.180    0.153
        35  -9.4468    188.2366    249.4569   1.2108371543e+02  -1.2567405242e+00    0.2046572    0.1763293  48.84  0.001526305    1.264    0.209
        36  -9.2487     58.8664    249.5228   1.4323590618e+02   1.7935653808e+01    0.1766321    0.1342545  81.02 0.0003346713    1.207    0.172
        37  -9.6065     20.3184     91.9032   1.3554900775e+02   5.5359242843e+01    0.5912058    0.2281209 -34.41  0.002162997    4.760    0.790
        38  -8.5635     44.0016     92.3407   1.2809324706e+02   5.3114637474e+01    0.2943083    0.1855592 -14.43  0.001407303    2.559    0.609
        39  -7.7953    108.5986     91.6076   1.0816146831e+02   4.3476659633e+01    0.2921785    0.1352887  30.85 0.0009584388    3.405    0.706
        40  -8.0876     95.8366     90.8338   1.1161494906e+02   4.6045648459e+01    0.2263167      0.19994 -19.10  0.001231678    1.258    0.205
        41  -7.6614     62.4991     88.9876   1.2139996121e+02   5.1675579057e+01    0.2042032   0.09374474 -39.44 0.0008103644    2.552    0.608
        42 -10.2041     37.3871     81.1843   1.2783932383e+02   5.6321444515e+01    0.6075834    0.3323661 -19.55  0.002682882    3.180    0.686
        43  -7.9096    126.2929     83.7355   1.0103517749e+02   4.1440888375e+01    0.3070492    0.1830643  26.99  0.001165021    2.476    0.596
        44  -9.6983      8.0448     77.6012   1.3712087346e+02   5.9395196267e+01    0.4536256    0.2093995 -36.32  0.001962731    2.503    0.600
        45  -8.4979     88.3363     78.8225   1.1042025180e+02   4.9965770749e+01    0.3228855    0.2329546  15.60  0.001219817    1.830    0.453
        46  -7.7423    184.2886     77.9682   8.6275970632e+01   2.8571147507e+01    0.2164094    0.1921137 -33.63 0.0005804105    1.125    0.111
        47  -9.1088     48.8955     77.2466   1.2295528039e+02   5.5983668060e+01    0.2910747    0.1770389 -22.42  0.001298048    2.337    0.572
        48  -7.9412     19.9940     85.6524   1.3456066338e+02   5.6800868738e+01    0.1821635   0.08594868 -16.99 0.0005341289    4.626    0.784
        49  -7.4756    106.3242     76.3006   1.0424889427e+02   4.7136630902e+01    0.1482994    0.1160877  -1.69 0.0003560391    1.633    0.388
        50 -10.6038     23.7670     73.8979   1.3094690491e+02   5.9139990156e+01     1.443037     0.389276 -39.49  0.004148073    6.687    0.850
        51  -8.3704     23.5013     69.4605   1.3005637364e+02   6.0134944674e+01    0.2028371    0.1704334 -62.22 0.0005912271    1.083    0.077
        52  -7.9904     74.9344     74.3163   1.1334826384e+02   5.3121025775e+01    0.1838052    0.1732717   3.57 0.0003928459    1.146    0.127
        53  -8.4598    105.7743     67.4373   1.0154992772e+02   4.9002571135e+01    0.3858679      0.22792 -14.69  0.001406789    3.015    0.668
        54  -8.9549     83.4994     64.2566   1.0735955828e+02   5.3792235275e+01    0.4823268    0.3064141 -12.76  0.002067864    2.447    0.591
        55  -8.9486     16.6295     63.6884   1.3127970300e+02   6.1890442713e+01    0.2512285    0.1303023 -37.36  0.001190053    1.933    0.483
        56  -7.1426    121.2934     62.3946   9.5528200041e+01   4.6642818501e+01    0.1569365    0.1159923   3.04 0.0007005021    1.788    0.441
        57  -9.5040     63.5295     61.1264   1.1312753113e+02   5.7545080464e+01    0.6473442    0.3513716  15.40  0.002626332    3.117    0.679
        58  -7.8697     24.6912     62.3849   1.2791898050e+02   6.1568383521e+01    0.1787941    0.0919423 -53.86 0.0009644078    1.504    0.335
        59  -9.0544     26.3318     60.2198   1.2673531157e+02   6.1894385702e+01    0.2046456    0.1680623  45.96 0.0007009065    1.544    0.352
        60  -8.5978     95.9664     59.8380   1.0190275478e+02   5.2379217312e+01    0.3828033    0.1835139 -26.09  0.001347422    3.088    0.676
        61  -8.4613     38.3762     58.2972   1.2156444423e+02   6.1184042730e+01    0.2478353    0.1510615 -14.99   0.00126701    2.245    0.555
        62  -7.9827    111.2992     58.6207   9.6964230003e+01   4.9498454477e+01    0.2883513    0.2007215   9.93  0.001059719    2.010    0.503
        63 -10.0046     74.9073     50.2418   1.0534119473e+02   5.7909932994e+01    0.4592222    0.3058029 -28.35 0.0003640896    1.486    0.327
        64  -9.5808    246.4301     51.9193   7.0145080262e+01   1.7465963497e+01    0.2965326    0.2249293 -32.28 0.0003041189    1.264    0.209
        65  -8.1084    118.3986     51.1086   9.2363853638e+01   4.9242663298e+01    0.2361284    0.1897196  37.48 0.0003748598    1.259    0.206
        66  -9.1813     45.9375     49.0582   1.1567381763e+02   6.2217178895e+01    0.3622102    0.2397062 -14.85  0.001521162    1.811    0.448
        67  -8.3453    106.5374     49.0343   9.4877075473e+01   5.2166894631e+01    0.3446379    0.2155709  15.85  0.001425727    2.417    0.586
        68  -8.2795    250.3643     47.5226   6.8656621600e+01   1.7179137797e+01    0.2196843    0.1638375  -7.68  0.000795595    1.744    0.427
        69  -9.8076     10.8942     46.3745   1.2926465471e+02   6.5888480436e+01    0.5896723    0.2957635 -15.04  0.003020603    2.766    0.639
        70  -9.3101     56.4424     43.2008   1.0945963908e+02   6.1984408017e+01     0.579019     0.278846 -20.37  0.001990573    4.376    0.771
        71  -9.2543      3.6552     40.0663   1.3067855578e+02   6.7575854082e+01    0.4797547   0.08734282 -57.78  0.001862663    3.176    0.685
        72  -9.2720      6.6870     34.0053   1.2754544020e+02   6.8595530970e+01    0.3272814    0.2166937 -31.53  0.001617011    1.351    0.260
        73  -8.4947     81.2375     43.9801   1.0081214642e+02   5.7938050874e+01    0.2307232    0.1862898 -27.96 0.0003747471    1.140    0.123
        74 -10.4118     83.2198     40.0501   9.8607706762e+01   5.8238351057e+01    0.2671556    0.2325946  16.76 0.0002162663    1.132    0.116
        75  -8.8248     87.6022     38.1615   9.6425562865e+01   5.7727150160e+01    0.2586606     0.219924  -9.48 0.0007951722    1.112    0.101
        76  -8.9807     92.2208     38.7233   9.5193709253e+01   5.6748443214e+01    0.6433097    0.1764116 -37.40  0.001809825    3.441    0.709
        77  -7.5211    114.5221     40.9941   8.9673034231e+01   5.1712613952e+01    0.1986449    0.1233719  -1.39 0.0007528384    2.386    0.581
        78  -7.8331    124.0170     39.9514   8.6862317173e+01   4.9696539860e+01    0.2349743    0.1674228  18.46 0.0006017897    1.689    0.408
        79  -9.6701     37.2564     36.4345   1.1468267544e+02   6.5581636873e+01    0.4443093    0.2581442 -13.18  0.002000499    2.289    0.563
        80  -9.5061     67.3234     37.7354   1.0321780542e+02   6.1331274598e+01    0.3837566    0.2453085 -37.40  0.001627833    1.427    0.299
        81  -9.6101     70.6710     35.6460   1.0114962340e+02   6.1135271003e+01    0.5144109    0.2573221  21.45   0.00199875    3.357    0.702
        82  -8.2495    105.6107     36.4297   9.0340807066e+01   5.4345226683e+01    0.2491115    0.2096168  14.82 0.0009080846    1.197    0.164
        83  -9.0994     57.1088     34.2484   1.0565935161e+02   6.3460545028e+01     0.548063     0.274919 -16.99  0.002084245    3.630    0.725
        84  -8.9493     21.9820     32.0216   1.1980488618e+02   6.7871121726e+01    0.2135746    0.1742811 -38.10 0.0004137096    1.078    0.072
        85  -8.7499     23.0960     35.8490   1.2067300218e+02   6.7061421729e+01    0.2387768    0.1918683  27.64  0.000922999    1.527    0.345
        86  -7.8087     19.2947     35.7024   1.2233048375e+02   6.7400686110e+01    0.1606465    0.1305635 -18.68 0.0003910462    1.211    0.174
        87  -9.1516      1.8156     28.5814   1.2814549368e+02   6.9907215166e+01    0.5326343    0.1085687 -58.08  0.002178763    3.376    0.704
        88  -8.2382    143.8411     28.1929   7.8222190446e+01   4.6453164132e+01    0.2083861    0.1587825  34.59 0.0005054789    1.373    0.272
        89  -9.1641     41.9083     27.2066   1.0894548435e+02   6.6657997142e+01    0.3409398    0.2103079 -46.36 0.0009220967    1.596    0.373
        90  -8.0841     61.8757     26.8707   1.0066126572e+02   6.3931214388e+01    0.1980206    0.1500223  -3.44 0.0005459743    1.291    0.225
        91  -9.8796    203.8066    248.3875   1.1829227027e+02  -3.5380175145e+00    0.3526237    0.1299266  38.33  0.001742215    2.159    0.537
        92  -8.0803    144.9360     23.4658   7.6338192691e+01   4.6744745188e+01    0.2046371    0.1891623 -19.80 0.0004250359    1.136    0.119
        93  -7.3583    118.4435     24.4515   8.2307587081e+01   5.3080851004e+01    0.1407452    0.1268795  25.96 0.0008053948    1.052    0.049
        94 -10.0083    169.0679    248.0575   1.2420633315e+02   1.9397743772e+00    0.2849734     0.231861  36.33  0.001860817    1.080    0.074
        95  -7.6042     83.8598    246.1594   1.3881942630e+02   1.5182543349e+01    0.1336753    0.1203304  62.46 0.0004124738    1.347    0.258
        96  -8.3932      9.4317     19.6757   1.2117279811e+02   7.1070061025e+01    0.2196572    0.1476142 -27.48 0.0009196671    1.258    0.205
        97  -7.2779    146.8021     19.3428   7.4540425932e+01   4.6739384296e+01    0.1930639    0.1175094  54.26 0.0002725601    1.511    0.338
        98  -8.1038      4.4964     18.5820   1.2329174407e+02   7.1589867401e+01    0.1799131    0.1456234  62.74 0.0005909529    2.087    0.521
        99  -7.7147    151.8370     17.7427   7.3108776089e+01   4.5630476039e+01    0.2324516    0.1531122  49.12  0.000598332    1.450    0.310
       100  -8.9251    228.4995    244.4873   1.1360895699e+02  -6.8169224496e+00     0.214406      0.08054  32.63  0.001036495    2.384    0.581
       101  -8.9814    128.7008     13.6862   7.5888231870e+01   5.1844058079e+01    0.1880729    0.1814431  -9.29 0.0006833145    1.096    0.088
       102  -7.0641    126.2412    237.3233   1.3051674438e+02   1.0325199515e+01   0.09999478   0.08941496  13.64 0.0002120853    1.524    0.344
       103  -9.2258    188.0516    234.0245   1.1898164988e+02   7.5755389441e-01    0.2303384    0.1797938 -54.47  0.001096738    1.735    0.424
       104  -8.5423     36.6148    227.8127   1.4556096409e+02   2.4399719342e+01    0.1640424    0.1450626  78.44 0.0008176866    1.406    0.289
       105 -10.3844    123.9962    206.0011   1.2710142304e+02   1.6073044108e+01    0.1834637    0.1547426  59.15            0    1.002    0.002
       106  -8.0189    181.0083    198.6917   1.1474625820e+02   7.2028167252e+00    0.1825551    0.1497275  38.89 0.0002723388    1.074    0.069
       107  -8.3812    140.1571     19.9975   7.5999250989e+01   4.8341536428e+01    0.2677523     0.184731  61.13 0.0007984448    1.365    0.268
       108  -7.7340    181.5256    183.5702   1.1196242747e+02   9.6311942261e+00    0.1370815    0.1226858  31.09 0.0002642657    1.038    0.036
       109  -7.9270    204.9925    152.2535   1.0105339221e+02   1.0379792931e+01    0.1882741    0.1195486  45.81 0.0008838457    1.557    0.358
       110  -9.1475     67.3565    144.7206   1.3089309428e+02   3.8011886157e+01    0.4617352    0.2730203  69.26  0.002227212    1.966    0.491
       111  -8.0307      5.2349    133.5744   1.4492912736e+02   4.6968167900e+01    0.1252763    0.1137298 -16.45 0.0009430371    1.598    0.374
       112  -7.5423    123.4786    129.3846   1.1376170770e+02   3.2153301698e+01    0.1442121    0.1425524  64.65 0.0001128839    1.091    0.083
       113  -9.5276    237.2799    127.2808   8.9681967754e+01   7.8913311824e+00    0.2676902    0.2453643  33.92 0.0003767118    1.152    0.132
       114  -7.5395    193.6624    127.6673   9.7600282741e+01   1.7244835407e+01    0.1574659    0.1178805   9.72 0.0007051969    1.742    0.426
       115  -7.8902     12.4945    121.4911   1.4188766184e+02   4.9171272071e+01    0.1203722   0.09221634 -76.01 0.0003454572    1.057    0.054
       116  -7.7380    119.9697    118.9807   1.1223289283e+02   3.5176607332e+01    0.2365594    0.1898109  -7.35  0.001123446    1.738    0.425
       117  -7.3075    100.0083    119.3165   1.1756692671e+02   3.8852192724e+01    0.2220036    0.1250482  17.33 0.0007043848    4.229    0.764
       118  -7.8738     15.5205    118.4525   1.4073331889e+02   4.9638077505e+01    0.1210186   0.09393524 -77.23 3.077254e-05    1.025    0.025
       119  -7.5578    183.7366    112.6272   9.5838129467e+01   2.2353657714e+01    0.2066156    0.1474593  61.65 0.0005390358    1.535    0.348
       120  -8.7790      2.2400    109.7489   1.4333321308e+02   5.2525155506e+01     0.333555    0.1067896 -50.35  0.001493582    3.085    0.676
       121  -9.1796    241.0747    107.9441   8.4534521060e+01   1.0194184508e+01     0.246875    0.2127368  58.34  0.001395942    1.296    0.229
       122  -7.9625    133.7878    106.4594   1.0554557332e+02   3.5053756995e+01    0.3729782    0.2090092 -28.46  0.001363341    2.543    0.607
       123  -7.3038    188.3177    107.3265   9.3545463655e+01   2.2273451315e+01    0.1578694    0.1219376  10.81 0.0007045582    1.677    0.404
       124  -7.6684     76.5010    107.2435   1.2142687185e+02   4.5499441701e+01     0.196779    0.1194507 -47.44 0.0002581283    1.581    0.367
       125  -7.5919    109.4709    106.4584   1.1191397030e+02   4.0036013574e+01    0.1482727    0.1409473 -41.90 0.0008069918    1.087    0.080
       126  -9.1506     14.7881    105.2858   1.3925414422e+02   5.2708770168e+01    0.4130425    0.1709973 -34.18  0.001629541    4.470    0.776
       127  -9.8296    246.6239    101.7489   8.2234923259e+01   9.9988141104e+00    0.4136444     0.160433 -48.59  0.001442619    3.126    0.680
       128  -7.3276    140.3509     99.3266   1.0197769652e+02   3.5108073978e+01    0.1603861    0.1249686   5.90 0.0005214572    1.761    0.432
