#   1 NUMBER                 Running object number                                     
#   2 MAG_AUTO               Kron-like elliptical aperture magnitude                    [mag]
#   3 X_IMAGE                Object position along x                                    [pixel]
#   4 Y_IMAGE                Object position along y                                    [pixel]
#   5 X_WORLD                Barycenter position along world x axis                     [deg]
#   6 Y_WORLD                Barycenter position along world y axis                     [deg]
#   7 A_WORLD                Profile RMS along major axis (world units)                 [deg]
#   8 B_WORLD                Profile RMS along minor axis (world units)                 [deg]
#   9 THETA_WORLD            Position angle (CCW/world-x)                               [deg]
#  10 FWHM_WORLD             FWHM assuming a gaussian core                              [deg]
#  11 ELONGATION             A_IMAGE/B_IMAGE                                           
#  12 ELLIPTICITY            1 - B_IMAGE/A_IMAGE                                       
         1 -10.4023     24.9601     21.9653   6.8222034609e+01   6.8692247062e+01     0.695004    0.3060256 -22.60  0.003064723    2.934    0.659
         2 -10.6728     29.1975     27.3084   6.8334643160e+01   6.7395597303e+01    0.7417843    0.3224625 -23.90  0.003264597    3.094    0.677
         3 -10.9067    233.7312     12.0384   1.2893866819e+01   2.5142182377e+01    0.2756827    0.2583189 -24.93 0.0009645772    1.289    0.224
         4 -11.8525    240.0321     20.1980   1.4252282772e+01   2.2683587904e+01     0.644094    0.4915938  34.05  0.001684681    1.786    0.440
         5 -11.8033    238.2267     14.5878   1.3090071772e+01   2.3773014030e+01     1.473622    0.5151642  45.76  0.004604452    5.280    0.811
         6 -11.5378    227.7023     16.9100   1.4659267453e+01   2.6054009441e+01    0.5367301    0.3875414  43.33   0.00168936    1.697    0.411
         7 -10.9668    247.2228     13.7761   1.2109063959e+01   2.1751595296e+01    0.5269717    0.4168533  46.97  0.002866812    1.582    0.368
         8 -10.5589      6.8379     21.9350   7.6991243981e+01   6.9984545333e+01    0.5235519    0.1425597 -43.86   0.00252113    2.462    0.594
         9 -10.8409      8.9950     14.5731   7.3199330373e+01   7.1142512355e+01    0.2933823    0.2305338 -57.06  0.001640513    1.538    0.350
        10 -10.0351      8.2956      9.1095   7.1342113067e+01   7.2096748061e+01     0.297455    0.1381577 -31.21  0.001736829    1.761    0.432
        11 -12.1423    111.3602     18.6975   3.4481326627e+01   5.5305274300e+01    0.6751634    0.3644002 -10.47  0.002961182    2.281    0.562
        12 -10.0688     75.2279     20.7940   4.6496809490e+01   6.2288592531e+01    0.5859552    0.1935767 -35.04  0.002336907    2.915    0.657
        13 -10.8606     84.1752     13.7722   4.0329661487e+01   6.1539864545e+01    0.4778991    0.3369369  56.73  0.001671956    1.695    0.410
        14 -10.1204     79.4796     14.9915   4.2434950743e+01   6.2274490898e+01     0.396173    0.2389714  59.80  0.001801013    2.350    0.574
        15  -9.8202     76.4716      9.4723   4.0941697119e+01   6.3474284404e+01    0.4618579    0.1731987 -22.02  0.001891614    2.935    0.659
        16 -10.0105     77.9542      5.9736   3.8810885845e+01   6.3583958094e+01    0.2685599    0.2433128 -41.85  0.001765426    1.487    0.327
        17 -11.7179     55.2645     19.5709   5.3631177319e+01   6.5612789193e+01    0.2543924    0.1993186  -2.51 0.0003383297    1.091    0.084
        18 -11.2862     56.7157     12.5005   4.9774160757e+01   6.6384368224e+01    0.6356343    0.3506216  47.93  0.003322586    2.340    0.573
        19 -10.0523     63.0017      9.9849   4.6081950177e+01   6.5729567192e+01    0.1971162    0.1495535 -10.15 0.0003580089    1.149    0.129
        20 -11.3994    151.5042     18.8775   2.5684756015e+01   4.5538576961e+01    0.4392379    0.3198289  68.56  0.001823983    1.320    0.243
        21  -9.7884    155.4126     14.7840   2.3605571671e+01   4.4970154343e+01    0.3579136    0.2570606  -9.85  0.001232406    1.626    0.385
        22 -10.6858    152.0499      4.3788   2.0680228101e+01   4.6844752344e+01    0.6551958    0.2955867  51.17  0.002828783    1.931    0.482
        23 -10.2274    149.5155     11.9268   2.3673322784e+01   4.6778700388e+01    0.2785604    0.2107599  44.31 0.0004947276    1.244    0.196
        24 -10.1878    157.4822     10.9760   2.1991934623e+01   4.4822354363e+01    0.3348207     0.220047 -54.18  0.001056022    1.783    0.439
        25 -10.6379    153.3072      9.6397   2.2241479708e+01   4.6031135906e+01    0.2645135    0.2393517  84.46 0.0005442467    1.127    0.113
        26 -11.2930    100.8133     16.2648   3.6357156334e+01   5.7889047372e+01    0.5426074    0.3706904  30.09    0.0021564    1.382    0.276
        27  -9.7503    136.8668     16.6556   2.7763539349e+01   4.9481059163e+01    0.3585467    0.2558983  -3.24  0.001828285    1.610    0.379
        28 -10.0807     39.5275      9.0545   5.5587261772e+01   6.9180216356e+01    0.2160228    0.1725523 -12.70 0.0001159443    1.088    0.081
        29 -10.8059     47.9582      3.9390   4.9253271767e+01   6.8741203060e+01     1.464247    0.6678011  -4.92  0.005139796    5.001    0.800
        30 -11.3850     43.5115     12.4194   5.5387917898e+01   6.8214059781e+01    0.3492383    0.2234894  -6.52 7.949912e-05    1.527    0.345
        31 -11.4596     45.9756      9.2817   5.2783800204e+01   6.8327296856e+01    0.2596716    0.2164694  10.96 0.0002839804    1.203    0.169
        32 -11.2418    221.0318     15.4757   1.4980940071e+01   2.7872211781e+01    0.3124456    0.2244906 -74.95 0.0003844773    1.339    0.253
        33 -10.1721    131.4491     13.6154   2.7780403264e+01   5.1135491949e+01    0.3144262    0.2576406 -85.71 0.0007602738    1.480    0.324
        34 -11.5096    124.1021     11.8838   2.8722368054e+01   5.3086869830e+01    0.5252257    0.4745931  78.04  0.003138723    1.245    0.197
        35 -12.5572    128.5739      4.5389   2.4981407948e+01   5.2706061087e+01    0.8131775     0.368673  55.09   0.00361528    1.836    0.455
        36  -9.7587    176.2823     12.3943   1.9566077486e+01   3.9768950678e+01    0.2893226     0.215044  84.15 0.0002787241    1.317    0.241
        37 -12.5122    187.0022     13.7206   1.8491121738e+01   3.6816647999e+01    0.4650139    0.3213987 -16.30 0.0004053156    1.727    0.421
        38 -11.1710     31.2868     11.8172   6.0801049542e+01   6.9715234467e+01    0.6179652     0.216756 -34.93  0.002211369    2.483    0.597
        39 -10.6676     35.3101      3.6684   5.4889574702e+01   7.0418331848e+01    0.3046184    0.2103016 -34.42  0.001282063    1.475    0.322
        40 -10.8595     40.2550      2.4248   5.1923984380e+01   6.9966947673e+01    0.3165463      0.20317  44.10  0.001364229    2.107    0.525
        41 -10.6689     24.5618     13.2209   6.4733209691e+01   7.0160155761e+01    0.2684482    0.1718028 -18.71 0.0004596194    1.347    0.258
        42 -10.4440     16.0853     13.7171   6.9214858323e+01   7.0791552398e+01    0.1900337    0.1500477 -35.79 0.0003811263    1.206    0.171
        43  -9.8289    143.5952     11.9959   2.4777161159e+01   4.8277352363e+01    0.3971134    0.2705864 -47.94  0.001993824    1.713    0.416
        44 -11.0160    217.8394      3.8819   1.2371289879e+01   2.9925652640e+01    0.6697204    0.4241921  14.72  0.002644811    2.671    0.626
        45 -10.2476    204.0386      3.9550   1.3762466893e+01   3.3405648866e+01     0.395249    0.2335508  42.87  0.001337278    2.023    0.506
        46 -11.0467    199.0784      3.4865   1.4165018908e+01   3.4724009416e+01    0.7500441    0.3085645  82.70  0.002865226    2.685    0.628
        47 -10.7925    210.8912      4.8055   1.3282976647e+01   3.1576737324e+01    0.5462469    0.3029998  83.07   0.00261153    1.726    0.420
        48 -12.0224    182.5985     11.5574   1.8442931997e+01   3.8198370542e+01    0.3876999    0.3129761 -25.72  0.001584528    1.384    0.277
        49 -10.3841     91.5692     10.5464   3.6595994970e+01   6.0444474878e+01    0.5245659    0.2228149  55.94  0.002244371    2.487    0.598
        50 -11.3770     89.8570      3.6307   3.4025035049e+01   6.1495512458e+01    0.5276041    0.4248163  85.77  0.003064186    1.881    0.468
        51  -9.8005     17.9725      8.6243   6.6014328359e+01   7.1455167315e+01    0.2158811    0.1425356 -51.84  0.001105133    1.841    0.457
        52 -10.1236     81.3524     18.8857   4.3527798020e+01   6.1442644401e+01    0.3402985    0.1792346 -20.72  0.001073339    1.974    0.493
        53 -10.0096    116.2041      8.3172   2.9130899633e+01   5.5296486060e+01    0.2400159    0.2025752 -79.04 0.0005644503    1.537    0.349
        54 -10.7629    103.1627      8.0099   3.2243418372e+01   5.8262980635e+01    0.3479836    0.1985941  54.51  0.001115337    1.632    0.387
        55 -10.8442    168.1325      5.8817   1.8719946988e+01   4.2544683783e+01    0.4989657    0.3487481   7.74  0.001148547    1.834    0.455
        56  -9.0600     97.9851      8.0006   3.3639544979e+01   5.9377697666e+01    0.1644397    0.1400062   6.10  0.001006536    1.113    0.102
        57  -9.5205     22.7790      7.9666   6.3229453780e+01   7.1133588550e+01    0.1639262    0.1209943 -19.00 0.0003264691    1.013    0.013
        58  -9.0997     26.4353      6.5093   6.0675964684e+01   7.0996576841e+01    0.1724431   0.09431072  11.86  0.001002729    1.976    0.494
        59 -10.1326    237.3665      6.4016   1.1240188729e+01   2.4895040000e+01    0.2509907    0.1478246 -36.67  0.001055162    1.641    0.390
        60  -9.7089    225.1895      7.1489   1.2495221602e+01   2.7761632422e+01    0.1949275    0.1363527 -65.20  0.001068099    1.334    0.250
        61  -9.4804    178.7074      5.7033   1.7220416373e+01   3.9800277780e+01    0.1904403    0.1690093 -53.64 0.0004833992    1.193    0.161
        62 -10.2363    175.9739      2.9910   1.6764882391e+01   4.0768442099e+01    0.2450046    0.2132677 -32.11 0.0005061488    1.282    0.220
        63 -11.4090      3.4296      4.1689   7.1880281327e+01   7.3199809607e+01    0.2475462    0.2189561 -48.05  0.001174637    1.528    0.346
        64 -10.9993      6.7148      2.6993   6.9381727767e+01   7.3221980519e+01    0.2195972    0.1371513 -24.57 0.0004748996    1.230    0.187
        65 -11.2512    208.6635     10.3911   1.4976013050e+01   3.1558760501e+01    0.4330385    0.2762042  55.76  0.002206293    1.564    0.361
        66 -10.5578    105.9644      2.4625   2.9194240145e+01   5.8164197338e+01     0.442013    0.2828726  80.49  0.002134292    2.281    0.562
        67  -9.9704     16.3979      3.0016   6.4201089548e+01   7.2439783539e+01    0.2724153    0.2340847  46.76  0.002005961    2.091    0.522
        68  -9.1224    229.7200      2.0635   1.0863063050e+01   2.7192265135e+01    0.1764621    0.1539671 -61.60 0.0003339001    1.109    0.098
        69  -9.0544    119.6148      1.7467   2.5767610713e+01   5.5093402474e+01    0.2400321     0.161589  85.17  0.001194428    1.948    0.487
        70  -9.1020    114.7822      1.2456   2.6625072891e+01   5.6265466368e+01    0.2676148   0.08391245  56.40  0.000868095    2.540    0.606
        71  -8.4769     69.7041      2.2860   3.9872243418e+01   6.5467323858e+01    0.1048867   0.09826734 -45.71 0.0002248934    1.547    0.353
        72  -9.0038     64.2813      2.3205   4.1856867025e+01   6.6399408053e+01    0.1821677   0.08862275 -36.46  0.000902125    2.337    0.572
        73  -9.4852     28.8760      1.4744   5.6921241868e+01   7.1444363814e+01    0.2489089    0.1219679  42.09  0.001317658    2.996    0.666
        74  -9.0201     23.8783      2.1644   5.9828296198e+01   7.1871040785e+01    0.1532405    0.1231745 -16.42 0.0003062593    1.181    0.153
        75  -9.9138    246.6051      1.3712   9.3576250750e+00   2.3271941768e+01    0.3063046    0.0942959  68.28  0.001242969    2.884    0.653
        76 -10.4214    238.7859      1.5283   9.9949460784e+00   2.5079821815e+01    0.4605884    0.1174062  74.66  0.001596446    3.752    0.733
        77  -8.7927     95.4808    104.9568   6.7966555797e+01   4.2735744978e+01    0.2181881    0.1374663 -52.92 0.0003663921    1.500    0.333
        78  -9.3253      1.8844    104.5132   9.5463654172e+01   5.3044765807e+01    0.1690986    0.1186961 -75.66 0.0003724972    1.077    0.071
        79  -9.2549      4.0213    101.4955   9.4516225174e+01   5.3600012155e+01    0.1266397    0.1171359  16.77 0.0003548822    1.437    0.304
        80  -9.5344    114.2817    104.0529   6.2359866641e+01   3.9471470103e+01      0.23987    0.2202618  44.44  0.000486323    1.120    0.107
        81 -10.4294    106.8670    103.2987   6.4260164216e+01   4.1065701929e+01    0.3348541    0.2444386  31.16  0.001604728    1.526    0.345
        82  -9.8393    127.1933    101.9757   5.8258491721e+01   3.7284990243e+01    0.2368506     0.216421  44.01 0.0003301433    1.109    0.098
        83 -10.3852     67.4962     99.6923   7.5126818132e+01   4.8218178307e+01    0.4188358    0.2338341  43.04  0.001995842    1.998    0.499
        84  -9.1167     63.5255     98.4824   7.6083179738e+01   4.9014137085e+01      0.21899    0.1304414  38.52 5.301694e-05    1.863    0.463
        85  -8.6206    143.4969    100.4908   5.3582626604e+01   3.3999462399e+01    0.1561078    0.1543784   9.80 -0.0001258673    1.024    0.023
        86 -10.2704    117.1877     97.1412   5.9691512976e+01   4.0416546876e+01    0.4744611    0.2755091 -52.39  0.001915429    1.771    0.435
        87 -10.8488    101.4228     97.7906   6.4398012931e+01   4.3307780968e+01    0.3214787    0.2487607  56.49  0.001608612    1.443    0.307
        88 -10.1950     16.8345     93.5059   8.9653917727e+01   5.4617961243e+01    0.3534324    0.1371038 -69.31  0.001448867    2.060    0.515
        89 -10.9345    107.7985     96.0841   6.2080323345e+01   4.2497918612e+01    0.3808096    0.2455363  45.34 0.0003187567    1.618    0.382
        90  -8.9533     86.8410     96.8509   6.8514137482e+01   4.6023620466e+01    0.1954292    0.1650343 -79.87 0.0006330395    1.318    0.241
        91  -9.7215     26.9601     96.7386   8.7074894468e+01   5.3154236050e+01    0.2523707    0.1420693 -67.43 0.0004160317    1.444    0.308
        92 -10.0574     36.0433     95.3346   8.4018760644e+01   5.2711643372e+01    0.2766181    0.2367845 -85.64  0.001137128    1.188    0.158
        93 -12.4583     34.8897     89.4240   8.3260609831e+01   5.4159390572e+01    0.4014005    0.2698566  76.26 0.0006732965    1.952    0.488
        94  -9.3737      9.6182     94.0376   9.1918164728e+01   5.4947508697e+01     0.335802     0.149298 -87.27  0.001110523    2.629    0.620
        95  -8.4727    164.3114     95.7393   4.7208807495e+01   3.0033161422e+01    0.1556298    0.1260395 -87.28 0.0002696958    1.532    0.347
        96  -9.1862     57.7057     93.4499   7.6787328486e+01   5.0887691922e+01    0.1705851    0.1311011   5.76  0.000952038    1.648    0.393
        97  -8.3648    138.9803    107.7275   5.6697444820e+01   3.3478573713e+01    0.1888746      0.13732  45.63  0.000173443    1.376    0.273
        98  -8.9147    137.4853     92.4355   5.2858659821e+01   3.7046853301e+01     0.153942    0.1529756  33.30 5.788887e-05    1.009    0.009
        99  -9.7533    112.9185     91.6544   5.9373184256e+01   4.2464927010e+01    0.3190873    0.2411838  13.12 0.0009546992    1.705    0.413
       100  -8.6054     67.0049     91.9698   7.3482379626e+01   5.0053138610e+01    0.1764595    0.1522665  84.44            0    1.333    0.250
       101  -8.9080     64.6723     89.2685   7.3575572049e+01   5.0971509676e+01    0.2117038    0.1263432 -58.85 0.0002135621    1.542    0.352
       102 -10.7544    126.9848     89.2787   5.4746675939e+01   4.0035913506e+01    0.3948207    0.2445876 -44.56 0.0007381857    1.599    0.374
       103 -10.1198     33.8537     83.8289   8.2480054325e+01   5.5509795464e+01    0.3750679    0.2002719 -76.62  0.001487266    2.137    0.532
       104 -12.2850    105.2097     81.1385   5.8573788018e+01   4.6210866773e+01    0.8817998    0.5380939 -27.96  0.001218105    1.983    0.496
       105 -11.0181    111.9983     82.8942   5.7090940296e+01   4.4507390247e+01    0.2672792    0.2488222  21.08            0    1.103    0.093
       106 -10.2369     54.8035     88.6539   7.6630614410e+01   5.2319418769e+01    0.2925228    0.2583712  31.89  0.001271514    1.303    0.232
       107 -11.8123     12.8631     88.0602   9.0037662721e+01   5.6088353863e+01    0.2086899    0.1766026 -69.59            0    1.093    0.085
       108  -9.3464    139.1488     87.8805   5.1101889340e+01   3.7598065675e+01    0.2378655     0.211555 -66.37 0.0008144774    1.227    0.185
       109 -10.2806    119.6961     87.3158   5.6193916242e+01   4.2001974532e+01     0.388998    0.3081103  69.61  0.001436973    1.539    0.350
       110 -10.4395    120.9223     82.3805   5.4380068532e+01   4.2764877004e+01     0.409767    0.3477575 -79.62 0.0003492834    1.439    0.305
       111 -10.6145     84.0919     86.6146   6.6672469297e+01   4.8755109875e+01    0.2643836    0.2489374  87.34 0.0003214712    1.185    0.156
       112  -9.2573     76.7913     86.9548   6.9086818411e+01   4.9804691430e+01    0.2934244    0.1783771 -54.54  0.000845721    1.533    0.348
       113  -9.8841     75.2029     83.4034   6.8649304456e+01   5.0824818961e+01    0.3193947    0.2291214  29.15  0.001124059    1.556    0.358
       114 -10.5743     79.9453     80.9789   6.6437712209e+01   5.0639519565e+01    0.2434273    0.2053185 -32.35 0.0002978682    1.143    0.125
       115  -9.5792    157.0544     86.1838   4.6167245598e+01   3.3673428935e+01    0.2430256    0.2127037  11.60 0.0006134788    1.281    0.219
       116  -8.8186    131.2178     86.4061   5.2756608010e+01   3.9696452949e+01    0.2063949    0.1489973  58.40 0.0004041882    1.525    0.344
       117  -9.4894     60.3284     84.9090   7.3922729898e+01   5.2502297398e+01    0.2942069    0.1669324  41.93 0.0009051608    2.032    0.508
       118  -8.9446     95.3437     84.2110   6.2481785297e+01   4.7383283574e+01    0.1984743    0.1305787 -54.34 0.0002953533    1.542    0.352
       119 -10.0079    187.8789     82.9307   3.8535216935e+01   2.6551139978e+01    0.2488752    0.2216411 -50.40            0    1.134    0.118
       120  -9.6130     22.7482     79.9135   8.5412664615e+01   5.7251779211e+01    0.2965037    0.1209451 -60.46 0.0009002446    1.847    0.458
       121  -9.6416      1.7548     83.1871   9.2796351543e+01   5.7761966189e+01    0.1637789    0.1268358 -77.60 0.0005767304    1.132    0.116
       122 -10.3123     87.0576     79.9277   6.3844850660e+01   4.9725169751e+01    0.3386228    0.1857921 -42.28  0.001503209    1.722    0.419
       123 -11.1249     53.8601     80.9429   7.5102468027e+01   5.4156460763e+01    0.2766393    0.2006621 -59.20 0.0003068665    1.247    0.198
       124  -9.7979     56.2111     73.4938   7.2368443220e+01   5.5512888117e+01    0.5119176    0.1436751 -46.40  0.001834708    3.063    0.674
       125 -10.1580     62.7754     71.0515   6.9396618920e+01   5.5217689754e+01    0.4240275    0.2379293  44.08   0.00204659    2.151    0.535
       126 -10.5463     43.8608     61.2267   7.3438666972e+01   5.9479080116e+01    0.4873707    0.2160783 -55.57  0.001845259    1.987    0.497
       127 -11.9300     51.2872     70.0823   7.3181745630e+01   5.6815722510e+01    0.3047786    0.2294221 -60.31 0.0004415668    1.293    0.226
       128 -11.6450     45.7365     73.0727   7.5937357124e+01   5.6768298702e+01    0.5632261    0.3973804 -75.93  0.001302062    1.682    0.406
       129  -9.8386     42.4887     67.9730   7.5786012751e+01   5.8195192439e+01    0.2576026    0.2053466 -54.45 0.0007914063    1.115    0.103
       130  -9.8891    150.7388     78.9919   4.5537521426e+01   3.6591432609e+01    0.2719688    0.2312668 -30.47 0.0003279236    1.206    0.171
       131 -10.5905    151.9415     73.4492   4.3553976018e+01   3.7329697257e+01    0.3862931    0.2969521 -47.04 2.164455e-05    1.353    0.261
       132  -9.1459    187.1098     76.2466   3.6793730056e+01   2.7922686343e+01    0.2142608    0.1937896  64.39 0.0003910558    1.103    0.093
       133 -10.0602    123.7726     76.1559   5.1669693159e+01   4.3399454973e+01    0.3805488    0.2094315  52.47  0.001536353    1.951    0.487
       134  -9.4308     61.0751     76.0617   7.1380131357e+01   5.4359782235e+01    0.1876484    0.1727993 -52.79            0    1.096    0.088
       135 -11.8225      8.0727     74.0406   8.9293941013e+01   5.9442617065e+01    0.2526889    0.1924495 -33.63 0.0006367271    1.383    0.277
       136  -8.9159    111.0376     75.4563   5.5097745149e+01   4.6224668895e+01    0.2106699    0.1469106  43.17 0.0003221195    1.469    0.319
       137  -9.0776    142.8378     71.1428   4.5055843250e+01   3.9968899042e+01     0.327731    0.2420126  35.07  0.001104025    1.430    0.301
       138 -10.9513    136.3617     71.5075   4.6820054132e+01   4.1437743048e+01    0.5036108    0.4420894 -52.65  0.002557561    1.210    0.174
       139  -9.7903    139.7263     69.6851   4.5377644145e+01   4.0980723179e+01    0.2242376    0.2060348  48.14  0.001163051    1.081    0.075
       140 -10.3406     82.9635     72.1291   6.2848961496e+01   5.2040796301e+01    0.4698428    0.3074097 -69.69  0.001322196    2.296    0.564
       141  -9.5130     23.8829     72.8735   8.3606961919e+01   5.8718068036e+01    0.1750607     0.127934 -48.36            0    1.141    0.124
       142  -9.0182    183.0313     72.2476   3.6441821620e+01   2.9659379417e+01    0.2131964    0.1870513  56.55  0.001067484    1.124    0.110
       143 -11.0383     30.6385     71.1058   8.0826304320e+01   5.8585643546e+01    0.2041429    0.1761644 -48.38 0.0002466649    1.071    0.067
       144 -10.7242     17.2521     70.6753   8.5487722885e+01   5.9643502640e+01     0.246305    0.1858262 -56.59 0.0006624283    1.029    0.028
       145  -9.7433    104.2401     70.4796   5.5559089767e+01   4.8570088098e+01    0.4100879    0.2476106   3.20  0.001400415    3.565    0.719
       146  -9.4607    165.0887     69.7017   3.9404975929e+01   3.4703255347e+01    0.2257109    0.2016549  51.89  0.001137898    1.096    0.087
       147 -10.4157     34.7882     67.7439   7.8528921575e+01   5.8961360472e+01    0.3487674    0.2308286  49.01   0.00123668    2.022    0.505
       148  -9.3549     34.8139     62.1255   7.7085546003e+01   6.0152154530e+01    0.4501813    0.1531724 -40.27  0.001735068    2.940    0.660
       149 -10.2388    157.5172     67.8830   4.0531742032e+01   3.6938536233e+01    0.4711239    0.2158616  41.94  0.001654662    2.402    0.584
       150 -10.5083    161.1532     64.5144   3.8671229068e+01   3.6599927037e+01    0.4885196    0.2265427 -30.07 0.0009184512    2.382    0.580
       151 -10.8176    161.0231     56.4811   3.6177565627e+01   3.7962720484e+01    0.4052663    0.3177551 -43.46 0.0008128561    1.323    0.244
       152  -9.5090    161.7504     52.4280   3.4736537612e+01   3.8416296144e+01    0.2832062    0.1999181  55.69 0.0004685693    1.356    0.262
       153 -10.5167     81.0671     62.6811   6.0490104896e+01   5.4262260489e+01    0.6943458    0.2410098 -39.74  0.002450059    2.854    0.650
       154 -10.6605     74.0382     67.4739   6.4423398326e+01   5.4392105632e+01    0.2521311    0.2036029 -37.52 9.343969e-05    1.113    0.102
       155  -9.9138     77.3954     66.1908   6.2871834841e+01   5.4142869698e+01    0.2042557    0.1856799 -68.52 0.0002684178    1.297    0.229
       156 -10.8392    180.9394     63.9476   3.4416374529e+01   3.1593023465e+01    0.4257836    0.2898398 -29.99 0.0005962192    1.541    0.351
       157  -9.8543    177.0678     63.9972   3.5188754034e+01   3.2589991440e+01    0.2281271    0.2204856  61.64 0.0003503822    1.014    0.014
       158 -11.6963    111.0633     65.8847   5.2009353634e+01   4.8090416689e+01    0.2802487      0.25397 -13.00  0.000272228    1.083    0.076
       159  -9.2617    105.3118     56.9929   5.0717167495e+01   5.0909032727e+01    0.2527957    0.2109253  38.47  0.001149333    1.208    0.172
       160  -9.5830     85.0937     67.1770   6.0594995572e+01   5.2702397447e+01    0.2012004    0.1913346 -27.42 0.0004277499    1.071    0.066
       161 -10.3055    194.7965     65.7212   3.2360207197e+01   2.7710657351e+01     0.292405    0.2276634 -43.10  0.000276577    1.279    0.218
       162  -9.5213    190.7314     61.6143   3.1910460764e+01   2.9424124921e+01    0.4464521    0.1836907  53.25  0.001598754    2.316    0.568
       163  -8.9868    121.9902     66.0496   4.8922615810e+01   4.5725312833e+01    0.2391555    0.1819814   4.22 0.0009522216    1.622    0.383
       164  -9.7595     60.0167     65.5347   6.8761316434e+01   5.6731272669e+01    0.4067592    0.2284469  14.49  0.001863785    2.497    0.599
       165  -8.6051      9.6051     66.2122   8.7324091556e+01   6.1048278726e+01    0.1700907   0.07901794 -57.28 0.0004996905    1.557    0.358
       166  -9.7961    153.0025     64.6023   4.0538771086e+01   3.8642030373e+01    0.3425797    0.2501949 -24.43 -0.000275831    1.489    0.328
       167 -10.0467    147.0421     61.7291   4.1020774300e+01   4.0617309810e+01    0.2307996    0.2193742   3.55 0.0003534947    1.072    0.067
       168 -12.9205    151.6798     57.5910   3.8598833375e+01   4.0156723296e+01    0.4666669    0.3595449  66.20   0.00133791    1.374    0.272
       169  -9.3917     25.9317     65.1693   8.1154023723e+01   6.0230164704e+01    0.1780695    0.1630904  18.27 0.0007942021    1.334    0.250
       170  -9.7714      1.9073     63.8789   8.9644369583e+01   6.1917399009e+01    0.1899714    0.1273541 -65.70 0.0005141524    1.161    0.138
       171  -8.8176    172.2747     63.0197   3.5857106251e+01   3.3993644374e+01    0.1963654    0.1381604 -32.96 0.0006848197    1.463    0.317
       172  -9.2750    167.0757     62.3987   3.6742755570e+01   3.5438940753e+01    0.3160307    0.1866321  16.16  0.001037591    3.322    0.699
       173  -9.4518    131.8798     61.2605   4.4659206289e+01   4.4344534856e+01    0.3756684    0.1938945 -44.60  0.001480609    2.063    0.515
       174  -8.5323    200.4583     61.3793   3.0154639524e+01   2.6942141909e+01    0.1502121    0.1414305  89.29 0.0001128325    1.038    0.037
       175  -9.2833    108.9918     58.2765   5.0053017742e+01   4.9925914037e+01    0.5353779    0.1848582 -42.72  0.001823555    2.930    0.659
       176 -10.7028     57.9240     57.9055   6.7177918265e+01   5.8552720195e+01    0.4876138    0.3429367  82.71  0.002259338    2.975    0.664
       177 -10.2774     61.7923     57.2116   6.5524900064e+01   5.8190257625e+01    0.2702933    0.2156032 -32.39  0.000240179    1.097    0.089
       178 -10.4536     22.0324     60.9277   8.1604467272e+01   6.1410755201e+01    0.1857799    0.1372125 -53.05  0.001224712    1.068    0.063
       179 -10.1355    218.8116     59.4295   2.6731234884e+01   2.2576555121e+01    0.2721179    0.2271883 -49.96 0.0006013756    1.151    0.131
       180  -9.3821    197.0022     57.9847   2.9778725417e+01   2.8364765125e+01     0.225046    0.2195272  57.59  0.001234904    1.063    0.060
       181 -10.3675    200.1716     54.9859   2.8404710093e+01   2.8001302681e+01    0.3473637    0.3045856  86.14  0.001834002    1.140    0.123
       182 -10.3945    185.0856     57.4438   3.1714787428e+01   3.1554467728e+01    0.3850789    0.2189285 -33.73 0.0003364857    1.787    0.440
       183 -10.2296     94.2917     56.4762   5.3993638173e+01   5.3141503956e+01    0.4041311    0.2878158 -38.03  0.002072987    1.346    0.257
       184  -8.7766     52.9807     58.0612   6.9071860176e+01   5.9124384037e+01     0.158015    0.1176197 -44.11 0.0002986707    1.158    0.136
       185 -10.1310    223.2854     55.6430   2.5092107964e+01   2.2029773716e+01    0.3626111    0.2485784  10.54  0.001573954    2.316    0.568
       186  -9.9165      8.1203     56.9982   8.5993153370e+01   6.3070705393e+01    0.1697784    0.1461978 -40.68  0.001281866    1.172    0.147
       187  -9.8040     26.6435     48.0847   7.6402113713e+01   6.3708140490e+01    0.3292341    0.1992872  -1.94  0.001899961    2.022    0.505
       188 -11.1288     34.7778     38.6467   6.9995620559e+01   6.4829578170e+01    0.5524989     0.474431  -9.99  0.003895306    1.170    0.145
       189 -10.4277     31.6041     32.7260   6.9274019056e+01   6.6212852793e+01    0.2406373    0.1807185 -51.85 0.0001903037    1.398    0.285
       190  -9.2156    107.0718    246.5423   8.7366750005e+01   1.1159900932e+01    0.1682457    0.1379004  79.77  0.001219627    1.233    0.189
       191  -8.9633     27.0247     56.2424   7.8512780506e+01   6.2022087275e+01    0.1708034    0.1287804 -18.83 0.0004520308    1.384    0.278
       192 -11.3725     76.6276    219.7555   9.0394157038e+01   2.0337263212e+01    0.5284505    0.3638393  21.65  0.002503807    2.445    0.591
       193 -10.1856     34.7736     26.3092   6.5411042436e+01   6.7032667302e+01    0.4014058    0.2807829 -56.11  0.001604644    1.807    0.447
       194 -11.7150     30.5709     53.2271   7.6295571550e+01   6.2355379675e+01     0.454539    0.2603231 -60.79  0.002527401    1.656    0.396
       195  -9.5270     35.0221     50.9891   7.3872419344e+01   6.2419317503e+01    0.1891374    0.1441267 -34.59  0.001220425    1.108    0.097
       196 -12.5111      2.0692     51.2382   8.7097820208e+01   6.4545312968e+01    0.2720096    0.1478777 -49.72 0.0005844087    1.359    0.264
       197 -10.8379     19.8113     55.5218   8.1140154784e+01   6.2690898962e+01    0.2363873    0.1614836 -46.59 0.0003463341    1.146    0.127
       198 -10.5422     10.6956     52.2987   8.3939355710e+01   6.3907708620e+01     0.650071    0.3247944 -82.89  0.001003431    3.283    0.695
       199 -10.8255     17.7898     49.9305   8.0515035600e+01   6.3969290363e+01    0.4794048    0.3593652  15.95  0.002495184    1.600    0.375
       200  -9.6587    174.3614     53.2351   3.2458908076e+01   3.5012980099e+01    0.4164754    0.2126119 -40.18  0.001652005    1.983    0.496
       201  -9.2160    172.0995     49.8141   3.1840171079e+01   3.6124912311e+01    0.2087885    0.1804638  58.45            0    1.109    0.098
       202  -9.8423    117.6100     51.4393   4.5160688857e+01   4.9270869550e+01    0.2933945    0.2577142  19.71 0.0005422274    1.118    0.106
       203  -9.7904    111.4783     49.7472   4.6311700582e+01   5.0884192911e+01    0.3824899    0.2721956 -80.91 0.0009434829    2.596    0.615
       204 -10.6258    128.0871     52.8998   4.2820581047e+01   4.6654178856e+01    0.5066824    0.3081805 -36.98  0.001430165    1.666    0.400
       205 -11.7542    122.5894     50.0914   4.3309370204e+01   4.8378408458e+01    0.3730678    0.2819843 -42.70  0.001151753    1.404    0.288
       206 -10.1093    179.2544     53.0621   3.1481407417e+01   3.3758442114e+01    0.4247054    0.3043779 -43.79  0.001995814    1.429    0.300
       207  -9.6655     97.2018     41.5278   4.7598711067e+01   5.5156895486e+01    0.2512261    0.2132356  11.02 0.0006277399    1.127    0.112
       208 -10.8868     84.8043     48.6337   5.4335982113e+01   5.6264771833e+01     1.063773    0.5357539 -14.79  0.003263382    4.819    0.792
       209 -11.5860     90.9858     43.8397   5.0480299713e+01   5.5971476042e+01    0.3643565    0.2724291  34.90 0.0004348744    1.331    0.249
       210 -10.1506     89.1797     38.1424   4.8886326965e+01   5.7232219178e+01    0.2345415    0.2183625   0.94 0.0002636471    1.098    0.089
       211  -9.3784     68.8514     53.3507   6.1647454360e+01   5.7956476147e+01    0.2113034    0.1650024 -44.98  0.000339783    1.249    0.200
       212  -9.4881    206.1025     52.8744   2.6875237595e+01   2.6785721254e+01    0.2258672    0.1909411 -71.66  0.000300751    1.202    0.168
       213  -9.4804    133.7984     52.4036   4.1174632207e+01   4.5391539674e+01    0.4132876    0.2576776  72.60  0.001456542    2.302    0.566
       214 -11.9731    138.1151     47.4628   3.8410699131e+01   4.5134415409e+01    0.3229711    0.2964513 -62.33 0.0004666288    1.221    0.181
       215 -10.0542    134.4957     43.5408   3.7929667976e+01   4.6608769043e+01    0.2919602    0.2307158  41.73  0.000520813    1.208    0.172
       216  -9.1959     44.3603     53.2801   7.0885104586e+01   6.1046165626e+01    0.1978563    0.1245248 -39.83 0.0007049397    1.341    0.254
       217  -8.6846     40.5007     52.5413   7.2169365293e+01   6.1588328247e+01    0.1263832    0.1024523 -36.24 -2.741084e-05    1.015    0.015
       218 -11.6483    233.2435     48.3240   2.1895760396e+01   2.0646125592e+01    0.3098637    0.2620044 -88.85 0.0002332764    1.164    0.141
       219 -10.4753    212.0023     49.5809   2.5089666841e+01   2.5756037083e+01    0.3553874    0.2503932  86.32  0.001198563    1.561    0.359
       220  -9.3848    104.0005     49.2319   4.8355336565e+01   5.2529414845e+01     0.260106    0.1994612 -53.71  0.001321956    1.579    0.367
       221  -9.5823    193.8557     48.6206   2.7621348595e+01   3.0592104743e+01    0.3209772    0.2513328  80.23  0.001400616    1.313    0.238
       222  -9.0617     88.7978     65.1504   5.8717975484e+01   5.2474833165e+01    0.2048014    0.1882245 -66.61 0.0008263752    1.278    0.217
       223  -9.4313     63.1200     48.1770   6.1961480333e+01   5.9746468338e+01    0.2274516    0.1818462 -48.29  0.001351555    1.317    0.240
       224  -9.0036     45.3879     48.7449   6.9032289483e+01   6.1829456183e+01    0.1823539   0.09750373 -42.04 0.0009461223    1.565    0.361
       225 -10.0491    201.4008     49.8996   2.6777271434e+01   2.8438777401e+01    0.2888627    0.2362278  72.79 0.0008529505    1.200    0.166
       226 -12.2709    163.4021     42.5626   3.1244556154e+01   3.9457676981e+01    0.3616392    0.3051289  82.46 0.0003334531    1.258    0.205
       227 -10.0726    108.5516     43.8502   4.5014400576e+01   5.2466367832e+01    0.4425706    0.2513735  60.15  0.001630772    2.263    0.558
       228  -9.9143     71.5186     44.3226   5.7434986299e+01   5.9213532943e+01    0.3314967    0.3066693 -89.27  0.001331631    1.536    0.349
       229  -8.9635     67.3519     45.1785   5.9291632438e+01   5.9690120430e+01    0.1981657    0.1174592 -39.71 0.0003342352    1.529    0.346
       230  -8.7453    186.6723     49.7008   2.9146610133e+01   3.2316977682e+01    0.1558384    0.1140392  30.92 0.0002528693    1.637    0.389
       231  -8.9697    180.5159     44.3128   2.8609766929e+01   3.4719138851e+01    0.2904654    0.1327946  61.67   0.00109988    2.088    0.521
       232  -9.1842     78.8221     44.1521   5.4745550590e+01   5.8068702918e+01    0.1905391    0.1820198 -71.88  0.000747451    1.380    0.275
       233  -8.2886     49.2728     43.6977   6.5762827521e+01   6.2352038934e+01    0.1105838   0.09837086 -71.05 0.0002521645    1.535    0.349
       234  -9.4665     18.1104     42.0926   7.8218530125e+01   6.5511439088e+01     0.226576    0.1488287 -81.71   0.00127816    2.332    0.571
       235 -10.6700    239.7520     40.3767   1.9149189195e+01   2.0179590049e+01    0.4632066    0.3089479  18.15   0.00208139    2.568    0.611
       236 -10.5883    250.1601     37.8076   1.7407372890e+01   1.8088652573e+01     0.503665    0.2143103 -37.37  0.001208721    2.063    0.515
       237 -11.4551    246.1803     31.7536   1.6387743763e+01   1.9799628925e+01    0.4006526    0.3563657 -83.50  0.001389654    1.079    0.074
       238  -9.9558    144.9545     41.3672   3.4726079813e+01   4.4351652934e+01    0.2894243    0.2447779 -13.52 0.0007388418    1.264    0.209
       239 -12.3562    140.1400     37.9264   3.4628495085e+01   4.6039281930e+01    0.3832828    0.3282405  -5.11 0.0003659105    1.245    0.196
       240  -9.6211     27.7641     41.4472   7.3913264695e+01   6.4919002142e+01    0.2211425    0.1430731 -36.85 0.0006157091    1.257    0.205
       241  -9.5858    226.2443     37.6056   2.0037208522e+01   2.3833445033e+01    0.2749628    0.1950805  74.43  0.001319868    1.387    0.279
       242  -9.0526    217.9699     41.4533   2.2085472422e+01   2.5384361315e+01    0.2136825    0.1361596  67.21 0.0006373684    1.535    0.349
       243  -8.7118    209.7655     40.9631   2.3066475822e+01   2.7542366424e+01    0.1882444    0.1209392 -31.22 0.0008724504    1.603    0.376
       244 -10.6621    128.0292     38.6368   3.7787640799e+01   4.8874380450e+01    0.4502507    0.4013709 -26.15  0.001634269    1.162    0.140
       245 -10.6468    123.9811     30.6841   3.5882494871e+01   5.0925325554e+01    0.2707508    0.2380383  53.05 0.0003713542    1.139    0.122
       246 -10.0768    126.8564     33.9182   3.6361887024e+01   4.9813286895e+01    0.2167647    0.2071982  61.00            0    1.132    0.116
       247  -9.3280    113.2159     40.0261   4.2247256963e+01   5.2052212081e+01    0.3011005    0.2085148  22.23 0.0008124098    1.612    0.379
       248  -9.8364    115.3923     35.6148   3.9985738957e+01   5.2217532585e+01    0.4381668    0.2737912 -41.33  0.001614484    1.753    0.429
       249  -9.8265     75.4079     40.0309   5.4389712928e+01   5.9334571928e+01    0.2150571    0.1831288  33.95  0.000528415    1.277    0.217
       250  -9.7206    201.7597     38.0650   2.3401318812e+01   3.0006337811e+01    0.4581732    0.1999747 -56.20  0.001558916    3.143    0.682
       251  -9.5872    159.5641     37.9904   3.0519693196e+01   4.1093406646e+01    0.5187204    0.2334602  39.14   0.00182441    2.740    0.635
       252  -9.3367     84.7624     38.9893   5.0702568100e+01   5.7904096733e+01    0.1996262    0.1786561 -12.10 0.0002479695    1.060    0.056
       253 -10.1968     83.2294     35.6419   4.9907181119e+01   5.8710846661e+01    0.4219183    0.2194849  30.06  0.001757423    2.154    0.536
       254 -10.8987     62.8141     37.0492   5.7933444635e+01   6.1772946614e+01    0.3461476    0.3413869  59.00  0.002326845    1.399    0.285
       255 -11.3514     54.6707     34.9425   6.0328607309e+01   6.3250851884e+01    0.5125248    0.3447028 -55.32  0.002803497    1.943    0.485
       256 -10.0191    194.7570     37.3541   2.4234116935e+01   3.1931645659e+01    0.2709628    0.2027529 -60.67 0.0003694871    1.404    0.288
       257  -9.0537    110.4988     37.4248   4.2038189203e+01   5.3032901957e+01    0.2498679    0.1356549 -17.75  0.001024586    2.284    0.562
       258  -8.7951      9.9999     38.6038   8.0710983316e+01   6.6687577197e+01    0.1356611    0.1026191  -4.16 5.165823e-05    1.468    0.319
       259  -9.4637      2.0969     37.9639   8.3970104246e+01   6.7204787669e+01    0.1686322    0.1200919 -46.58 0.0003953249    1.036    0.035
       260  -8.7797     44.5974     36.8645   6.5206300653e+01   6.4138828343e+01    0.1553302    0.1069382 -52.73 0.0001627006    1.588    0.370
       261 -10.4037    154.8192     34.6043   3.0345964356e+01   4.2776207412e+01      0.37902    0.3158106  17.54   0.00117091    1.327    0.246
       262  -9.8931     74.0274     35.4093   5.3071357037e+01   6.0321244381e+01     0.253161    0.1801309 -30.08 0.0006177568    1.295    0.228
       263 -10.7167    230.5847     39.3204   1.9951180260e+01   2.2534797232e+01    0.3038561    0.2321387 -42.19 0.0005149602    1.248    0.199
       264  -9.2775    170.5145     33.8933   2.7157423565e+01   3.8777252164e+01      0.26401    0.2181887 -72.12  0.000610388    1.322    0.244
       265  -9.8972    170.8754     30.0135   2.5873959686e+01   3.9178565630e+01    0.3914765    0.2618248  53.01  0.001309311    1.398    0.285
       266  -9.8050    149.1459     33.5501   3.1150563583e+01   4.4368987523e+01    0.2286957    0.2048538 -25.56 0.0002883124    1.183    0.155
       267  -8.5511     90.2913     34.6689   4.7148754702e+01   5.7560861098e+01    0.1274079    0.1095238 -64.41 0.0002501813    1.628    0.386
       268  -9.6127     79.4361     33.0597   5.0187306383e+01   5.9780216375e+01    0.1955956    0.1210534 -31.95 0.0004558207    1.529    0.346
       269  -9.2028     12.0462     33.5127   7.8309048535e+01   6.7548033569e+01    0.1465283    0.1062986   7.83  0.001025361    1.574    0.365
       270 -11.6420    236.2651     30.0637   1.7010153061e+01   2.2366602706e+01     0.512592     0.401349 -20.12  0.002854561    1.501    0.334
       271 -10.7344     69.0280    217.3877   9.1605741546e+01   2.1834983980e+01    0.3311046     0.195282  73.32  0.000435704    1.576    0.366
       272 -10.3904     73.7081    213.9756   9.0407741683e+01   2.1847687906e+01    0.2843766    0.2419907  65.42  0.001225386    1.169    0.144
       273  -9.7338     55.9847    216.8247   9.3979914152e+01   2.3652327981e+01    0.1814421    0.1290561 -89.11 0.0007682651    1.248    0.199
       274 -10.2807    223.0050     21.5345   1.6309079712e+01   2.6672721332e+01    0.4036562    0.2584272 -60.30  0.001555847    1.550    0.355
       275  -8.7600     91.7717    214.5926   8.6979064477e+01   1.9109988390e+01    0.1767134   0.09267598  52.27 0.0004788721    1.599    0.375
       276 -12.0288    132.2992     29.6711   3.3498285164e+01   4.9070391734e+01    0.3691815    0.3224594 -36.16 0.0001509379    1.240    0.193
       277  -9.8107     16.9620     28.0363   7.4260636719e+01   6.8247245866e+01    0.2853099    0.1893193 -28.78  0.001916799    1.256    0.204
       278  -9.2653    223.8131     30.8659   1.8600066797e+01   2.5317686940e+01    0.1984826    0.1868366  63.25 0.0004765827    1.168    0.144
       279 -10.0902    216.7292     30.0343   1.9229565103e+01   2.7204697444e+01    0.3756836    0.2384866 -54.47  0.001046176    1.574    0.365
       280  -9.0091    208.9888     30.9809   2.0456805423e+01   2.9061703139e+01    0.1749975    0.1601027 -84.32 0.0005030424    1.002    0.002
       281  -9.4247     76.3859     30.2427   5.0115136976e+01   6.0735287220e+01    0.2391811    0.1428865  31.23 0.0006041586    1.689    0.408
       282  -9.2951      2.2277     29.3871   8.1557522072e+01   6.8846681971e+01    0.1919254    0.1074017 -47.90 0.0008205145    1.276    0.216
       283  -9.4152    123.9701    206.0074   7.9481084153e+01   1.5537905980e+01    0.1832418    0.1542272  59.53            0    1.016    0.016
       284  -8.6890    147.0294     29.2440   3.0113726119e+01   4.5461209716e+01     0.182855    0.1163455  58.02            0    1.454    0.312
       285 -10.4006     47.0760     28.8425   6.1041937546e+01   6.5238410985e+01    0.2617701    0.1611951  28.07  0.001513872    1.724    0.420
       286 -10.4122     82.4604     27.3155   4.6766280237e+01   6.0097141435e+01    0.3546139    0.3286375  41.58  0.002244057    1.301    0.231
       287  -8.8688     10.9975     27.2318   7.6784148515e+01   6.8782052155e+01    0.1585579    0.1163658 -31.99 0.0009218387    1.093    0.085
       288  -8.9459    207.0000     25.9375   1.9341793464e+01   3.0203754514e+01    0.2212615    0.0804529 -28.28 0.0007944894    2.888    0.654
       289  -9.9841     72.0125     26.2443   5.0023941152e+01   6.2065379573e+01    0.4228741    0.1628211  36.25  0.001757367    2.711    0.631
       290  -8.3372    133.0459    198.9636   7.6598102358e+01   1.5283474133e+01    0.1484139    0.1293906  58.39 0.0008922531    1.020    0.020
       291  -8.7820    223.0324    188.0584   5.6482414693e+01   2.0635002285e-01    0.1534184    0.1311793  16.59            0    1.006    0.006
       292  -8.8966      1.0000    184.9762   1.0197767125e+02   3.5754104120e+01    0.1774793   0.04714239 -79.00 0.0008067646    2.973    0.664
       293 -10.7741    180.6464     23.3104   2.2232625469e+01   3.7415112064e+01    0.6669905    0.3478577 -77.85  0.002381021    3.119    0.679
       294  -9.6265    177.9669     19.0542   2.1345891498e+01   3.8609001815e+01    0.2132738    0.1931019  85.13 0.0002990798    1.051    0.049
       295 -10.6761     99.6830     23.7554   3.9789227379e+01   5.7217811706e+01    0.2931132    0.2455292  45.91 0.0004069565    1.219    0.180
       296  -8.4176    137.5319     24.4815   3.0445687740e+01   4.8428907781e+01    0.1457573    0.1304287  39.10 -6.587986e-05    1.037    0.035
       297 -10.7548     67.1705     21.8982   4.9952269044e+01   6.3481386949e+01    0.3707019    0.2464337  13.76  0.001348689    1.557    0.358
       298  -9.9851    248.9626     22.7804   1.4023207573e+01   2.0278250477e+01    0.2239578    0.1758228 -48.37 0.0007115137    1.162    0.139
       299  -9.9492    212.1495     22.4284   1.7769456057e+01   2.9305932701e+01    0.2572721    0.2320006 -71.99 0.0005018092    1.044    0.042
       300  -9.8985    100.9873    176.0218   8.0176962838e+01   2.5525428402e+01     0.192065    0.1686404  73.07  0.001150951    1.006    0.006
       301  -9.5376     51.0239     22.6150   5.6746305202e+01   6.5736777152e+01    0.2658671     0.149106 -35.40  0.001265264    1.583    0.368
       302  -9.0802     15.9822     22.7885   7.2844156709e+01   6.9254987544e+01    0.2386351    0.1183585 -27.47  0.001350199    1.894    0.472
       303 -10.4984    188.3911     20.7834   2.0359470775e+01   3.5669038881e+01    0.3292096    0.2624889  20.49 0.0008421253    1.548    0.354
       304 -11.4368    192.9928     18.1532   1.8978692859e+01   3.4761506906e+01    0.4499953    0.2973071  58.44  0.002248052    1.417    0.294
       305  -9.2309    165.0245     22.3777   2.4445689330e+01   4.1634114393e+01    0.2156658    0.1742185  65.37  0.001143208    1.140    0.122
       306  -8.5043    159.6583     22.2349   2.5330737707e+01   4.3051674301e+01    0.1423274    0.1069877 -81.72 0.0002557492    1.550    0.355
       307  -9.9163      1.4377     21.2642   7.9420435340e+01   7.0384285939e+01    0.2303818   0.07764163 -55.20 0.0002757901    2.174    0.540
       308  -8.6610    143.3580     21.6676   2.8225979241e+01   4.7300315708e+01    0.1495294     0.108355 -69.67 0.0007042275    1.797    0.444
       309 -11.1993      4.6390    163.0050   9.9933551242e+01   4.0017363766e+01     0.243042    0.1645421  50.50  0.000314925    1.493    0.330
       310 -11.0812      6.2035    159.5582   9.9368932388e+01   4.0631904858e+01    0.3290601    0.1721526 -56.96  0.001966417    2.024    0.506
       311 -10.5706     15.5368    154.2483   9.6951570400e+01   4.1033724237e+01    0.2666613    0.1081815  51.35  0.001377919    2.416    0.586
       312 -11.5170      2.7300    141.8820   9.8791545852e+01   4.4717208387e+01     0.640588    0.2859285  81.96  0.003365726    2.168    0.539
       313 -10.9011     11.3451    144.9231   9.7090941957e+01   4.3423741517e+01    0.2930338    0.1980491  54.30 0.0003548019    1.499    0.333
       314 -10.7111      3.8834    151.9857   9.9311159385e+01   4.2437567248e+01    0.2622171    0.1594833 -88.05 0.0005654843    1.257    0.204
       315 -10.2874      5.6272    147.8620   9.8616661909e+01   4.3205952735e+01    0.2181855    0.1455999  45.93 0.0009473821    1.610    0.379
       316  -8.5192     48.4694    151.4661   8.9085883505e+01   3.8433368056e+01    0.1274747    0.1050424 -88.56 0.0008089104    1.001    0.001
       317  -9.4635     29.6823    150.8771   9.3442597972e+01   4.0523487286e+01    0.2094508    0.1320865 -68.16 0.0003695142    1.363    0.266
       318  -9.5973     30.0990    146.6743   9.2905366652e+01   4.1432233730e+01    0.2528848    0.1565155  52.85 0.0005686295    1.628    0.386
       319 -10.6400     17.4441    141.0739   9.5323090358e+01   4.3800728864e+01    0.2642378    0.2214274  60.83  0.001384259    1.277    0.217
       320  -9.3620     44.4722    141.2949   8.8779863434e+01   4.1215740171e+01    0.1988796    0.1684105  46.56 0.0006213941    1.324    0.245
       321 -10.7403     29.3336    137.7829   9.2106189748e+01   4.3525488264e+01    0.2957838    0.2000256  64.31  0.001816315    1.481    0.325
       322 -11.1581     29.2346    132.0753   9.1459608182e+01   4.4841573277e+01    0.4924044    0.2975442  80.14  0.002605949    1.693    0.409
       323  -9.4411    118.8462     19.3256   3.2830378558e+01   5.3524043524e+01    0.3677497     0.155356  35.81 0.0009147425    2.772    0.639
       324  -9.7041     71.9036    138.0659   8.1295406750e+01   3.8609291152e+01    0.2005392    0.1729282 -87.18 0.0003051021    1.048    0.046
       325  -8.9365    202.2255     18.6050   1.7932572940e+01   3.2305826395e+01    0.2084757    0.1153003  58.96 0.0009499714    1.687    0.407
       326 -10.2730      8.2518    136.9273   9.7100950146e+01   4.5423718070e+01    0.2342049    0.1683217  57.00 0.0004183655    1.434    0.303
       327 -10.9831     12.7277    135.0526   9.5862389051e+01   4.5515725497e+01    0.2449469    0.1781052 -72.09 0.0002286128    1.150    0.130
       328 -10.4186     17.5465    133.8379   9.4571744218e+01   4.5420394665e+01    0.2490207    0.1819507  79.52 0.0002646736    1.236    0.191
       329 -11.5953     12.6254    129.2602   9.5312109700e+01   4.6823093408e+01    0.4021861     0.292355  28.05 0.0004803329    1.749    0.428
       330  -8.9539    184.7901    134.2197   5.2591876895e+01   1.7528533546e+01    0.2059014     0.177174   6.33 0.0002943304    1.291    0.225
       331 -10.2267      4.1956    131.3682   9.7565335044e+01   4.6934052886e+01    0.2988746    0.1607468  52.57  0.001392226    1.952    0.488
       332 -11.7370     98.9820    126.0827   7.1807209017e+01   3.7235335557e+01    0.2593598    0.2435917 -79.62 0.0002960747    1.004    0.004
       333  -9.6774     69.0065    126.4176   8.0062032819e+01   4.1749005205e+01    0.2138116    0.1620552 -65.69 0.0005737436    1.180    0.153
       334 -10.1776     48.9284    126.8581   8.5592216512e+01   4.4095372983e+01    0.2241352    0.1619718 -76.29            0    1.211    0.174
       335 -10.7084     21.1946    118.6396   9.1902081600e+01   4.8592060946e+01    0.3085977    0.2097186  42.93  0.001191935    1.674    0.403
       336 -11.2122     23.6494    125.1447   9.2056038335e+01   4.6908540716e+01    0.3176046    0.1982691  85.14  0.001155855    1.552    0.356
       337  -9.6669     33.4080    126.5020   8.9675166677e+01   4.5746846880e+01    0.1790041    0.1293987 -49.03 0.0001447189    1.466    0.318
       338 -11.0850     29.1071    125.2549   9.0643421750e+01   4.6421487593e+01    0.3212155    0.2202648  27.43  0.001096418    1.809    0.447
       339  -8.3562      1.2315    126.2970   9.7826495574e+01   4.8244785474e+01    0.1083531   0.06559547 -60.58 0.0006803474    1.465    0.317
       340  -9.5188    229.9601    124.8414   4.1475767027e+01   9.1166334343e+00    0.3166859    0.2086819  59.95  0.001461168    1.797    0.443
       341  -9.2469     20.4544     14.5105   6.7343111167e+01   7.0313471554e+01    0.1754985    0.1241063  -8.69 0.0008581604    1.282    0.220
       342  -9.6860     59.0199    125.0467   8.2559103144e+01   4.3351886830e+01    0.1940011    0.1688034 -69.74            0    1.047    0.045
       343 -10.1439     10.4462    112.4260   9.4037898881e+01   5.0765896588e+01    0.2371523    0.1623626 -86.82 0.0005908872    1.253    0.202
       344 -10.3603     15.0777    122.2000   9.3935081027e+01   4.8239427671e+01    0.3435723    0.1622882  43.60  0.001631871    2.321    0.569
       345 -11.7545     14.2848    116.4681   9.3483215935e+01   4.9594431145e+01    0.6220612     0.291773 -40.05  0.001310637    2.775    0.640
       346 -10.7574      1.9487    112.0413   9.6263559114e+01   5.1366904388e+01    0.3583219    0.2324601 -79.99  0.001662207    1.188    0.158
       347 -10.6484      5.9038    109.0723   9.4880597782e+01   5.1800558990e+01    0.2465807    0.2037249 -40.99  0.001066858    1.420    0.296
       348  -9.0812     79.4019    121.6890   7.6291859073e+01   4.1399563739e+01    0.1971056    0.1194006 -50.62 0.0009352295    1.572    0.364
       349 -10.4832      8.6636    103.9991   9.3512861566e+01   5.2772959331e+01    0.5571882    0.1326124 -60.81  0.002399317    2.718    0.632
       350 -11.0618     40.0308    119.8922   8.6955319779e+01   4.6651097500e+01    0.6108807    0.3278842 -80.72  0.003029798    1.887    0.470
       351  -9.4580     51.1840    118.8138   8.3681688107e+01   4.5733341699e+01    0.2267438    0.1614027 -64.93 0.0006626297    1.201    0.167
       352 -11.3758     46.7875    116.5398   8.4540356975e+01   4.6744642762e+01    0.3193966    0.2029738 -60.12  0.001769162    1.339    0.253
       353 -10.0896     57.8385    117.7284   8.1616460708e+01   4.5218639641e+01    0.3941091    0.2286362  58.10  0.001898804    2.104    0.525
       354 -10.3160     98.6521    117.4641   7.0011054078e+01   3.9300293185e+01    0.2505759    0.2305306 -67.30 0.0002420755    1.029    0.028
       355  -9.2932     98.5613    113.5282   6.9133499717e+01   4.0228891872e+01    0.2351026    0.1969393 -47.95 5.581031e-05    1.164    0.141
       356 -10.5447     72.3039    117.3460   7.7430789702e+01   4.3439866095e+01    0.3621499    0.2448038  34.64  0.000869684    1.650    0.394
       357  -9.2064     75.4604    113.9778   7.5842189858e+01   4.3787794142e+01    0.2089785    0.1254962 -57.86  0.000115944    1.505    0.336
       358 -10.2934     30.5214    117.8188   8.9266605358e+01   4.8014129996e+01    0.2317083    0.1826555  74.41   0.00036073    1.293    0.226
       359  -9.5616     61.6801    115.3014   8.0075130570e+01   4.5320250439e+01    0.2093431    0.1304584  39.81 0.0003217385    1.755    0.430
       360 -10.8829     62.2657    111.9936   7.9272959944e+01   4.6024631469e+01    0.4305238    0.2306278 -51.92  0.001452065    1.681    0.405
       361  -9.4827     84.1593    113.0291   7.3130608959e+01   4.2714405431e+01    0.2046455    0.1866307 -66.00 0.0002931632    1.010    0.010
       362  -9.5005     71.7457    112.8394   7.6682435844e+01   4.4577344844e+01    0.2015396    0.1706352 -50.63 0.0003474833    1.141    0.123
       363  -9.2706     50.2114    112.0862   8.2796964100e+01   4.7418612807e+01    0.1949245    0.1526456 -52.45  0.000501798    1.205    0.170
       364 -10.7555     21.3336    110.4372   9.0792095644e+01   5.0456809602e+01    0.3010508    0.2024529 -78.58  0.001826091    1.247    0.198
       365 -10.5425     21.3483    104.9002   9.0011892727e+01   5.1720017749e+01    0.2840382    0.1757275 -73.07 0.0006705617    1.317    0.241
       366  -9.9339     28.5680    109.5325   8.8616774653e+01   5.0092245151e+01    0.2133112    0.1768397 -73.61 0.0005892999    1.030    0.029
       367 -11.3163    121.0051    107.8853   6.1500362714e+01   3.7271457265e+01    0.4648731    0.2586664  41.95 0.0008214557    1.843    0.457
       368  -9.4399     40.3341     99.2910   8.3423194983e+01   5.1406001329e+01    0.2013121     0.175221 -25.12  0.001191886    1.333    0.250
       369  -9.7674     46.6779    109.2727   8.3327800391e+01   4.8455099272e+01     0.256562    0.1849099  46.38 0.0004456148    1.561    0.359
       370 -11.6465     45.6329    102.5625   8.2416418130e+01   5.0124309837e+01    0.4503174    0.2691357 -63.55 0.0006860215    1.416    0.294
       371  -9.8723     34.8232    107.1561   8.6439484973e+01   5.0100249953e+01    0.1740901    0.1483903 -72.99 0.0003578662    1.044    0.042
       372  -9.1931     34.0487    103.5441   8.6072734996e+01   5.1003204315e+01    0.1929819    0.1448891  65.29  0.001050548    1.515    0.340
       373 -10.0641    130.7708    104.9575   5.8103849281e+01   3.5871782199e+01    0.4690634    0.3487018  14.30  0.002066114    1.823    0.451
       374 -11.8015     81.0887    103.2041   7.1803090023e+01   4.5470160243e+01    0.2960868    0.2634097 -78.45   0.00028692    1.149    0.129
       375  -9.3433     38.7497    111.0117   8.5926632978e+01   4.8842893944e+01    0.1858876    0.1367951 -68.39 0.0004234075    1.127    0.113
