#   1 NUMBER                 Running object number                                     
#   2 MAG_AUTO               Kron-like elliptical aperture magnitude                    [mag]
#   3 X_IMAGE                Object position along x                                    [pixel]
#   4 Y_IMAGE                Object position along y                                    [pixel]
#   5 X_WORLD                Barycenter position along world x axis                     [deg]
#   6 Y_WORLD                Barycenter position along world y axis                     [deg]
#   7 A_WORLD                Profile RMS along major axis (world units)                 [deg]
#   8 B_WORLD                Profile RMS along minor axis (world units)                 [deg]
#   9 THETA_WORLD            Position angle (CCW/world-x)                               [deg]
#  10 FWHM_WORLD             FWHM assuming a gaussian core                              [deg]
#  11 ELONGATION             A_IMAGE/B_IMAGE                                           
#  12 ELLIPTICITY            1 - B_IMAGE/A_IMAGE                                       
         1 -12.1792    114.8129     92.1013   8.3913510963e+01   4.1704205416e+01     1.829977    0.1667929 -45.72  0.002999129   10.965    0.909
         2 -12.3270      1.9552     84.1488   1.1879339988e+02   5.7790085211e+01     2.164587    0.1243917 -70.19  0.004454772   11.272    0.911
         3 -10.9877     32.7041     43.4236   9.7092833922e+01   6.4421758774e+01    0.9128802    0.0504076 -51.12  0.002127795    8.361    0.880
         4 -13.2107    201.3966     34.0798   4.7959519174e+01   3.0551331778e+01      1.31055     1.039192  28.67  0.005319723    1.582    0.368
         5 -12.8537    216.0955     19.1829   4.2305913511e+01   2.8741878630e+01    0.8073865    0.7021745 -80.32  0.002821119    1.030    0.029
         6 -12.6752     11.1703     78.9006   1.1478324978e+02   5.8480973462e+01     1.425519    0.6281469 -75.56   0.00435343    2.258    0.557
         7 -10.7675    245.9515     18.3605   3.9361430723e+01   2.1888902534e+01    0.4301626    0.3476532 -21.93  0.001631501    1.477    0.323
         8 -10.7987     46.9057     16.7367   7.9726487406e+01   6.7272298294e+01    0.4558909    0.2760625 -14.63  0.002547265    1.627    0.385
         9  -9.0479     33.0000     11.9286   8.3758843336e+01   6.9756973570e+01     0.191684   0.05731311 -38.88 0.0008038594    2.952    0.661
        10  -9.2454      1.5574      3.2067   9.6423274535e+01   7.3995559920e+01    0.2040722   0.08934867 -49.75  0.001148177    2.111    0.526
        11  -8.9150    114.6836      2.3196   5.1740967830e+01   5.5720954960e+01    0.1284316    0.1002773 -65.05 0.0005837788    1.657    0.397
        12 -14.5393     61.5031    128.9348   1.0813213276e+02   4.1869070237e+01     4.521945     1.911989 -74.62   0.01616342    3.134    0.681
        13 -14.7593    121.7310    230.6704   1.0887573675e+02   1.0627061288e+01     3.949822     3.160992  49.38   0.02595368    1.039    0.038
        14  -9.1335     99.6618    180.7939   1.0687868169e+02   2.4043260682e+01    0.2222174    0.1810345  35.80 0.0007102028    1.332    0.249
        15 -10.2596     71.6710    173.9349   1.1235696115e+02   2.9811056475e+01    0.2440777     0.197241 -44.70 0.0008076247    1.542    0.351
        16 -14.3592     26.4611    221.0306   1.2590057797e+02   2.5357286356e+01    0.8273375    0.4068529  74.54  0.003791936    1.776    0.437
        17 -11.2865    101.7606    171.2661   1.0492377104e+02   2.5818977640e+01    0.7730942    0.2865957  49.76  0.002807729    2.868    0.651
        18  -8.5676    193.4841    165.5434   8.3209245635e+01   9.5021569416e+00    0.1450517    0.1341432  10.28 0.0008088424    1.010    0.010
        19 -10.6082     87.1279    157.4985   1.0623491690e+02   3.1347372471e+01    0.4910262    0.3243162 -34.48  0.001456492    2.149    0.535
        20  -9.6092    115.0000    154.4235   9.8758270389e+01   2.7354595376e+01    0.3217657   0.08220604 -53.71 0.0009311809    3.906    0.744
        21 -10.6859    133.9436    144.7566   9.2099459467e+01   2.5933306371e+01     1.059669    0.2061663 -52.91  0.002207867    7.315    0.863
        22 -11.1174    101.7383    141.5136   9.9604444910e+01   3.2730216422e+01    0.5733514    0.3457411 -31.12  0.002299419    2.520    0.603
        23 -11.3581     88.9698    141.7357   1.0300131809e+02   3.4804502435e+01    0.2826333    0.2500897 -54.09 0.0004070884    1.152    0.132
        24 -10.9634    248.4906    247.3929   8.8035470737e+01  -1.1362815017e+01    0.3257551    0.1936111 -22.49  0.002141218    1.697    0.411
        25 -11.7126    115.3427    124.7417   9.2346659682e+01   3.4195021469e+01    0.8863543    0.5326834 -69.47   0.00348118    2.247    0.555
        26 -10.0560    105.9870    130.5670   9.6186204774e+01   3.4573843327e+01     0.363973    0.3094416  86.55  0.001205065    1.271    0.213
        27 -12.0673     32.9368    116.7898   1.1424819698e+02   4.7955811039e+01    0.9094305     0.194945 -64.84  0.003104172    3.461    0.711
        28 -11.4699     89.6148    229.0258   1.1487045898e+02   1.5817594180e+01    0.3253181    0.2059452  85.48  0.001192883    1.745    0.427
        29  99.0000     21.6086    234.0367   1.2746709761e+02   2.3425237076e+01    0.8376974    0.3456672 -81.48  0.004582942    2.181    0.541
        30  -9.9472    126.4374    128.0969   9.0216598172e+01   3.1229174407e+01    0.3205718    0.2034378  61.46   0.00131692    1.968    0.492
        31 -10.2356     98.2848    127.6619   9.7643218567e+01   3.6628996217e+01    0.2890517    0.2534194 -13.56 0.0004359078    1.385    0.278
        32 -13.9360     30.5933    233.5774   1.2592660249e+02   2.2538732861e+01    0.6041254    0.3562951 -80.60  0.003544557    1.556    0.357
        33 -10.0932     33.0000    100.9270   1.1157161160e+02   5.1741009565e+01     0.250882     0.137902 -63.97 0.0009366379    1.483    0.326
        34  -9.4825    107.6400    119.8872   9.3291043547e+01   3.6790973653e+01    0.2286834    0.2091825  22.56 0.0003196853    1.210    0.174
        35 -17.4163     48.4537    225.0015   1.2221223094e+02   2.2080164274e+01     3.432029     1.392357 -82.58   0.01615618    2.653    0.623
        36 -10.8073    135.2966    122.2081   8.6507975018e+01   3.0732476492e+01    0.6382535    0.1362445 -47.31   0.00157834    4.675    0.786
        37  -8.9865    168.4906    113.3350   7.6234792063e+01   2.5223909779e+01    0.3273073    0.2198788 -70.90  0.001275594    2.244    0.554
        38  -9.0115    205.6790    110.1461   6.7773757155e+01   1.7221550295e+01    0.2468278    0.2132952  66.60 0.0005991725    1.293    0.227
        39 -10.9353    111.2793    131.2056   9.4912497254e+01   3.3451252418e+01    0.5872349     0.359967  38.31  0.002560996    1.720    0.419
        40  -9.7556     22.8048    109.0911   1.1604417304e+02   5.0658617735e+01    0.1935956    0.1506699  84.45 0.0008311837    1.291    0.226
        41  -8.6234     92.0104    102.9894   9.3600975201e+01   4.3552513116e+01    0.2152798    0.1748394  85.75 0.0004873595    1.513    0.339
        42 -10.7647     43.7841     98.9988   1.0776851923e+02   5.1154604865e+01    0.2952577    0.2272089 -57.66 0.0009912662    1.092    0.084
        43 -11.6628     58.5782     93.6049   1.0176836948e+02   5.0731777209e+01    0.8798383    0.3611301 -58.88  0.003561331    2.211    0.548
        44 -10.0114     62.4354     89.8246   9.9566137868e+01   5.1114590338e+01    0.5122924    0.1864068 -46.73  0.001946747    2.462    0.594
        45 -17.2928     36.0439    161.9952   1.1921446540e+02   3.6917694281e+01     3.514376     1.697728  70.09   0.01278899    2.398    0.583
        46 -10.3021     74.5027     95.8153   9.7168445265e+01   4.8031924152e+01    0.4512453    0.3563074  40.63  0.001554339    1.401    0.286
        47 -10.0792     78.0089     93.5017   9.5452904147e+01   4.8036100773e+01    0.4016909    0.3015659  86.77  0.001949741    1.850    0.460
        48 -11.3137      6.0074    248.7476   1.3062599542e+02   2.2399952399e+01    0.1428948   0.09124247  66.48 0.0005239204    1.058    0.055
        49 -12.4860    114.7505    109.7642   8.8798115428e+01   3.7774128700e+01     1.550465    0.2711217 -46.82  0.003606295    5.430    0.816
        50  -9.4366     13.2426     59.9356   1.1004289679e+02   6.2552303359e+01    0.1807825    0.1591593 -36.78 0.0005474159    1.168    0.144
        51  -8.1836     54.2636     65.3025   9.5594179831e+01   5.7600682889e+01    0.1350069   0.09040257 -28.08 0.0001803163    1.520    0.342
        52 -10.9980     29.9972     49.9387   1.0040419211e+02   6.3384645650e+01    0.5331494       0.3248 -45.78  0.002508921    1.311    0.237
        53  -9.0455     69.3912    247.1229   1.2014527121e+02   1.5385935028e+01    0.1379792   0.08775732  81.86 0.0004736283    1.506    0.336
        54 -11.7400    192.6868     40.8942   5.1076866267e+01   3.1847078862e+01    0.3806061    0.3616801 -29.46 0.0009655002    1.131    0.116
        55 -11.6236     10.8541    244.9494   1.2972191099e+02   2.2577003116e+01    0.2172073    0.1160634  50.17 0.0009943173    1.475    0.322
        56 -11.4354    210.5676     25.2294   4.4464402089e+01   2.9376992004e+01    0.4331735    0.3507301  39.54  0.001164963    1.486    0.327
        57 -13.0429      3.1750    218.0277   1.2977803141e+02   2.8253231250e+01     0.388649    0.2293659 -89.28  0.002348362    1.334    0.250
        58 -10.8118    238.5110     40.3919   4.5210544194e+01   2.0788266844e+01    0.6137927    0.3670837 -66.55  0.002994941    1.803    0.445
        59  99.0000     11.1232    203.7113   1.2764441774e+02   3.0328580090e+01    0.6738056    0.2205761 -73.21  0.002693535    2.528    0.604
        60 -10.1324    143.8404     48.6673   6.2414525536e+01   4.3171005818e+01    0.3216713    0.2553716 -88.96 0.0006146841    1.553    0.356
        61  -9.7419    114.8180     27.3866   6.1600934217e+01   5.3085096327e+01    0.2635485    0.1003735 -30.70  0.001002719    2.625    0.619
        62  -9.0083      1.8386     25.1433   1.0523835435e+02   7.0199025400e+01    0.1620265   0.09571822 -36.83 0.0005548093    1.284    0.221
        63 -12.8579     19.4976    189.9927   1.2518485189e+02   3.2369513878e+01    0.5674288    0.3764952 -60.41  0.002380426    1.696    0.410
        64 -11.7298     12.3118    188.9053   1.2652315696e+02   3.3277247579e+01    0.3694516    0.2552789  80.76  0.001476472    1.091    0.084
        65  -9.2732    115.0000     19.0255   5.8288562534e+01   5.4031751716e+01    0.2185154   0.07782505 -25.09 0.0008034474    2.949    0.661
        66 -13.9359     29.1899    247.9754   1.2695168946e+02   2.0113584526e+01    0.7897409    0.2823237  89.90  0.004012677    3.086    0.676
        67  -9.5778    193.5663    191.9342   8.8461202990e+01   4.8426961458e+00    0.2992327     0.219258   1.28  0.001571331    1.588    0.370
