#   1 NUMBER                 Running object number                                     
#   2 MAG_AUTO               Kron-like elliptical aperture magnitude                    [mag]
#   3 X_IMAGE                Object position along x                                    [pixel]
#   4 Y_IMAGE                Object position along y                                    [pixel]
#   5 X_WORLD                Barycenter position along world x axis                     [deg]
#   6 Y_WORLD                Barycenter position along world y axis                     [deg]
#   7 A_WORLD                Profile RMS along major axis (world units)                 [deg]
#   8 B_WORLD                Profile RMS along minor axis (world units)                 [deg]
#   9 THETA_WORLD            Position angle (CCW/world-x)                               [deg]
#  10 FWHM_WORLD             FWHM assuming a gaussian core                              [deg]
#  11 ELONGATION             A_IMAGE/B_IMAGE                                           
#  12 ELLIPTICITY            1 - B_IMAGE/A_IMAGE                                       
         1 -14.1954    162.3176     52.4668   7.8105979073e+01   3.8083146087e+01     2.099031     1.393237  19.11  0.006747347    2.293    0.564
         2 -13.0887    179.4029     28.9948   6.8632631177e+01   3.6915479476e+01    0.5807387     0.489429  36.49  0.001854612    1.384    0.277
         3 -13.5440    174.9767     36.5046   7.1345601439e+01   3.7094634820e+01    0.8265343    0.6916422  83.82  0.002539387    1.130    0.115
         4 -12.2486    189.6817     14.9356   6.3614537569e+01   3.5958910508e+01    0.3379538    0.2403987 -79.15  0.001153353    1.385    0.278
         5 -13.6718    193.4797      4.6281   6.0667790454e+01   3.6087960467e+01    0.9283835    0.5316237  71.71  0.004188814    1.439    0.305
         6 -10.5553    168.9874    235.1770   1.1868540010e+02   5.8864547348e-01    0.1978959    0.1938807 -14.78 0.0003393629    1.189    0.159
         7 -18.5243     60.7009    242.4056   1.4119429877e+02   1.7073681336e+01     7.375326     6.002429  89.87   0.04344016    1.210    0.174
         8 -13.0450    139.7816    200.3172   1.1928844782e+02   1.2728971144e+01    0.4410184    0.3857536 -57.66  0.001927725    1.239    0.193
         9 -11.3335     33.0821    184.1700   1.4131629901e+02   3.2943546110e+01    0.2693983     0.164451 -56.84 0.0003158226    1.695    0.410
        10 -12.6535    193.4982    192.5890   1.0596039364e+02   3.6894509442e+00     0.879483    0.5258109 -53.06  0.002790986    2.030    0.507
        11 -11.7182    207.2131    179.6598   1.0046598060e+02   3.4207195809e+00    0.7460468    0.4340883  24.86   0.00309642    2.173    0.540
        12 -11.6132    136.9848    179.3358   1.1615881205e+02   1.7858296324e+01    0.2214767    0.1894537  46.04 0.0005182728    1.114    0.102
        13 -19.0108     44.6066    105.0517   1.2667337352e+02   5.0236931143e+01     17.11046    0.8111017 -59.74   0.02530158   18.452    0.946
        14 -11.9465    196.0263    171.2504   1.0103204249e+02   7.3230428648e+00    0.7169349    0.4035963 -49.13  0.002544641    1.934    0.483
        15 -10.4258    193.9793    165.1967   1.0016300513e+02   8.9641930716e+00    0.2955627    0.2699077  -4.13 0.0008010215    1.130    0.115
        16 -11.0395    208.6763    197.1436   1.0370310197e+02  -6.9899273925e-02    0.2342001    0.1876921  45.41 0.0005558904    1.294    0.227
        17 -11.2306    121.4633    164.8070   1.1715757923e+02   2.4252444787e+01    0.4032572    0.2298138  56.62  0.001171696    1.991    0.498
        18  -9.2057     25.7379    165.4303   1.4100936229e+02   3.7990209209e+01    0.1358703    0.1235105   1.80 0.0007989504    1.529    0.346
        19  -9.9176    223.4876    163.5198   9.3791008063e+01   3.2101853481e+00    0.2510667    0.1309792 -49.60 0.0009040791    2.163    0.538
        20 -11.5793    154.8228    196.8499   1.1527097908e+02   1.0526849824e+01    0.3156639    0.2448929  62.46  0.001590269    1.384    0.277
        21 -10.5485    163.0513    210.5318   1.1587870603e+02   6.1843648645e+00    0.2135594    0.1938746 -46.54 0.0006397377    1.229    0.187
        22 -12.8877    134.0257    145.6308   1.0991332857e+02   2.6219089650e+01     1.390847    0.3553727 -54.88  0.003146713    5.891    0.830
        23 -10.6985    174.6708    148.7032   1.0073859159e+02   1.6626895942e+01    0.3738143    0.2447208 -66.76  0.001484712    2.111    0.526
        24 -11.3629    167.6664    189.8319   1.1106147286e+02   9.4059074503e+00    0.4138297    0.2940345 -22.99  0.001902799    1.824    0.452
        25 -12.0002    145.6006    146.5760   1.0719965574e+02   2.3536223010e+01    0.5194396    0.3539985  60.72  0.001458431    1.671    0.401
        26 -11.9511     11.8215    205.1147   1.4739084364e+02   3.0503853442e+01    0.3283553    0.2128724 -75.25  0.001970876    1.339    0.253
        27 -12.7171    112.3626    139.7446   1.1430587232e+02   3.1950909240e+01    0.6908835    0.5331162   0.79  0.003150627    1.829    0.453
        28 -11.2980    142.7934    139.5658   1.0628282805e+02   2.5745757185e+01    0.3012441    0.2289876 -45.68  0.000989359    1.338    0.253
        29 -12.0940    102.8278    138.8290   1.1670169093e+02   3.3939832856e+01    0.2914123    0.2853993 -32.51 0.0004631196    1.091    0.083
        30  -9.9576    198.8844    222.6680   1.1046754091e+02  -2.6710046860e+00    0.1957629    0.1513555  35.72 0.0004883342    1.154    0.133
        31 -12.1411    106.5284    130.9634   1.1392862458e+02   3.5132929032e+01    0.5190503    0.3974313  63.39  0.001854156    1.486    0.327
        32 -11.0803    106.9708    125.6063   1.1255650372e+02   3.6309508745e+01    0.3290713    0.2626235 -24.58 0.0005874289    1.469    0.319
        33 -11.8307    118.8226    129.6666   1.1023860196e+02   3.3060859918e+01    0.3985519     0.381854 -41.32 0.0009861073    1.063    0.059
        34 -12.1975    135.4600    122.6214   1.0405312569e+02   3.1188970826e+01    0.7151575    0.2589237 -51.26  0.002205675    3.056    0.673
        35 -11.2202    142.9202    127.7793   1.0340930871e+02   2.8388635673e+01    0.3546509     0.275778  77.24  0.000570043    1.592    0.372
        36 -11.0257    160.4522    127.2886   9.8944117473e+01   2.4516500781e+01    0.3934722    0.2642912 -63.09  0.001288029    1.828    0.453
        37 -12.1501    123.8942    126.0466   1.0798825608e+02   3.2867341833e+01    0.6758431    0.4187258  81.39  0.002210875    3.465    0.711
        38 -11.9303     92.2046    123.2664   1.1622934791e+02   3.9497237831e+01    0.3885182     0.301094 -60.18  0.001723949    1.272    0.214
        39 -11.0185    112.8699    118.6001   1.0919013500e+02   3.6797048174e+01    0.3390922    0.2703358 -86.01  0.000375447    1.573    0.364
        40 -11.0966    168.7439    113.5238   9.3506448754e+01   2.5491351801e+01    0.6000441    0.3802055  82.80   0.00209514    2.842    0.648
        41 -12.8721     86.5702    108.6249   1.1440212905e+02   4.3820347581e+01    0.5811331    0.4748982  19.85  0.003085077    1.349    0.259
        42 -10.4565    205.4899    110.1743   8.4975290007e+01   1.7381506391e+01    0.3311459    0.2215144  45.73 0.0009776979    1.565    0.361
        43 -10.3605    117.3173    109.3222   1.0555417796e+02   3.7992410220e+01    0.1574407    0.1225924  -5.19 0.0003986719    1.666    0.400
        44 -11.1416    134.6774    105.6995   9.9839911587e+01   3.5068066144e+01     0.446459    0.1453277 -42.39  0.001353181    3.155    0.683
        45 -10.1714     69.8240     99.3673   1.1732133445e+02   4.8443114821e+01    0.1835217    0.1309662  15.05 0.0004348232    1.648    0.393
        46 -10.5320    109.4398     75.0944   9.8039800287e+01   4.6596118318e+01    0.3349886    0.1916299  48.20  0.001464049    1.784    0.439
        47  99.0000     14.4788    248.8322   1.4963301854e+02   2.1494339539e+01    0.3652123    0.1232286  51.70  0.002008742    2.219    0.549
        48 -12.6368    153.3037    185.3657   1.1347279006e+02   1.3253464781e+01    0.6877572    0.3778873 -72.90  0.002221751    3.827    0.739
        49  -9.7970     13.5084     59.8784   1.2719301995e+02   6.2299336787e+01    0.1675291   0.09313307 -54.41  0.000433894    1.479    0.324
        50 -10.7346    163.4647    204.0962   1.1465307530e+02   7.3639544471e+00    0.2707908    0.2482153 -71.34 0.0005544635    1.234    0.190
        51  -9.2005    123.2928     25.6877   7.8172939246e+01   5.0911929860e+01    0.1264347    0.1038856 -77.61  0.000315549    1.592    0.372
        52 -10.8031    158.5830    204.5957   1.1581929185e+02   8.2139966614e+00    0.3689387    0.2186256  59.34  0.001571812    2.058    0.514
