#   1 NUMBER                 Running object number                                     
#   2 MAG_AUTO               Kron-like elliptical aperture magnitude                    [mag]
#   3 X_IMAGE                Object position along x                                    [pixel]
#   4 Y_IMAGE                Object position along y                                    [pixel]
#   5 X_WORLD                Barycenter position along world x axis                     [deg]
#   6 Y_WORLD                Barycenter position along world y axis                     [deg]
#   7 A_WORLD                Profile RMS along major axis (world units)                 [deg]
#   8 B_WORLD                Profile RMS along minor axis (world units)                 [deg]
#   9 THETA_WORLD            Position angle (CCW/world-x)                               [deg]
#  10 FWHM_WORLD             FWHM assuming a gaussian core                              [deg]
#  11 ELONGATION             A_IMAGE/B_IMAGE                                           
#  12 ELLIPTICITY            1 - B_IMAGE/A_IMAGE                                       
         1 -14.3802    195.6172     14.8627   6.9816867768e+01   3.3675512364e+01     2.848031     1.597088  25.16   0.01181222    2.498    0.600
         2  -9.4168    162.3232    249.3204   1.2655459069e+02   7.0772162569e+00    0.1041663   0.06645213  17.89 0.0003340727    1.675    0.403
         3 -11.0012    248.8501    249.3298   1.1290867228e+02  -4.0324074078e+00    0.2649243    0.1398374  36.99  0.001905792    1.656    0.396
         4 -10.2608    174.6685    249.5151   1.2452305199e+02   5.4091333487e+00    0.2307233    0.1534257  69.01  0.001333835    3.529    0.717
         5 -11.8155    141.0906    249.8038   1.3018607068e+02   9.8443836838e+00    0.5210583    0.1596037  34.91  0.002535771    2.647    0.622
         6 -11.4589    124.9622    249.9575   1.3295015791e+02   1.1935950948e+01    0.4341096    0.1119877  37.54  0.002033398    2.813    0.644
         7 -11.4150     95.2666    241.0010   1.3736904410e+02   1.6903404698e+01     0.248585    0.2191795 -23.54  0.001450792    1.719    0.418
         8 -11.1080     98.7832    249.5998   1.3740807619e+02   1.5295705907e+01    0.3085138    0.1199556  41.41  0.001610805    1.772    0.436
         9 -10.7052     97.0019    245.6721   1.3742089400e+02   1.6044026107e+01    0.1896237    0.1414932  89.00  0.000857706    1.652    0.395
        10 -11.0709     81.3146    248.5004   1.4032455346e+02   1.7550879866e+01    0.4263643    0.1628889  53.81  0.002454886    2.291    0.563
        11 -10.5160     88.8587    249.1962   1.3907986241e+02   1.6557926865e+01     0.238318    0.1124852  51.99 0.0008282912    1.701    0.412
        12 -10.6411     83.8398    244.8148   1.3964358339e+02   1.7763926271e+01    0.3474985    0.1589375  67.97  0.001910964    3.047    0.672
        13 -11.1110     68.6663    243.9698   1.4221462463e+02   1.9655211820e+01    0.2733064    0.2064764  44.39  0.001747881    1.163    0.140
        14  -9.9628     67.4843    250.5271   1.4279717424e+02   1.8859879628e+01    0.1899573    0.1334208 -86.41  0.001358458    1.662    0.398
        15 -10.1934     63.9886    250.5268   1.4338553057e+02   1.9249820759e+01    0.2302287    0.1185665  34.48 0.0008414797    1.670    0.401
        16 -11.2271     46.5593    248.7836   1.4621450551e+02   2.1370777777e+01    0.2943484    0.1716265  51.87  0.001017613    1.178    0.151
        17 -10.5562     29.1475    249.8343   1.4911914510e+02   2.2964423195e+01    0.3565688    0.1255163  36.43  0.002251053    2.124    0.529
        18 -12.4642     30.0952    243.7084   1.4874293328e+02   2.3769006132e+01     1.003668     0.212242  50.05  0.005199753    2.733    0.634
        19 -11.5223     35.4800    244.0321   1.4785884577e+02   2.3191470805e+01     0.342918     0.251672   5.47  0.002285128    2.583    0.613
        20 -14.8935      5.4711     15.7469   1.3201372745e+02   7.3037422049e+01     22.04783    0.7977678 -65.03   0.03420519   20.879    0.952
        21 -15.4327      8.2670    239.3959   1.5220222386e+02   2.6427558671e+01     7.349303    0.8432896 -74.65    0.0311011    6.964    0.856
        22 -12.7369     47.8393    233.0471   1.4523998522e+02   2.3579242675e+01    0.2789547    0.2378804  87.15 0.0008565079    1.372    0.271
        23 -15.1020     54.2130    223.4351   1.4356639490e+02   2.4400294685e+01     5.853806     0.994728  36.07   0.02210675    3.864    0.741
        24  -9.7383    109.3106    247.6333   1.3544318480e+02   1.4239739611e+01    0.1073564   0.06097358  57.82 0.0007037733    1.760    0.432
        25 -11.2450    229.8602    230.4630   1.1320058753e+02  -7.9210540603e-02    0.4182798    0.2717971 -51.93  0.002367207    4.177    0.761
        26 -11.1653    173.7299    221.9502   1.2137532323e+02   8.6568336815e+00    0.3707711    0.2811793  65.82  0.002279894    2.044    0.511
        27 -10.7826    193.8690    236.5040   1.1979880477e+02   4.1765450499e+00    0.2564825    0.1799446 -55.43  0.001733648    2.680    0.627
        28  -8.9688    152.5208    212.9307   1.2406022240e+02   1.2946813133e+01    0.1348577    0.1164826 -38.47  0.000366387    1.462    0.316
        29 -10.4614    152.9113    248.2898   1.2803082515e+02   8.4508416083e+00    0.1566809    0.1030055  35.64 0.0008678766    1.088    0.081
        30  -9.9739     33.2336    205.8171   1.4653482687e+02   2.9557543915e+01    0.2010021    0.1563149  72.35 0.0009928148    1.134    0.118
        31 -10.2698     34.5295    202.4734   1.4610992308e+02   3.0013687672e+01    0.1867554    0.1281146  51.69 0.0006042301    1.129    0.114
        32 -11.6024     71.0552    198.3413   1.3852001099e+02   2.6659418005e+01    0.2947223    0.2546409 -38.20  0.001629429    1.655    0.396
        33  -9.9925    191.9838    192.8255   1.1391271961e+02   9.5072457877e+00    0.3057514    0.2031477 -65.63  0.001463384    3.763    0.734
        34 -11.7197     75.9793    190.7963   1.3682757800e+02   2.7389106859e+01    0.2328402    0.2120592 -50.42 0.0006277211    1.436    0.303
        35 -11.0220     84.4817    178.2398   1.3371105051e+02   2.8586883554e+01    0.2107403    0.1915812  54.66 0.0004269909    1.122    0.109
        36 -13.2974     72.1989    175.9921   1.3619982436e+02   3.0639458043e+01    0.4134646    0.2668198 -41.57  0.001761166    2.261    0.558
        37 -12.1950     90.7709    168.7136   1.3117196182e+02   2.9527264272e+01     1.127866    0.4883361  52.81  0.005059773    2.387    0.581
        38 -12.9768     67.2446    144.1083   1.3373367973e+02   3.7791732278e+01     1.061844     0.572377  76.97  0.004838491    2.501    0.600
        39 -12.3389     57.4548    130.3349   1.3452204310e+02   4.2043853172e+01     2.067972    0.6787096 -79.92  0.005246854    7.664    0.870
        40  -9.3231    104.8012    148.0541   1.2490006587e+02   3.1484225805e+01    0.2475923    0.1733138 -25.74  0.001236174    2.143    0.533
        41 -12.1465     91.2641    151.8167   1.2877671715e+02   3.2819290116e+01    0.2510577    0.2388869  -0.83   0.00050151    1.281    0.219
        42 -10.9017     46.1612    146.8429   1.3941831753e+02   3.9710893214e+01    0.2687156    0.1577325 -86.81  0.001493593    1.677    0.404
        43 -14.2594     12.0940    206.7462   1.5056578031e+02   3.1370452480e+01      3.92833     1.358558  32.48   0.01243653    2.515    0.602
        44 -10.6577     90.4078    138.9059   1.2702006075e+02   3.5640004127e+01     0.249304    0.1884538  54.43 0.0005095302    1.254    0.202
        45  -9.1349    242.2882    138.6734   9.5308557410e+01   7.9006798383e+00    0.1130096   0.09650182 -45.78 0.0002325699    1.612    0.380
        46  -9.8636    112.1472    137.2625   1.2123308549e+02   3.2450917869e+01    0.3041098    0.2363739 -11.89  0.001420784    1.813    0.448
        47 -10.5761     99.9721    134.5786   1.2382918727e+02   3.5046104200e+01    0.2574758     0.226046 -12.63 0.0008131049    1.430    0.300
        48  -8.6055    192.0412    144.0159   1.0501252493e+02   1.6306128811e+01    0.1590763    0.1404329  12.79 0.0003628265    1.020    0.019
        49  -8.9261    117.6749    129.6751   1.1840367245e+02   3.3026286766e+01    0.1394336    0.1109919  -3.79 0.0007048753    1.690    0.408
        50 -10.1621    102.2474    152.2951   1.2618760363e+02   3.1038878172e+01    0.2902487     0.249578 -41.92 0.0009411493    1.361    0.265
        51  -9.1583    108.8147    124.1074   1.1955828141e+02   3.5756195650e+01    0.1927411    0.1748961  68.57 0.0003379973    1.096    0.087
        52 -10.8322    168.1602    113.3493   1.0295071908e+02   2.6082065550e+01    0.3605922    0.2972394 -74.57  0.001097774    1.627    0.386
        53  -9.4794    203.5532    111.2832   9.5574169487e+01   1.8927427892e+01    0.1928194    0.1290059 -16.30 0.0009411283    1.577    0.366
        54  -8.7386     78.5270     89.3595   1.2069357029e+02   4.8508689025e+01    0.1355432    0.1299222  81.06  0.000111625    1.048    0.046
        55  -9.9474    154.4912     75.0132   9.5588848281e+01   3.5876668682e+01    0.2366145    0.1488161 -34.48  0.001032902    1.590    0.371
