#   1 NUMBER                 Running object number                                     
#   2 MAG_AUTO               Kron-like elliptical aperture magnitude                    [mag]
#   3 X_IMAGE                Object position along x                                    [pixel]
#   4 Y_IMAGE                Object position along y                                    [pixel]
#   5 X_WORLD                Barycenter position along world x axis                     [deg]
#   6 Y_WORLD                Barycenter position along world y axis                     [deg]
#   7 A_WORLD                Profile RMS along major axis (world units)                 [deg]
#   8 B_WORLD                Profile RMS along minor axis (world units)                 [deg]
#   9 THETA_WORLD            Position angle (CCW/world-x)                               [deg]
#  10 FWHM_WORLD             FWHM assuming a gaussian core                              [deg]
#  11 ELONGATION             A_IMAGE/B_IMAGE                                           
#  12 ELLIPTICITY            1 - B_IMAGE/A_IMAGE                                       
         1 -12.7852     29.6343      8.8409   2.7718276874e+01   7.4993504617e+01    0.3208501     0.289992 -32.60 0.0009953984    1.258    0.205
         2 -14.2332     24.2670     13.5539   3.4932699755e+01   7.5133578437e+01    0.7363845    0.4035213  36.48  0.003740291    1.732    0.423
         3 -15.3929     14.0560     19.6912   4.7079787556e+01   7.5340681672e+01     1.809282     1.039544 -30.50  0.007738312    1.804    0.446
         4 -13.5080    189.3508     25.8791   3.5524960901e+02   3.4690941187e+01     0.872007    0.2207108 -51.73  0.002954374    3.859    0.741
         5 -13.5907    165.7107     29.8244   3.5871324196e+02   3.9727494135e+01     0.775806    0.5106196 -77.65  0.003443414    1.498    0.332
         6 -14.6060     97.8808     12.1235   2.8722957993e+00   5.9024132209e+01     1.294301    0.7958425  71.33  0.004529396    1.478    0.323
         7 -12.7437    245.5956     15.1619   3.4918216394e+02   2.4578140976e+01    0.5268548     0.241728 -36.68  0.002935637    1.672    0.402
         8 -12.2879    142.2773     21.8835   3.5917779892e+02   4.6491792004e+01     1.032328    0.5021181 -73.82  0.004087282    2.623    0.619
         9 -13.1220    227.4303     10.1395   3.4899590619e+02   2.8472878463e+01    0.5543283    0.2236698 -56.80  0.002922456    1.987    0.497
        10 -13.3672    223.8833      5.5382   3.4816393499e+02   2.9633143506e+01    0.5370017    0.4549657  81.64  0.003445374    1.389    0.280
        11 -11.7658     46.0393     12.7240   2.0498505660e+01   7.1317247263e+01    0.2330865    0.1920464 -63.10  0.001187595    1.612    0.380
        12 -13.6591    207.1724      8.1494   3.4960352269e+02   3.2758288271e+01     1.284151    0.4341492 -83.18  0.005111474    3.646    0.726
        13 -13.3384     41.4159      3.9449   1.6999149524e+01   7.3363088825e+01    0.6199866    0.4886864  26.13  0.003090266    1.206    0.171
        14 -12.7064    244.5726      4.5971   3.4709722951e+02   2.5849212684e+01    0.5434036    0.2160503 -56.77  0.003084012    1.900    0.474
        15 -12.0436    249.7534      2.1942   3.4643031962e+02   2.5170786467e+01    0.3157134    0.1385335 -40.31  0.001930085    1.604    0.377
        16 -12.6317    239.6216     19.5702   3.5037924107e+02   2.5180190432e+01    0.4213688    0.2113069 -19.13  0.002127619    2.850    0.649
        17 -12.6661      7.6786      2.2542   4.1889819589e+01   7.9258026024e+01     0.315899    0.1923959   3.93  0.001355042    1.809    0.447
        18 -11.8006    249.6269     17.7983   3.4952367682e+02   2.3587889285e+01    0.2860541    0.1331434 -41.51  0.001732428    1.523    0.344
        19 -11.4552    239.9853    160.3190   1.8777368089e+01   6.1420148449e+00    0.1505606   0.09659948  66.03 0.0007048846    4.291    0.767
        20 -11.5979    182.0074    158.4985   2.7994208065e+01   1.4800168336e+01    0.1909947    0.1100026  14.50 0.0008106668    2.614    0.617
        21 -11.8684    111.2664    155.4674   4.3833968737e+01   2.7548527308e+01    0.4350958    0.3075446  82.12  0.001896223    2.084    0.520
        22 -12.6540    209.0117    155.4944   2.2587972761e+01   1.1122162023e+01    0.3786959    0.2507179  30.23  0.002197683    1.653    0.395
        23 -12.3322     73.2581    153.3685   5.4640044295e+01   3.4202319684e+01     0.368808    0.3101037  50.18  0.001922796    1.132    0.117
        24 -12.3163    246.2564    148.9711   1.5856106642e+01   6.9302332801e+00    0.2812608    0.2413226 -34.18  0.001932668    1.249    0.200
        25 -11.1571    103.8654    149.4873   4.4767464725e+01   3.0233936665e+01    0.3137953    0.1910902 -37.63  0.001315681    1.941    0.485
        26 -12.1160    230.5294    136.8280   1.5683315519e+01   1.0840099473e+01     0.311452    0.1804518 -28.49  0.001759223    1.517    0.341
        27 -12.9696    246.9465    135.8467   1.3325359664e+01   8.6781526575e+00    0.3569447    0.3257093  88.57  0.002567537    1.613    0.380
        28 -12.2253    133.3022    131.0306   3.2890513867e+01   2.9027921473e+01    0.3523696    0.2944068 -63.53    0.0014223    1.298    0.230
        29 -12.1468    223.0030    127.4543   1.4872897283e+01   1.3398410135e+01    0.2563343    0.1499349 -46.96   0.00139193    1.653    0.395
        30 -12.3515    110.4762     99.9087   3.1290636380e+01   4.0717134526e+01    0.3547551    0.3132478 -32.92  0.001432136    1.218    0.179
        31 -13.9654    104.1791    121.6128   3.8734159628e+01   3.6909408584e+01     1.311081     1.142536  69.23  0.006596542    1.224    0.183
        32 -13.9529    105.4649    106.3454   3.4529032619e+01   4.0288684973e+01     1.295828    0.8853581  78.93  0.005177996    2.190    0.543
        33 -10.7025    145.3300    120.6949   2.7546488088e+01   2.8833125335e+01     0.150223    0.1190392 -88.87 0.0003486405    1.656    0.396
        34 -11.0325     78.5291    118.9829   4.6432684233e+01   4.2282677225e+01    0.2459845    0.1536204 -58.81   0.00103771    1.609    0.379
        35 -11.3679      5.7776    119.5623   7.4230221590e+01   5.0660902713e+01    0.2569309    0.1403453   5.13  0.001154908    2.169    0.539
        36 -13.7804    247.4851    112.9555   8.8616145711e+00   1.1824925781e+01    0.5973904    0.4379472  51.37  0.004085822    1.765    0.433
        37 -13.3609    247.8626    103.2708   6.9135266900e+00   1.3123018484e+01    0.8249214    0.2716222 -45.26  0.003656036    2.681    0.627
        38 -11.2826     86.7041    114.6756   4.2650297667e+01   4.1929967929e+01    0.2515343    0.1893789 -15.59  0.001091221    1.813    0.448
        39 -11.9948     80.5136    113.6482   4.4524962251e+01   4.3309654623e+01    0.6249265    0.3650328  81.86  0.001997992    3.474    0.712
        40 -13.0845     17.9939    112.5075   6.8656618468e+01   5.1769617547e+01    0.6438332    0.3681742   6.25  0.002861154    2.081    0.520
        41 -13.4560     21.5042    111.4891   6.7083721840e+01   5.1768143782e+01    0.9841981    0.4293719  85.64  0.003213269    2.906    0.656
        42 -10.8753    195.0172    113.2727   1.6076417158e+01   2.0469968202e+01     0.180251    0.1737279 -35.89 0.0009468625    1.094    0.086
        43 -13.2885    236.1589    107.9144   9.1776410480e+00   1.4262534148e+01    0.5282999    0.1904571 -44.83  0.002358236    2.444    0.591
        44 -13.8248     10.4593    103.3767   7.0782227278e+01   5.4812585057e+01    0.6404859    0.4486082  23.77  0.003321915    1.511    0.338
        45 -11.5995    136.6250    102.9126   2.5124843864e+01   3.4374678160e+01    0.4609052    0.1946564  50.56  0.001647191    2.475    0.596
        46 -11.8905     46.4550     99.4609   5.4444241540e+01   5.2390511225e+01    0.4785236    0.2977026  64.16  0.001991373    2.017    0.504
        47 -12.9940      2.2530     96.5775   7.3703359188e+01   5.7118780402e+01    0.6816909    0.2532003 -80.49  0.002618801    2.460    0.594
        48 -11.4233     60.6742     97.3602   4.8030373648e+01   5.0878021393e+01    0.3323318    0.2456835  51.47   0.00155112    1.414    0.293
        49 -14.2359     22.5007     95.0686   6.4252805028e+01   5.6198831655e+01     1.516098    0.5181488  17.61  0.005242392    3.203    0.688
        50 -13.0708    242.6320    121.6423   1.1133307609e+01   1.1300471911e+01    0.2386857    0.1804643 -42.54  0.001617598    1.191    0.160
        51 -12.4698     30.1770     90.3253   5.9821575718e+01   5.6765215064e+01    0.7177359    0.3571695  81.31  0.002461435    3.254    0.693
        52 -12.7091     20.7750     86.6943   6.3637128925e+01   5.8616433494e+01    0.5459011    0.2704295  25.87  0.002297776    2.040    0.510
        53 -12.5168    250.1151     80.6692   2.1762428063e+00   1.5861551457e+01    0.6340288    0.1461161 -33.25  0.002318667    3.811    0.738
        54 -13.3632    238.0589     80.3211   3.2665308969e+00   1.7877278177e+01    0.7560844    0.4007902 -68.08  0.003636055    2.886    0.654
        55 -12.6925    236.8321     71.7545   1.5861041916e+00   1.9259354577e+01    0.3964481     0.240991 -50.64  0.002379851    1.394    0.283
        56 -12.9725    163.5130     71.8160   1.1018385902e+01   3.4128476194e+01     1.108251    0.6695318 -63.26  0.004899111    1.954    0.488
        57 -12.8813    162.7351     78.7582   1.3059653851e+01   3.3125466972e+01    0.9711621     0.604079  20.38   0.00360029    3.419    0.708
        58 -13.6618    171.2169     76.4259   1.0969358815e+01   3.1613490387e+01    0.9169179    0.5607874  61.40  0.004392438    1.743    0.426
        59 -12.0204     55.9969     80.0160   4.5323451996e+01   5.6052563819e+01    0.8352448    0.2888951 -40.85  0.002337987    4.217    0.763
        60 -12.7564     60.9031     75.6709   4.1832728282e+01   5.6296103255e+01    0.5945492    0.3664732 -57.12  0.001375668    1.661    0.398
        61 -13.1422     54.2429     72.1606   4.3711844507e+01   5.8263774167e+01    0.4903249     0.342799  62.25   0.00193377    1.801    0.445
        62 -11.7157    114.0640     79.7716   2.4332320214e+01   4.4274063991e+01    0.4509472    0.2908997 -55.70  0.001940758    1.669    0.401
        63 -10.4819     89.6523     81.2918   3.2415140043e+01   4.9392472016e+01     0.161212    0.1227049  79.66  0.000702854    1.666    0.400
        64 -12.3965    134.4225     79.1845   1.8972062696e+01   3.9621561391e+01    0.7407778    0.3527005  59.50  0.002781668    2.310    0.567
        65 -12.2011    210.7475     77.5404   5.6605256059e+00   2.3200090772e+01    0.4002551    0.2191556 -56.85  0.001969082    1.928    0.481
        66 -14.0265      6.8130     70.6613   6.8134690346e+01   6.3835341532e+01    0.8025372    0.7380828  40.19  0.003850666    1.184    0.155
        67 -13.3461      4.7579     62.8304   6.7970891888e+01   6.5972256813e+01     0.663158    0.5281286   8.73  0.003837308    1.344    0.256
        68 -12.4658     71.8922     74.9122   3.6976451047e+01   5.4458201644e+01    0.7601734    0.3800685  23.59  0.002429557    3.415    0.707
        69 -10.6362     27.6540     76.3318   5.8043955221e+01   6.0739418686e+01    0.1541105    0.1043288  60.45 0.0007049792    1.762    0.432
        70 -12.5443    133.1493     65.6609   1.5118807760e+01   4.2410385568e+01    0.5876485    0.4514355  83.11  0.002819358    1.416    0.294
        71 -12.3779     87.4971     65.6866   2.7913753069e+01   5.3231869368e+01    0.5101634    0.3643767  23.31  0.001540284    1.821    0.451
        72 -11.9826    201.2556     68.9079   4.7794207481e+00   2.6362399514e+01    0.2908633    0.1728967  79.16  0.001259422    2.089    0.521
        73 -11.4148     39.1480     67.8974   4.9792797154e+01   6.1545390547e+01    0.2300196    0.2032438  66.00  0.001003395    1.263    0.208
        74 -11.3912     81.8548     69.7889   3.1390261752e+01   5.3587499915e+01    0.3823036    0.2321331  65.33  0.001473896    2.302    0.566
        75 -12.7481     57.0812     65.9325   4.0319873640e+01   5.9257820918e+01    0.5040993    0.2451513  39.91  0.002003133    2.026    0.506
        76 -11.0342     99.8342     64.8238   2.3556947950e+01   5.0592132263e+01    0.2182367    0.1817753 -89.02  0.001069273    1.353    0.261
        77 -12.2344     78.7741     60.7026   2.9263658510e+01   5.6160719212e+01    0.4422437    0.3611192 -57.95  0.002224655    1.309    0.236
        78 -13.4274    242.0938     57.8574   3.5820506144e+02   2.0182997905e+01    0.4818517    0.2964634 -70.54  0.002925554    1.784    0.440
        79 -12.9263    177.8370     57.1505   4.8129045951e+00   3.3157183122e+01    0.6614564     0.370555 -50.67  0.003152376    1.655    0.396
        80 -12.4092     91.3205     57.7261   2.3695197176e+01   5.3945221846e+01    0.4934486    0.4417514 -47.98  0.001946843    1.151    0.131
        81 -10.8576     24.5836     60.1737   5.5541689213e+01   6.5166244906e+01    0.2270792    0.1693228   9.72   0.00105678    1.413    0.292
        82 -13.6808    119.7716     54.8591   1.4629469286e+01   4.7573573133e+01    0.5996576    0.4076044  47.69  0.001255055    1.519    0.342
        83 -11.0349     17.4861     54.9819   5.8366644812e+01   6.7109026596e+01    0.2186432    0.1296429 -65.42  0.001045412    1.631    0.387
        84 -11.8031    109.7001     53.7110   1.6758070962e+01   5.0264755985e+01     0.265435    0.2423522  21.70  0.001415215    1.268    0.211
        85 -12.5558    103.4690     50.8936   1.7419012701e+01   5.2280682820e+01    0.5655785    0.3452213 -49.57  0.001348193    1.744    0.427
        86 -12.6396     97.4519     49.6835   1.8699040849e+01   5.3954591946e+01    0.5919803    0.3684754 -47.24  0.002174487    1.688    0.408
        87 -12.9213    227.3183     45.3960   3.5672752404e+02   2.4439839414e+01    0.5686873    0.3364443 -38.49  0.003360563    1.380    0.275
        88 -12.8483    221.1321     41.8666   3.5643835668e+02   2.6069608981e+01    0.4735472    0.2619452 -78.74  0.002321405    2.059    0.514
        89 -11.6547    135.7011     50.3571   9.6692265468e+00   4.4319363191e+01    0.3863315    0.2415086  40.67  0.001703909    1.983    0.496
        90 -12.9665    207.0134     41.4301   3.5754670498e+02   2.8965031014e+01    0.9843543     0.415013 -83.34  0.003660586    4.057    0.753
        91 -13.4897    246.6711     38.4456   3.5386192694e+02   2.1779041198e+01    0.7833192    0.3580064 -65.05  0.004175175    2.323    0.569
        92 -11.7555    133.4651     38.9876   6.3035112829e+00   4.6564794997e+01    0.4823618    0.2882241 -71.09  0.002079044    2.049    0.512
        93 -12.1224    113.6851     37.7696   9.8793172876e+00   5.1789593923e+01    0.3458346      0.30224  78.44  0.001257067    1.071    0.067
        94 -13.2269    122.1677     36.4613   7.5811627013e+00   4.9804986637e+01    0.7989063    0.3566814  50.97  0.002807249    2.259    0.557
        95 -12.2951    130.2869     33.7074   5.0609989661e+00   4.8097870181e+01    0.4952413    0.2687769  62.06  0.002223219    1.717    0.417
        96 -11.7230     40.2233     40.1210   3.8803175131e+01   6.7705496922e+01    0.4238846    0.2002358  35.31   0.00179208    2.070    0.517
        97 -11.5394     33.0668     40.1524   4.3142275908e+01   6.8777395385e+01    0.2198368    0.1779936  -9.96 0.0007296753    1.282    0.220
        98 -11.5925     75.8857     37.0356   2.0551023590e+01   6.1183678410e+01    0.3105812    0.1956911  47.21 0.0006749672    1.496    0.331
        99 -11.3162    109.5064     41.9243   1.2439280147e+01   5.2232409651e+01     0.337522     0.198151  64.14 0.0009013838    1.655    0.396
       100 -13.7456      9.4887    245.1939   7.9023741858e+01   2.0392834592e+01    0.6208936    0.2969401  51.45  0.003143113    1.565    0.361
       101 -12.3297    242.4446    244.2081   3.1867929688e+01  -4.6979450366e+00     0.228006    0.1126591  -5.08  0.001440249    2.003    0.501
       102 -13.6013      3.0329     34.1710   6.2451167915e+01   7.3086405110e+01    0.4832022    0.3720406 -57.14  0.001716038    1.201    0.168
       103 -13.5506    247.9652    238.6850   3.0266330235e+01  -4.5813593977e+00    0.5159548    0.2466486 -35.07  0.003467234    1.991    0.498
       104 -12.7944    142.5779     29.7637   1.7266029627e+00   4.5470593773e+01    0.6792073    0.4003128  84.68  0.002309971    1.757    0.431
       105 -10.5907    155.3167    239.3582   4.6525802942e+01   5.0495036692e+00    0.1240951   0.07790738  -5.40 0.0004831937    1.754    0.430
       106 -12.1433     56.2349     27.0225   2.3785672334e+01   6.7113349117e+01    0.4081228     0.275889  63.35  0.001489805    1.770    0.435
       107 -11.8232    120.4175     25.7097   3.9664414044e+00   5.1663463366e+01    0.4168395    0.2250059  81.56   0.00177197    2.023    0.506
       108 -12.5976    170.4990    240.5001   4.3687800140e+01   3.1054487152e+00     0.217785   0.09250347  19.19  0.001042561    2.398    0.583
       109 -12.4733     20.2890    223.3335   7.5823461890e+01   2.3768727501e+01    0.2345672    0.2219517  76.25  0.001692093    1.250    0.200
       110 -12.2282    238.1095    215.3344   2.8284273565e+01  -9.4373139034e-01    0.1968762    0.1159431 -20.61  0.001341244    1.365    0.267
       111 -11.3620    205.0083     20.2941   3.5263045140e+02   3.1916841531e+01    0.1803781    0.1415471 -66.70   0.00117955    1.063    0.059
       112 -11.6974     51.3090     19.8671   2.2181732458e+01   6.9228783778e+01    0.3251002    0.1885318  55.43 0.0009075018    1.777    0.437
       113 -11.0535     38.5347     33.5220   3.6663390905e+01   6.9288905298e+01    0.1361571    0.1278557   8.81 5.973304e-06    1.035    0.034
       114 -11.1071     71.8257    206.1826   6.1751600094e+01   2.1817640745e+01    0.1815296    0.1556191   0.54  0.001076309    1.337    0.252
       115 -10.6744     71.0036     16.9648   1.2460675160e+01   6.5201056747e+01    0.1671859    0.1550603  49.45 0.0005337775    1.026    0.025
       116 -11.9674    165.9141    196.9993   3.8178416730e+01   1.0482409907e+01    0.3546416    0.2525768  74.29  0.001617858    3.366    0.703
       117 -11.7437    248.1988    196.4904   2.3811482322e+01   3.6429177171e-01    0.2107017    0.1219569 -28.84  0.001419267    1.367    0.268
       118 -11.2580    175.6312     13.7643   3.5318531940e+02   3.9194328006e+01    0.1787175   0.09907488 -43.50 0.0002497786    1.568    0.362
       119 -13.3329    148.5692     29.3301   7.3004965017e-01   4.4012939505e+01    0.7108074    0.3971774  74.80  0.003334975    1.725    0.420
       120 -11.6336    206.4321    190.1800   2.9339575830e+01   6.0948990459e+00    0.2655149    0.1044467 -46.81  0.001149652    3.123    0.680
       121 -12.1881     97.0247    186.7443   5.2809590461e+01   2.2669865347e+01    0.2926133    0.1783721  78.92  0.001196912    2.745    0.636
       122 -13.7632      4.8828    183.1105   7.8086576067e+01   3.4166870249e+01    0.4380783    0.3455692  -2.18  0.002623143    1.597    0.374
       123 -13.9715     15.4590    175.6251   7.4744117109e+01   3.5151757508e+01    0.7286432    0.3788554  55.15   0.00351085    1.708    0.414
       124 -11.6958    198.4937    180.5079   2.9049639370e+01   8.6421665985e+00    0.1247101    0.1045677 -10.73 0.0008105583    1.016    0.016
       125 -13.0626    124.5205    167.0564   4.2480246101e+01   2.2699609451e+01    0.7472852    0.4635764 -65.47  0.003315676    2.087    0.521
       126 -11.7775     30.6126    167.7614   6.9688877263e+01   3.5746619384e+01    0.2661492     0.219536 -30.79  0.001397714    1.495    0.331
