#   1 NUMBER                 Running object number                                     
#   2 MAG_AUTO               Kron-like elliptical aperture magnitude                    [mag]
#   3 X_IMAGE                Object position along x                                    [pixel]
#   4 Y_IMAGE                Object position along y                                    [pixel]
#   5 X_WORLD                Barycenter position along world x axis                     [deg]
#   6 Y_WORLD                Barycenter position along world y axis                     [deg]
#   7 A_WORLD                Profile RMS along major axis (world units)                 [deg]
#   8 B_WORLD                Profile RMS along minor axis (world units)                 [deg]
#   9 THETA_WORLD            Position angle (CCW/world-x)                               [deg]
#  10 FWHM_WORLD             FWHM assuming a gaussian core                              [deg]
#  11 ELONGATION             A_IMAGE/B_IMAGE                                           
#  12 ELLIPTICITY            1 - B_IMAGE/A_IMAGE                                       
         1 -11.8649     81.6807     35.0057   7.0477414834e+01   5.9034067379e+01    0.4993944    0.2584775 -28.68  0.001207393    1.926    0.481
         2 -11.3552    129.3217     19.2918   5.1399573843e+01   5.0613985084e+01    0.3908708    0.2532475 -23.81  0.001603354    1.663    0.399
         3 -11.4768     92.4544     22.5759   6.1840065487e+01   5.8558795652e+01    0.6714026    0.4579376  72.47  0.003299685    2.218    0.549
         4 -12.1170    106.6143     19.1236   5.6525817482e+01   5.5899676958e+01    0.5980526     0.277441  36.96  0.000506526    2.222    0.550
         5 -11.5890    185.3438     20.4592   4.2717811314e+01   3.6680179295e+01    0.4117854    0.2195933 -34.27 -2.200532e-05    1.883    0.469
         6 -11.6698     11.3120      2.3919   8.6864486615e+01   7.3524685889e+01     0.630766     0.309845  31.21  0.003731543    2.328    0.570
         7  -9.9654     14.9965     14.2853   9.0660677839e+01   7.1403803815e+01    0.2144144    0.1762757 -57.01 0.0009224126    1.851    0.460
         8 -12.6235     20.5879     17.8146   8.9257600206e+01   7.0337982579e+01    0.5468907    0.3334652 -21.35  0.001775447    1.393    0.282
         9 -12.6227     23.5660      7.3735   8.2571864156e+01   7.1605522609e+01    0.4283911    0.3837126 -57.90 0.0006497536    2.069    0.517
        10 -12.1348     27.6352      3.7411   7.8482741032e+01   7.1624772016e+01    0.2855535    0.2111161  36.95 0.0005722674    1.775    0.437
        11 -11.7822     32.0120      1.8467   7.5206149893e+01   7.1310704339e+01     0.233023    0.1628173  18.15 0.0005362606    1.250    0.200
        12 -10.1394     46.8505     16.9403   7.6002142049e+01   6.7347881898e+01     0.570673    0.2999696 -18.47  0.002755293    1.987    0.497
        13 -10.2622     51.2753     15.4523   7.3356212419e+01   6.6892887982e+01    0.3746459    0.2383029 -46.60  0.002011099    2.298    0.565
        14 -10.7895     26.5219     14.1453   8.4418780327e+01   7.0308074115e+01    0.2172418    0.1704937 -25.78  0.001508625    1.223    0.182
        15 -10.6042     31.0360     12.9651   8.1533140470e+01   6.9969850810e+01     0.246633    0.1391026 -12.90 0.0007401237    1.804    0.446
        16 -12.1288     36.2496     15.1149   8.0023683257e+01   6.9028542420e+01     0.772261     0.253476  27.87  0.001031687    3.616    0.723
        17 -11.9880     39.9136     11.0864   7.6268839554e+01   6.9099448822e+01    0.3234582    0.2265113 -38.55 0.0004341007    1.697    0.411
        18 -11.2373     10.0082     15.7662   9.4101401837e+01   7.1561785648e+01    0.2845933    0.1576061 -23.03 0.0009078581    1.556    0.357
        19 -11.9056      4.3261     17.7574   9.8126994579e+01   7.1611181222e+01     0.365491    0.2935792  17.55  0.002334251    1.537    0.349
        20 -10.5245      5.2208     13.4534   9.5804928571e+01   7.2285312301e+01    0.2134847    0.1519496 -32.18 0.0005789063    1.085    0.079
        21 -11.2582    157.8492     13.9332   4.4587653760e+01   4.4167129103e+01    0.6130181    0.2950692 -43.43  0.002729733    2.256    0.557
        22 -11.0162     63.2131     14.8831   6.8263587791e+01   6.5030001130e+01    0.5840189    0.2923996  18.31  0.002554877    2.677    0.626
        23 -10.1508     81.4239      6.0627   5.7925047977e+01   6.2556904440e+01    0.2066405    0.1420447  -6.84  0.000311408    1.461    0.315
        24 -11.1775     78.9719     10.5905   6.0751457887e+01   6.2602308777e+01    0.5132921    0.2489838  35.69  0.001069906    1.923    0.480
        25 -10.6693    132.2802     11.0023   4.7877626747e+01   5.0717568763e+01    0.3284729    0.2549432   1.13 0.0008842403    1.450    0.310
        26 -10.3384    118.6341     12.7583   5.1240957936e+01   5.3796541721e+01     0.234204    0.1870874 -14.43 0.0005527477    1.347    0.258
        27 -10.3414    117.5009      9.4777   5.0241580128e+01   5.4364779378e+01    0.2316276    0.1963252 -47.79 0.0007729925    1.398    0.285
        28  -9.4684     55.3069      9.7118   6.8848617240e+01   6.6962398793e+01     0.180439    0.1340765  -4.93 0.0005757519    1.169    0.145
        29 -10.3320    176.1088     11.3380   4.1314960155e+01   3.9902927069e+01    0.2010699    0.1849256   4.57 0.0003818363    1.284    0.221
        30 -12.1247    240.5958      9.6505   3.4665057511e+01   2.5057426154e+01    0.3932259    0.1982058  81.73  0.001187528    1.952    0.488
        31  -9.5988     59.1922      9.8079   6.7354206939e+01   6.6306070554e+01    0.1705471    0.1211741  10.30 0.0007611134    1.249    0.199
        32  -8.8727    169.7096      9.2871   4.1533879363e+01   4.1678635885e+01    0.1327731    0.0930647 -67.91 0.0002507372    1.539    0.350
        33  -9.5494    107.5650      9.5114   5.2462546029e+01   5.6643091704e+01    0.1352043    0.1121152  34.21 0.0001458508    1.066    0.062
        34 -10.6526     43.7307      8.9788   7.3432906593e+01   6.8832197301e+01     0.282074    0.2194967 -24.47  0.001055037    1.338    0.252
        35 -10.3088      7.5416      8.7662   9.2312863000e+01   7.2879301789e+01    0.3379266    0.1556175  34.51     0.001484    2.973    0.664
        36 -10.5260    215.1763      6.5232   3.5996033391e+01   3.1035115037e+01     0.406632    0.1329256 -42.37  0.001733622    2.640    0.621
        37 -11.3040    145.6567      6.2766   4.4002750063e+01   4.7882321742e+01    0.3803866    0.2760381 -36.89  0.002144325    1.512    0.339
        38  -9.6844    126.8394      8.1414   4.7876816354e+01   5.2279836356e+01    0.1869402    0.1372265  36.17 0.0003871214    1.313    0.238
        39 -10.4121     67.1328      7.7933   6.3414836887e+01   6.5129204980e+01     0.212035     0.147908  19.66 0.0002559821    1.268    0.212
        40 -10.8359     92.8489      5.4038   5.4413262330e+01   6.0245394245e+01    0.4214563    0.2108829  24.81    0.0019147    2.311    0.567
        41 -10.1025     97.5507      4.5113   5.2828155227e+01   5.9306841464e+01    0.4312482    0.2037739  23.54  0.001745564    2.692    0.629
        42 -10.0895    164.8992      5.5495   4.1051937450e+01   4.3208474873e+01    0.2045804    0.1675983 -72.79 0.0005458525    1.245    0.197
        43 -10.2321    130.9154      5.6961   4.6254468000e+01   5.1513704657e+01    0.2301694    0.1871065 -35.30 0.0008290113    1.382    0.277
        44 -10.1072    179.0813      4.4271   3.9019547179e+01   3.9827816389e+01    0.2375111    0.1590991 -50.39 0.0005982209    1.528    0.346
        45  -9.5315    175.0051      5.5057   3.9791910023e+01   4.0726904778e+01    0.1932518    0.1162955  71.24 -0.0002105538    1.480    0.324
        46 -11.3647    237.4822      4.4880   3.3777478436e+01   2.6274551478e+01    0.4210283    0.2447313  38.32  0.002102919    2.904    0.656
        47 -10.8742    236.3258      1.6588   3.3248793117e+01   2.6814971502e+01    0.2909515    0.1532525  73.68  0.001606482    1.786    0.440
        48  -9.9208    223.5564      4.0218   3.4721595094e+01   2.9385466263e+01    0.1810418     0.146856 -83.52 0.0004096061    1.069    0.065
        49  -9.9936    100.3877     12.1844   5.5308773573e+01   5.7988275921e+01    0.3078622    0.1571947  -3.95  0.001337248    2.582    0.613
        50 -11.4788    245.2101      6.0261   3.3560824619e+01   2.4467769743e+01    0.4899875    0.1187643 -48.18  0.001938736    3.292    0.696
        51  -9.7239    126.5154      2.0227   4.5730021866e+01   5.2865435602e+01    0.1813217    0.1297708 -16.59 0.0007140271    1.564    0.361
        52  -9.5546    112.5411      2.4717   4.8591808379e+01   5.6106728454e+01    0.1263516    0.1166945  59.81 0.0008052337    1.133    0.118
        53 -12.2406     74.0984      6.1814   6.0273435742e+01   6.3986567363e+01    0.7744035    0.3130729 -16.27  0.001558827    2.850    0.649
        54  -9.2222    165.3187      1.3171   3.9747160460e+01   4.3472118784e+01    0.1355456   0.08755187  42.39  0.000704037    1.657    0.396
        55 -11.0184     74.4762     15.9943   6.4707529982e+01   6.2876544396e+01    0.2404123    0.2286912 -62.53 0.0007955424    1.511    0.338
        56  -9.8862    167.4639    183.5160   8.8286664520e+01   1.1548836513e+01    0.1435386    0.1330493  14.71 0.0002983939    1.011    0.011
        57 -10.6577    250.0881    246.6705   8.3497678985e+01  -1.1091285664e+01    0.2251503    0.1523391   1.25  0.001547293    1.186    0.157
        58 -10.1605     72.7096    249.8914   1.1708515218e+02   1.3879508853e+01    0.1813413    0.1662608 -35.86   0.00135257    1.616    0.381
        59 -11.0179      4.8514    235.8824   1.2817499009e+02   2.4042127618e+01    0.2795781    0.2241778  52.32  0.001952587    1.342    0.255
        60 -12.0869     28.9544    248.2555   1.2471000182e+02   1.9360221231e+01    0.6946456    0.2871239  68.21  0.003820141    2.277    0.561
        61 -12.1895     19.7111    238.0447   1.2575197915e+02   2.2198272240e+01    0.5470105    0.2683127  44.55  0.003486137    1.698    0.411
        62 -13.2569      5.9695    244.6851   1.2836245290e+02   2.2321694024e+01     0.889625    0.5760441  42.40  0.005105803    1.525    0.344
        63 -12.1922     22.0004    248.8154   1.2590885691e+02   1.9991480754e+01     0.386565    0.2291088  45.61  0.001573785    1.447    0.309
        64 -11.1759     17.2782    247.4140   1.2662605319e+02   2.0725409488e+01    0.2052282    0.1538495  64.07 0.0006475134    1.106    0.096
        65  -9.7089     58.5262    182.4750   1.1352730943e+02   2.9491381910e+01    0.1299319    0.1128238  84.71 0.0003976746    1.021    0.021
        66  -9.4759      1.7896    180.5784   1.2589551656e+02   3.5580986503e+01    0.1485903   0.08879973  50.52 0.0006476381    1.582    0.368
        67  -9.9328    244.2743    178.5597   7.2093490787e+01  -1.1100552813e+00    0.2362074    0.1374421 -16.30  0.001154329    1.828    0.453
        68  -9.5604    223.9827    178.2413   7.5684162965e+01   2.2929396999e+00    0.1862742    0.1450081 -49.12 0.0006859299    1.600    0.375
        69  -9.2697     69.9925    177.8203   1.1025172165e+02   2.9090908496e+01    0.1960713    0.1514528 -16.69 0.0007860907    1.956    0.489
        70 -10.4890     46.5064    177.7247   1.1579278667e+02   3.2011973106e+01    0.2534589    0.2158913  79.73  0.001450993    1.038    0.036
        71  -9.8711    200.7675    176.2358   7.9787498053e+01   6.7562063853e+00    0.2016173    0.1562994   0.52 0.0007093381    1.342    0.255
        72 -11.1027     18.0123    173.1236   1.2187005520e+02   3.5921795588e+01    0.3659895    0.1967431  67.21  0.001996838    1.803    0.445
        73  -9.2024     74.5269    171.4560   1.0828429606e+02   2.9966217718e+01    0.1349587     0.124136 -86.50 8.927999e-05    1.052    0.050
        74 -11.9925     50.6035    162.3986   1.1302314201e+02   3.5164200774e+01    0.6688549     0.496855  58.73   0.00275211    1.337    0.252
        75 -11.0415     36.8571    157.8528   1.1591772651e+02   3.7737391623e+01    0.2699609    0.1886473  79.73 0.0003575426    1.372    0.271
        76 -12.0383     35.7604    164.4871   1.1692338814e+02   3.6266475012e+01    0.6423568    0.3582831  87.26  0.003250237    1.823    0.451
        77 -11.7935     40.7654    163.9898   1.1565004923e+02   3.5868051947e+01    0.5203204    0.3774488 -88.95   0.00174356    1.228    0.186
        78  -9.5428      4.6875    168.6856   1.2449112941e+02   3.8013660980e+01    0.1135362   0.07605144 -55.15 0.0003390443    1.637    0.389
        79  -9.5926     99.2439    164.9752   1.0107301246e+02   2.7785522691e+01    0.1955548    0.1800862 -75.03  0.000337619    1.052    0.050
        80  -9.6393     67.2079    165.1825   1.0922238995e+02   3.2448098356e+01    0.1962691    0.1464432  71.18 0.0008629872    1.363    0.266
        81  -9.8091     10.3939    162.8537   1.2276600647e+02   3.8910136582e+01     0.196027    0.1374601  55.97 0.0006081139    1.405    0.288
        82  -8.9725    200.3264    162.6683   7.7011079142e+01   9.3169449878e+00    0.1399824    0.1188972 -81.64 0.0007051174    1.710    0.415
        83 -12.2413     21.5246    157.3023   1.1964153260e+02   3.9296855693e+01    0.5136206    0.4446355 -35.06  0.003467575    1.490    0.329
        84  -9.2739    116.1856    158.7732   9.5631943932e+01   2.6361476901e+01    0.2571069    0.1597963  77.24 0.0009544975    2.820    0.645
        85 -10.3236     11.3989    153.3588   1.2172768180e+02   4.1042750323e+01    0.2833154    0.1880862   8.17  0.001680267    2.197    0.545
        86 -10.2099    177.8520    151.3153   7.9244884033e+01   1.5971489472e+01    0.3002346    0.2685399  81.34  0.001120657    1.391    0.281
        87  -8.8664     39.6770    150.2996   1.1428975853e+02   3.9275342461e+01    0.1352421   0.08817247  70.15 0.0005646232    1.628    0.386
        88 -10.7883     18.9958    146.4234   1.1917749484e+02   4.2093952792e+01    0.2629513    0.1884364 -50.97  0.001386279    1.470    0.320
        89 -10.9855     22.6573    144.1656   1.1799348786e+02   4.2336082769e+01    0.2341361    0.1877446  87.43  0.000350513    1.107    0.097
        90 -10.3650    207.1625    146.2066   7.1980859204e+01   1.1043752851e+01    0.2243194    0.1927203   0.82 0.0008098542    1.165    0.142
        91  -9.6906     41.6177    146.4133   1.1327617010e+02   4.0022879094e+01    0.2163723    0.1204565  36.39 0.0006047536    1.932    0.482
        92 -10.8484     11.8839    146.0326   1.2093589425e+02   4.2733994991e+01     0.305975    0.1905697  62.21  0.001456193    1.636    0.389
        93  -9.6258    220.4680    143.9821   6.8949615831e+01   8.8439143213e+00    0.2196161    0.1311707 -36.52 0.0006482212    1.538    0.350
        94 -10.3992      2.8419    143.8967   1.2299378194e+02   4.3862233302e+01    0.1872656    0.1331017 -63.86 0.0009380944    1.274    0.215
        95  -9.6244     49.2141    141.8456   1.1058042478e+02   4.0328968500e+01    0.1829348    0.1427323 -47.00 0.0004018675    1.343    0.255
        96 -10.2160     14.5426    140.2652   1.1968366791e+02   4.3910564006e+01    0.2706846    0.1188979  11.80  0.001205634    3.575    0.720
        97 -10.7854      9.1875    137.5720   1.2080207609e+02   4.4934050264e+01    0.3351598    0.1045004 -66.75 0.0009846472    2.336    0.572
        98 -10.7520      2.8424    136.4013   1.2232995320e+02   4.5624162950e+01    0.2537653    0.1333364 -69.99  0.001423586    1.468    0.319
        99 -10.4280     21.3916    135.5858   1.1734793600e+02   4.4510155099e+01    0.2654163    0.1809414  79.71 0.0009933522    1.457    0.313
       100  -9.9456     13.9414    136.0197   1.1939346123e+02   4.4970999693e+01     0.183884     0.147131 -82.85   0.00120384    1.036    0.034
       101  -9.6410    122.5456    135.4697   8.9046245327e+01   3.0642939405e+01    0.1526081    0.1488242 -47.99 9.809678e-05    1.004    0.004
       102  -9.8351    249.7832    134.1868   6.1766012289e+01   5.0659727777e+00    0.1845009    0.1464716  -6.19 0.0005776313    1.295    0.228
       103 -10.1885     55.7615    133.3242   1.0739234515e+02   4.1684504067e+01    0.2447809    0.2008342  82.03 0.0007539006    1.261    0.207
       104 -10.4861    107.3643    133.1665   9.2646907392e+01   3.4009797067e+01    0.2547003    0.2139234  21.51  0.001215356    1.331    0.249
       105 -11.4953     73.3110    129.1939   1.0153880605e+02   4.0440444327e+01    0.5153653    0.3006094  55.93   0.00224293    2.146    0.534
       106 -11.5369     37.6273    129.3367   1.1197729810e+02   4.4613787355e+01    0.4984081    0.2223101 -58.34  0.002287818    1.846    0.458
       107 -11.4756     13.6478    126.1246   1.1836256492e+02   4.7368859918e+01    0.3787657    0.2311983  24.53 0.0008870054    2.007    0.502
       108 -11.4999     10.7867    122.9957   1.1879958861e+02   4.8312016434e+01    0.2510436    0.2214183  74.93 0.0009049721    1.217    0.178
       109 -10.7408      1.9730    124.6220   1.2142404357e+02   4.8460781406e+01    0.3912821    0.1310083 -69.22  0.001791115    2.155    0.536
       110  -9.9154    225.9875    124.0000   6.3351737714e+01   1.1301958348e+01    0.2194633   0.08342803  49.53 0.0007976713    2.910    0.656
       111 -11.1029     21.7141    121.1471   1.1542513458e+02   4.7987982879e+01    0.2277198    0.1925086 -41.06            0    1.297    0.229
       112  -9.6917     26.1912    120.1276   1.1396349291e+02   4.7884049343e+01    0.1978762    0.1489296 -54.06 0.0005840143    1.212    0.175
       113  -9.8357     66.9856    120.5912   1.0170077013e+02   4.3427707932e+01    0.3790908    0.1473171  42.52  0.001423085    2.860    0.650
       114  -9.4876     32.2972    121.6532   1.1237766852e+02   4.6993302751e+01    0.1492809    0.1247505  -4.57  0.000231338    1.506    0.336
       115 -11.5022     17.4572    115.0385   1.1584826361e+02   4.9778129398e+01    0.3441754    0.2307138 -46.13  0.001279604    1.457    0.314
       116 -10.0550     86.0022    116.6570   9.5059844841e+01   4.1614979431e+01     0.195748    0.1940878  -0.80 0.0004854694    1.080    0.074
       117 -10.1895     71.9904    118.0306   9.9636528542e+01   4.3374069985e+01    0.3823452    0.1754002 -62.46  0.001498993    2.186    0.543
       118  -9.8206    220.1140    116.3502   6.2548613541e+01   1.3854268304e+01    0.2244853    0.1799289  22.42  0.001162573    1.428    0.300
       119  -9.9766    214.0120    115.5384   6.3427055629e+01   1.5282129071e+01    0.2102006    0.1463615  46.29 0.0006882968    1.547    0.354
       120 -10.4753     41.1529    112.8932   1.0821553259e+02   4.8313109115e+01     0.485417    0.1907634 -37.70  0.001716412    3.626    0.724
       121 -11.3603     36.3948    109.4190   1.0909610779e+02   4.9615122414e+01     0.423503    0.2695694  75.34  0.001639161    2.090    0.521
       122 -10.1275     35.2172    114.2549   1.1030577886e+02   4.8542729387e+01    0.1809364    0.1424493  87.95  0.001053907    1.327    0.246
       123 -10.7458    249.1224    112.3238   5.6981277169e+01   8.7670209873e+00    0.2675979    0.1748302 -40.44 0.0006879544    1.332    0.249
       124  -9.6882     94.7029    112.3397   9.1393369429e+01   4.1213743137e+01    0.1516114    0.1191598  87.57 0.0005312951    1.660    0.398
       125 -12.2240     55.1239    110.4075   1.0330502941e+02   4.7413102651e+01    0.3210229    0.2698245 -43.08 0.0003920613    1.143    0.125
       126 -12.6671     14.8395    108.9660   1.1579484405e+02   5.1416943753e+01    0.6254001    0.3593898 -40.95   0.00341494    1.793    0.442
       127  -9.9130     70.5546    108.1625   9.7881506088e+01   4.5976262054e+01    0.3097452    0.2048599 -68.59  0.001101015    1.628    0.386
       128 -11.5502     25.1628    107.8220   1.1239246144e+02   5.0954970468e+01    0.3757762    0.2614562  86.61  0.002114763    1.571    0.364
       129 -11.6782      2.7819    106.2633   1.1912958222e+02   5.2765461189e+01     0.345235     0.263832 -60.75  0.001198169    1.111    0.100
       130 -10.5842    243.9286    104.6939   5.5997451226e+01   1.1016739028e+01    0.2123322    0.1799615 -13.86 0.0006522265    1.235    0.191
       131 -10.4851    247.1804    102.3695   5.4995881017e+01   1.0759182028e+01    0.1885973    0.1799999 -52.95 0.0009387942    1.130    0.115
       132 -10.1968     50.8917    104.5909   1.0345842029e+02   4.9312754718e+01    0.2667997    0.1514873 -53.71  0.001286659    1.494    0.330
       133  -9.2980    179.4886    116.4909   7.0449484816e+01   2.2676569365e+01    0.1554968    0.1486955 -23.61  0.000810515    1.003    0.003
       134 -10.7509     36.3451    102.5351   1.0783774226e+02   5.1288793969e+01     0.324927    0.2584181   5.46  0.001926301    1.520    0.342
       135 -11.5912    156.5558     83.0489   6.6312342982e+01   3.4526386369e+01    0.8149292    0.5179706  25.53  0.003248333    2.173    0.540
       136 -12.5876    162.7250     92.0862   6.7532009375e+01   3.1349812447e+01    0.9412108     0.556321 -28.60  0.002239856    1.881    0.468
       137 -13.0223    164.9717     85.5765   6.5169942274e+01   3.2050907495e+01     1.187717    0.9837462   7.02  0.005530749    1.426    0.299
       138 -11.2717     62.0361     99.2034   9.8548041666e+01   4.9267283103e+01    0.6244108    0.3656485 -33.06  0.002817108    1.946    0.486
       139 -10.2137     66.4703     98.0214   9.6779849442e+01   4.8961639209e+01    0.3389425    0.1159871 -50.63  0.001030062    2.492    0.599
       140 -11.9992      5.0619     82.2537   1.1490127471e+02   5.8261288816e+01     1.069862    0.3310891 -62.34  0.004801618    2.207    0.547
       141 -10.5629      2.2266     72.5590   1.1423896269e+02   6.0595659423e+01     0.431295    0.2027525 -63.68  0.002321825    1.593    0.372
       142 -11.4805     10.7844     62.6818   1.0883616496e+02   6.2360586730e+01     0.627024    0.2558624 -27.38  0.002595692    2.920    0.658
       143 -11.8738      3.8388     64.9766   1.1214457222e+02   6.2210209590e+01    0.4327502     0.358129 -83.58  0.001517108    1.364    0.267
       144 -11.8165      5.0861     58.8126   1.1030445450e+02   6.3495822070e+01    0.2395796    0.2234903 -53.25 0.0003078991    1.236    0.191
       145 -12.1084     13.1676     76.7575   1.1093121612e+02   5.9084400140e+01    0.5962544    0.2127824 -57.72  0.002035854    1.990    0.497
       146 -11.2039      8.4487     73.9545   1.1215301212e+02   5.9981868542e+01    0.3036387    0.2366485 -22.15  0.001068589    1.380    0.275
       147 -12.1245     23.1470     67.9761   1.0510629133e+02   6.0396766414e+01    0.7336681    0.4267354  78.45 0.0008250907    3.984    0.749
       148 -12.7815     16.4310     67.8130   1.0774488439e+02   6.0894795986e+01    0.3814225    0.2397225 -53.24 0.0003201932    1.232    0.188
       149 -11.6113      3.1574     99.8828   1.1819048732e+02   5.4250740091e+01    0.2648884    0.2111855 -82.76 0.0002496619    1.165    0.142
       150 -11.3008      1.4823     96.0148   1.1820276772e+02   5.5239529404e+01    0.3045144     0.138742 -73.51 3.560062e-05    1.764    0.433
       151 -11.2782    144.1307     98.5402   7.3807523865e+01   3.4354023455e+01    0.5143445    0.3949272  80.94  0.002014129    1.788    0.441
       152  -9.8443     50.8928     99.1976   1.0228592531e+02   5.0611154283e+01    0.1905161    0.1720042 -75.12 0.0003239921    1.161    0.139
       153 -11.3314     15.6559     98.3488   1.1392985739e+02   5.3900215886e+01    0.2682263    0.1874711  71.70   0.00144385    1.722    0.419
       154 -10.3918     40.9526     97.2334   1.0522649269e+02   5.2125839879e+01    0.2437527     0.167421 -48.13 0.0006446625    1.259    0.205
       155 -10.0027     91.5850    100.2538   8.9222312662e+01   4.4580175147e+01    0.2201134    0.1310807 -40.15 0.0007339887    1.647    0.393
       156 -10.1487     28.0163     95.9621   1.0937547604e+02   5.3578945786e+01     0.190679    0.1531874 -54.90  0.001177409    1.037    0.036
       157 -11.1468     20.5285     94.3712   1.1162780961e+02   5.4517373254e+01     0.499293    0.1010943 -58.75  0.001820831    3.027    0.670
       158  -9.5653    249.8602     95.6297   5.3085365877e+01   1.1318275129e+01    0.1699263    0.1296372  78.94 0.0006013067    1.666    0.400
       159  -9.5450     36.2715     94.9680   1.0635488363e+02   5.3109150061e+01     0.177211    0.1010121 -61.90 0.0004430142    1.490    0.329
       160  -8.8987    112.7144     94.6791   8.1241173253e+01   4.1901988664e+01    0.1560032    0.1194269 -10.07  0.000188887    1.595    0.373
       161 -11.0426     96.7557     89.6014   8.4597353644e+01   4.6067421013e+01    0.4284355    0.2652709 -21.25  0.001728045    2.225    0.551
       162 -10.0007     31.3003     92.9482   1.0765817885e+02   5.4025296293e+01    0.1926544    0.1540178 -72.95 0.0004949463    1.218    0.179
       163 -11.5237     10.8665     90.8520   1.1431341519e+02   5.5959469632e+01    0.3322333    0.2761459  33.81 0.0009751137    1.496    0.332
       164  -9.4217     46.9382     92.4772   1.0211296477e+02   5.2642121727e+01    0.1766281    0.1064094  54.77 0.0006112792    2.355    0.575
       165 -10.4620     25.7388     90.8285   1.0917166835e+02   5.4973445880e+01    0.2787422    0.2303769 -47.09  0.001202662    1.093    0.085
       166 -11.2144     22.6052     86.9663   1.0951675353e+02   5.6112512422e+01    0.3091325     0.203641 -45.29 0.0003674435    1.310    0.237
       167 -10.5115    120.2502    100.3890   8.0712035852e+01   3.9124928643e+01    0.5920371    0.3141636 -24.42   0.00193164    3.170    0.685
       168 -10.5014    108.9919     91.4689   8.1400893052e+01   4.3337691958e+01    0.2250289    0.1517225  40.03 0.0005493309    1.538    0.350
       169  -9.7335     83.1314     88.8140   8.8762333913e+01   4.8597188195e+01    0.2030003    0.1614939 -22.91 0.0005267276    1.304    0.233
       170  -9.6732     58.2790     89.5879   9.7447523555e+01   5.2003665518e+01    0.2890969    0.1352506  31.12  0.001241128    2.366    0.577
       171  -9.5002    139.0102     87.7061   7.1948001942e+01   3.7713415163e+01    0.2143089    0.2000916  39.88 0.0006534361    1.085    0.078
       172  -9.3486    120.9495     87.0311   7.6600415191e+01   4.1826267829e+01    0.1854287    0.1755513 -24.70 0.0005043359    1.019    0.019
       173  -9.7995     64.5128     87.4687   9.4714391614e+01   5.1681448797e+01     0.218307    0.1833036   0.24 0.0007513627    1.299    0.230
       174 -10.4694     67.3077     84.5823   9.2943661568e+01   5.1951532347e+01    0.3163431    0.1980991 -26.33  0.001451892    1.859    0.462
       175  -9.5504    110.9722     85.4798   7.9012569137e+01   4.4216322905e+01    0.2141203    0.1361287  67.09 0.0008102705    2.590    0.614
       176 -10.8559    132.8998     83.2045   7.2172121679e+01   3.9985134126e+01    0.2609301    0.2451109 -88.89 0.0005449658    1.202    0.168
       177  -9.9606     88.2961     83.6267   8.5534053159e+01   4.8872590519e+01     0.267265    0.2192454 -87.23 0.0009826268    1.699    0.411
       178 -10.0673     86.4998     80.5083   8.5177015575e+01   4.9852869640e+01    0.2578411    0.1824753 -40.14   0.00111996    1.315    0.240
       179 -11.2843     43.1491     82.7742   1.0113749411e+02   5.5298077000e+01    0.4447177    0.2356025  42.03  0.001248482    2.350    0.575
       180 -11.2145     57.5241     96.5849   9.9439896395e+01   5.0455746541e+01     0.261584    0.2454855 -65.25 0.0004696879    1.119    0.107
       181  -9.9563    117.5816     83.2210   7.6389926550e+01   4.3318995290e+01    0.2268195    0.1423138 -30.18  0.000955271    1.711    0.416
       182 -10.7586     75.0086     82.7505   8.9743350104e+01   5.1230342046e+01     0.268235    0.1880466 -62.19  0.001298133    1.635    0.388
       183 -10.9118     51.1892     62.9135   9.2442103137e+01   5.8756451492e+01    0.3207241    0.2361755 -27.74 0.0009970173    1.240    0.194
       184 -11.7482     50.5218     68.4747   9.4429150670e+01   5.7664543008e+01    0.3537006    0.2549031 -17.98 0.0004986734    1.449    0.310
       185 -12.2841     62.4391     71.6976   9.0903309309e+01   5.5453774273e+01     0.934476    0.2946081 -49.99  0.003335962    2.851    0.649
       186 -11.3052     57.9857     74.2600   9.3328932623e+01   5.5493084479e+01    0.5818182    0.4106465 -87.86  0.002683785    2.513    0.602
       187 -10.9675     54.1167     73.7275   9.4617121633e+01   5.6095329441e+01    0.2988284    0.2385556 -54.78 0.0006737357    1.240    0.194
       188 -10.9827     30.9852     81.6147   1.0533776268e+02   5.6700503424e+01    0.3558397    0.1976505 -34.90   0.00143052    1.812    0.448
       189 -10.9521     22.0020     76.8434   1.0762443355e+02   5.8490889162e+01    0.2981388    0.2047369  52.48 0.0009670234    1.977    0.494
       190 -10.6878     21.9589     81.1648   1.0856976333e+02   5.7504588246e+01     0.291613    0.1667655 -24.03  0.001510223    2.046    0.511
       191 -10.4652     18.6982     79.0881   1.0934297477e+02   5.8205891850e+01    0.2711857    0.1822879 -56.20 0.0005527927    1.170    0.146
       192  -9.2607    146.2978     81.6341   6.8304693287e+01   3.7212776417e+01    0.1607218    0.1224141 -71.18 0.0007032145    1.725    0.420
       193  -9.8288    112.1917     79.6261   7.6832036586e+01   4.5169842721e+01    0.1996615    0.1414585  32.46 0.0002467432    1.490    0.329
       194  -9.7457     71.1091     79.3084   9.0082927199e+01   5.2573775643e+01    0.1834987    0.1756327  -9.92 0.0003826762    1.105    0.095
       195 -10.3530     90.2862     76.0690   8.2532277401e+01   5.0123760859e+01    0.4599754    0.1862611 -46.58  0.000788205    2.395    0.583
       196 -10.2074     75.0063     76.4198   8.7837462028e+01   5.2606618118e+01    0.3408713    0.2155228 -59.21  0.001563933    1.850    0.459
       197 -12.4993     44.7769     75.2741   9.8579594232e+01   5.6824622482e+01    0.3148898    0.2623381  47.80 0.0004439848    1.509    0.337
       198 -10.8241     37.5032     67.4458   9.9238042104e+01   5.9288038365e+01    0.3432746    0.2052633 -34.07  0.001057229    1.561    0.359
       199  -9.4408    122.2072     76.3585   7.2924617271e+01   4.3689643079e+01    0.2151221    0.1443909  55.60 0.0009455865    1.670    0.401
       200 -11.3254     40.7649     68.2354   9.8170562218e+01   5.8791800400e+01    0.4357335    0.2163957 -37.84  0.001442166    1.871    0.466
       201  -9.0961    187.2793     75.7257   5.7911015655e+01   2.8437404483e+01    0.1468301    0.1134213 -69.19            0    1.497    0.332
       202 -10.3249    145.7098     73.4947   6.5952511861e+01   3.8857092089e+01    0.2927377    0.2065077 -35.94 0.0008127636    1.412    0.292
       203  -9.9513    137.6467     73.8841   6.8050294172e+01   4.0676340771e+01    0.2424564    0.1919919 -13.81  0.000653455    1.409    0.290
       204 -10.4365     84.0600     73.8876   8.3914699237e+01   5.1663055846e+01    0.3607487     0.229176  39.11  0.001332983    1.670    0.401
       205 -10.1425    102.2412     73.3572   7.7826845620e+01   4.8427013975e+01    0.2047256    0.1397994  50.36 0.0009332203    1.637    0.389
       206 -10.0016     94.1602     73.2680   8.0362160191e+01   4.9989734453e+01    0.2568384     0.157332  -6.60 0.0005390569    2.809    0.644
       207 -10.8048    150.2715     72.0569   6.4437936523e+01   3.8027756406e+01    0.2697349    0.2417707  53.29 0.0002336739    1.125    0.111
       208  -9.6398    149.4498     67.9765   6.3360722611e+01   3.8937361658e+01    0.2524546    0.1841861 -49.99  0.001176591    1.474    0.321
       209 -11.1755     78.9648     70.7934   8.4666631725e+01   5.3153206573e+01    0.5415304    0.3410234  48.03  0.002534137    1.922    0.480
       210 -10.6172     77.3314     64.3188   8.3082439371e+01   5.4724319943e+01    0.3735562    0.2624565 -40.85  0.001922493    1.334    0.250
       211 -11.8505    167.7044     69.9387   6.0022013866e+01   3.4170167483e+01    0.2532564     0.238566  63.85 0.0002929197    1.071    0.066
       212  -8.9894     68.3081     69.6662   8.8106565716e+01   5.5047245954e+01    0.1326763    0.1130688 -87.59 0.0007041552    1.671    0.402
       213  -9.3245     68.6926     66.6949   8.7001066932e+01   5.5603537770e+01    0.2182798     0.107372 -28.74 0.0003454359    2.564    0.610
       214 -10.3725    200.5911     68.0635   5.3542952606e+01   2.6506643058e+01    0.2400824    0.1962099 -87.88 0.0003650805    1.340    0.254
       215 -10.6643     31.4485     68.0222   1.0180618702e+02   5.9719120929e+01    0.2434984    0.1877854 -20.05 0.0004443003    1.297    0.229
       216 -10.8261     94.9870     65.5892   7.7525489379e+01   5.1340457077e+01    0.3894031    0.2604331   1.39   0.00170188    2.068    0.517
       217  -9.2750    163.4507     66.5216   5.9872861996e+01   3.5783004664e+01    0.1476907    0.1473305  -1.84 0.0001563292    1.008    0.008
       218 -10.0449    109.5493     63.6779   7.2359897715e+01   4.8777379876e+01    0.3798559    0.2001894 -49.94  0.000997943    2.289    0.563
       219 -10.9398    155.3571     61.0442   5.9893084160e+01   3.8661965008e+01    0.4533356    0.3198308   5.68  0.001739281    1.973    0.493
       220 -10.4051     82.9360     61.4397   8.0120448701e+01   5.4331439991e+01    0.3863983    0.2778081 -69.85   0.00142717    2.309    0.567
       221 -10.5640     85.4889     59.4709   7.8547607126e+01   5.4249730902e+01    0.4124049    0.3072273  43.67  0.002152516    1.461    0.316
       222  -9.9671    201.9142     62.1174   5.1747622830e+01   2.7118720471e+01    0.2246893    0.1877275 -73.03 0.0009595171    1.237    0.192
       223 -10.3346    121.3570     61.5420   6.8277392796e+01   4.6595537994e+01    0.2910999    0.2245879  41.04   0.00103958    1.276    0.216
       224  -9.3612    113.9760     61.9948   7.0493765527e+01   4.8136686328e+01    0.1730644    0.1623637  -0.52            0    1.009    0.009
       225 -10.1269    218.0213     61.0573   4.9138054159e+01   2.3510043443e+01    0.2063453    0.1945367 -47.03 0.0003406167    1.075    0.070
       226 -10.9364     40.3289     38.3276   8.8311978529e+01   6.4798822689e+01     0.668016    0.4461542 -17.35  0.003863882    1.417    0.294
       227 -11.4173     26.9577     50.0784   9.8467369711e+01   6.3889862364e+01    0.5454733    0.2855148 -61.73  0.002702653    2.131    0.531
       228 -10.8726     29.8465     60.8766   1.0048454425e+02   6.1401811901e+01    0.5288988    0.2358009  12.92  0.002381682    2.903    0.656
       229 -13.0327     37.0961     50.1553   9.4057484533e+01   6.2921390475e+01    0.7649179    0.6574996 -30.13  0.004767895    1.095    0.087
       230 -10.6179     63.6835     59.9077   8.6591986399e+01   5.7703822808e+01    0.2436571    0.1999758 -46.14 0.0007772979    1.256    0.204
       231 -11.3061     59.0986     58.8477   8.7993392640e+01   5.8558746314e+01    0.3926889    0.3048544  17.42  0.001991408    1.339    0.253
       232 -11.2166     46.3930     57.1080   9.2480059086e+01   6.0514762963e+01    0.3580274    0.2252005  35.06 0.0009798483    1.832    0.454
       233 -11.9030    147.1729     56.5846   6.0262550218e+01   4.1368865825e+01    0.3481753    0.2460485 -31.82  0.001663037    1.444    0.307
       234 -11.4550     75.2723     56.1462   8.0950768887e+01   5.6630927279e+01    0.2475111    0.2068458 -35.36 0.0002818345    1.168    0.144
       235 -10.0084     73.2314     51.5606   8.0012084811e+01   5.7807403956e+01     0.284905    0.2021594  13.14  0.001096696    1.520    0.342
       236 -10.0006     78.2547     50.5914   7.7827703448e+01   5.7131909358e+01    0.3034599    0.1310118  35.47 0.0009732366    2.443    0.591
       237 -10.3525     78.4951     47.0743   7.6403401027e+01   5.7697896540e+01    0.2566831    0.1734943 -37.06 0.0003750687    1.439    0.305
       238 -10.1099     98.6223     55.9111   7.2960149490e+01   5.2397030378e+01    0.2547353    0.1865796  28.48 0.0006714971    1.386    0.279
       239 -10.4481    132.0764     54.8243   6.3216691787e+01   4.5255790146e+01    0.4872678    0.1543708  47.87  0.001589194    2.991    0.666
       240 -12.3331    130.1102     49.3353   6.1828133458e+01   4.6571620403e+01    0.5013312    0.3533199 -10.48 0.0005845137    1.674    0.403
       241 -10.0910    120.0250     52.7685   6.5608502951e+01   4.8357842827e+01    0.2862408    0.1975618  19.64 0.0003939785    1.744    0.427
       242 -10.9171     86.9452     51.4016   7.5111309536e+01   5.5431115234e+01    0.3734369    0.3269369  12.01  0.001504911    1.074    0.069
       243 -10.3499      3.3244     47.3888   1.0830003440e+02   6.5994294582e+01    0.2607497    0.1492839 -21.51  0.001557693    1.759    0.432
       244 -11.0094     11.5377     44.6970   1.0379280493e+02   6.6102705407e+01     0.441201    0.2311938 -50.66  0.001645598    1.453    0.312
       245 -11.6576      7.1774     51.8400   1.0772873337e+02   6.4876309574e+01    0.3759009    0.2477781 -16.35  0.001610857    1.574    0.365
       246 -10.8096     12.2634     51.0005   1.0526043474e+02   6.4766507360e+01     0.280257    0.1815447 -60.45 0.0009555049    1.400    0.285
       247 -10.0611    104.0000     47.9615   6.8403254546e+01   5.2617880670e+01    0.3084752    0.1912842 -40.06  0.001448233    1.681    0.405
       248 -10.1164     53.5243     50.2216   8.7167849519e+01   6.0979506969e+01    0.2326106     0.176193  23.19  0.000959533    1.380    0.276
       249  -9.5784    166.8514     48.8360   5.3854309258e+01   3.7688046145e+01    0.2126142    0.1895221  32.27 0.0005311433    1.194    0.163
       250 -10.8425    155.9361     46.4774   5.5197458548e+01   4.0734633985e+01    0.4606853    0.3034151 -27.88  0.001659828    1.601    0.375
       251 -10.7424    151.7105     47.8143   5.6472746453e+01   4.1585973556e+01    0.2788412    0.2240486  29.30 0.0004714394    1.346    0.257
       252 -11.3185    112.8847     47.5654   6.5699809423e+01   5.0767691121e+01    0.4446809    0.3498241  83.69  0.001454043    1.819    0.450
       253 -10.7967    143.2477     45.9739   5.7658516928e+01   4.3923414301e+01    0.3159505    0.2703204 -71.53 0.0005999116    1.356    0.263
       254 -11.1467     91.2951     42.2297   7.0167506159e+01   5.6101111243e+01    0.8740775    0.3016498 -45.87  0.002790889    4.170    0.760
       255  -9.7747     64.9128     46.6586   8.1296898250e+01   6.0005620111e+01     0.268841    0.1186529  29.70  0.001113759    2.553    0.608
       256 -10.6954     51.1084     44.9629   8.6209454881e+01   6.2273511205e+01    0.2117322    0.1870225 -12.04 0.0003714876    1.109    0.098
       257 -11.6136     51.4543     40.4481   8.4312586547e+01   6.3035052042e+01    0.5517136    0.3297256  31.17  0.001060908    1.750    0.429
       258  -9.6808    174.7809     43.7954   5.0958294440e+01   3.6423151539e+01    0.1998894    0.1623162 -69.02 0.0007310325    1.316    0.240
       259  -9.5881     74.7514     44.3612   7.6699467900e+01   5.8803635979e+01    0.1874884    0.1187807  27.25  0.000596202    1.621    0.383
       260  -9.3893    221.3264     43.3178   4.4294998179e+01   2.5269053761e+01    0.1307105    0.1040428  28.46 0.0007045617    1.677    0.404
       261 -10.5699    121.0368     46.5337   6.3136035172e+01   4.9096089574e+01    0.4499942    0.2715808  13.78   0.00178715    2.554    0.608
       262  -8.8122     73.8295     31.2333   7.1667517255e+01   6.1013495634e+01    0.2807835    0.1795627  11.54  0.000195207    1.778    0.438
       263 -10.6273     65.0590     41.9557   7.9399877905e+01   6.0796581510e+01    0.3701681    0.2517927  40.53  0.001555426    1.628    0.386
       264 -11.3603     69.3900     37.5770   7.5966455151e+01   6.0814592232e+01    0.5273903    0.3191119 -21.13  0.001737508    1.695    0.410
       265 -12.3596    225.8813    246.0834   8.7630631088e+01  -7.8389088550e+00      0.67509    0.3724543   5.22  0.003611078    2.147    0.534
       266 -10.4131     78.4298     31.8008   7.0270382689e+01   6.0101020558e+01    0.3715362    0.1997308 -11.57  0.001571727    2.537    0.606
       267 -10.7312     23.9357     42.2325   9.7249827223e+01   6.5697972824e+01    0.4398947    0.2806717  56.57 0.0008598575    3.270    0.694
       268 -12.4889     27.6966     38.0677   9.4013281400e+01   6.6159479212e+01    0.5189453     0.308446 -26.07  0.001294479    1.528    0.346
       269 -12.6629     24.3538     35.1365   9.4512180723e+01   6.7004484511e+01    0.4179377    0.2247558  -2.62  0.000399887    2.261    0.558
       270 -10.2886      7.0668     41.4355   1.0492059507e+02   6.7016622301e+01    0.2780753    0.1033538 -47.92 0.0007721887    1.883    0.469
       271  -9.4580    244.4847     42.4879   4.1592874193e+01   2.0265007215e+01    0.1297885     0.110122 -58.98 0.0008103717    1.002    0.002
       272  -9.3526    163.1557     42.2013   5.2497629984e+01   3.9535738048e+01    0.1885035    0.1614869 -66.79 0.0004332928    1.248    0.199
       273 -10.0639     95.2422     35.0080   6.6075379688e+01   5.6373493645e+01    0.2791971    0.1947856 -31.67  0.001058501    1.458    0.314
       274 -11.9390    100.8318     28.9373   6.1999866991e+01   5.6012410093e+01    0.4747599     0.333445  10.39  0.002459743    1.563    0.360
       275 -11.6364     99.3727     38.8659   6.6337973322e+01   5.4969041805e+01    0.7366227    0.4174608  12.91  0.002834787    2.826    0.646
       276 -11.4741    105.2576     34.8197   6.3056734147e+01   5.4285814211e+01    0.3301189    0.2492639 -49.33 0.0006783238    1.633    0.388
       277 -10.7905    137.6113     41.0247   5.7230658894e+01   4.5985049811e+01    0.2624099    0.2020009  55.12 0.0008187578    1.243    0.196
       278 -11.3377     74.6386     36.4652   7.3564640233e+01   6.0090774629e+01    0.7143763    0.3890881   1.33  0.002683873    3.395    0.705
       279 -10.2785    120.2412     40.0185   6.0996880057e+01   5.0222540221e+01    0.2816172    0.1846427  84.64 0.0009513146    2.635    0.621
       280  -9.2806    154.4873     38.5458   5.2954290094e+01   4.2179732311e+01    0.1420813    0.1353444  68.95 4.198316e-05    1.028    0.027
       281 -10.0064      2.0972     37.1804   1.0605005388e+02   6.8117046313e+01    0.2196237    0.1378691 -30.84  0.001065058    1.332    0.249
       282 -11.9596     57.8320     34.2981   7.9145117760e+01   6.3163650178e+01    0.3530683    0.3417605  12.36 0.0008205172    1.373    0.271
       283 -10.9130    226.3487     33.8832   4.1449369532e+01   2.5356454315e+01    0.2330901     0.162959 -81.99 0.0003433098    1.451    0.311
       284 -10.0615    114.9448     39.6850   6.2249539467e+01   5.1473015625e+01    0.3120629    0.1966698  -9.71   0.00139406    1.957    0.489
       285 -11.3712      9.4141     33.6144   1.0130729395e+02   6.8409121490e+01    0.6054001     0.277402  28.42  0.003279251    2.611    0.617
       286 -11.0177     17.6786     31.0201   9.6241901676e+01   6.8315064359e+01    0.3622799    0.1981335  18.74  0.002105702    1.979    0.495
       287 -10.1471     22.5631     25.8781   9.1742401445e+01   6.8814498481e+01    0.3018089    0.2327867   9.18  0.001760112    1.324    0.245
       288 -11.4798    192.7778     33.0490   4.5211988557e+01   3.3380539017e+01    0.2448977    0.2280555 -74.63 0.0002751752    1.027    0.026
       289  -9.9434    247.0095     33.2952   3.9302108328e+01   2.0918791718e+01    0.1722061    0.1462165 -79.91 0.0004507643    1.116    0.104
       290  -8.9008    119.6357     33.3043   5.8691762481e+01   5.1263676273e+01    0.1404677      0.11099 -75.48 5.432872e-05    1.737    0.424
       291 -10.7335    166.2012     31.9331   4.8823372395e+01   4.0100826791e+01    0.2809127    0.2173579  79.08 0.0007374136    1.307    0.235
       292 -12.1513     48.1204     31.4866   8.2056362882e+01   6.4994665008e+01    0.3551081    0.2514291  -3.66  0.002096497    1.348    0.258
       293 -11.1651    236.0411     29.7480   3.9518956606e+01   2.3717118126e+01    0.2645796    0.2366192 -89.51  0.001299986    1.136    0.120
       294  -9.6546    151.4097     28.5180   5.0294870086e+01   4.4192845146e+01    0.1390105    0.1287119  46.41 -9.967236e-05    1.053    0.050
       295  -9.2716    125.6827     18.2810   5.1789636861e+01   5.1587369015e+01    0.1996904    0.1823514  87.98 0.0004541559    1.231    0.187
       296 -10.2645    119.0328     25.5498   5.5958306355e+01   5.2352936372e+01     0.262473    0.1988278 -22.34 0.0004168987    1.390    0.280
       297 -11.0505    124.0091     21.9667   5.3496856813e+01   5.1591598147e+01    0.2407249    0.1820341  55.28  0.001315498    1.220    0.181
       298 -10.0980    120.5065     21.0086   5.3922792819e+01   5.2519164037e+01    0.3031271    0.2342591   6.35    0.0010124    1.400    0.286
       299 -10.9491    131.8777     26.0218   5.3262488568e+01   4.9261111597e+01    0.4303721    0.2227585  43.57   0.00108829    1.865    0.464
       300 -10.5169    128.7341     23.9722   5.3200021218e+01   5.0247198561e+01     0.276477    0.2631532  81.04 0.0007960404    1.147    0.129
       301 -11.5266    235.7533    247.9879   8.6185323941e+01  -9.3965116070e+00    0.4466177    0.2421996  15.29  0.002566731    1.767    0.434
       302 -11.5606    111.6195     25.3417   5.7691072242e+01   5.4075427721e+01    0.4198519    0.3086479 -34.01  0.001106677    1.472    0.321
       303  -9.9297    209.0079     27.5280   4.1769225638e+01   3.0151470311e+01    0.1874793    0.1232223  71.64 -8.205399e-06    1.466    0.318
       304 -10.9016     70.0071     26.2061   7.0891838394e+01   6.2395065876e+01    0.3121926    0.2116327  24.38  0.001359392    1.401    0.286
       305  -9.6498    218.6776     25.9110   4.0326964257e+01   2.8087375361e+01    0.1753624    0.1523993 -61.13 0.0004250927    1.053    0.050
       306 -10.0750    214.2217     26.4122   4.0917872400e+01   2.9060846638e+01    0.1870133    0.1168415  88.07 0.0009501366    1.659    0.397
       307 -10.5600    195.9668     25.6496   4.2808643024e+01   3.3497453722e+01     0.405831    0.1995759  40.66 0.0008052838    2.826    0.646
       308  -9.5867     16.6290     26.7560   9.5128597661e+01   6.9165527331e+01    0.1452676   0.09609821 -47.79 0.0002686583    1.421    0.296
       309 -10.6635     61.9907     25.0101   7.3424517484e+01   6.3913708561e+01    0.2108927    0.1367734   0.40 0.0006331197    1.653    0.395
       310 -10.6412     10.2295     24.8924   9.7737189084e+01   6.9969374854e+01    0.2841859    0.1497702   7.62  0.001199701    2.057    0.514
       311  -9.4011      1.5046     25.5949   1.0262596757e+02   7.0365029745e+01    0.1151473   0.08377171 -34.24 7.444451e-05    1.020    0.019
       312 -12.4147     74.6333    238.8342   1.1579494340e+02   1.5631196632e+01    0.6572797    0.4781923 -75.36  0.004394497    1.451    0.311
       313 -10.2780    156.5023    241.5231   1.0005396085e+02   3.1088347789e+00    0.1252589    0.1034973  32.52 6.162143e-05    1.006    0.006
       314 -10.4442     55.0142     23.4868   7.5565232140e+01   6.5228093706e+01    0.2199477    0.1550893  -2.29  0.001288366    1.330    0.248
       315  -9.1953     50.3310    240.3069   1.2045138877e+02   1.8405763172e+01    0.0954887   0.08893087 -32.05 0.0005246696    1.662    0.398
       316  -9.5682     36.3145     22.9363   8.3679154382e+01   6.7852664803e+01    0.1672749    0.1286373 -18.31 0.0004392315    1.055    0.052
       317  -9.4551    227.2368     22.3939   3.8647957786e+01   2.6554458543e+01    0.1758899    0.1093612 -88.07 0.0005672796    1.635    0.388
       318  -9.8293    155.8208     21.9014   4.7411726100e+01   4.3846318447e+01    0.2028915    0.1753237  45.27 0.0002807433    1.143    0.125
       319 -10.1282    195.4388    238.7379   9.2098299022e+01  -2.4722628463e+00    0.2517297    0.1697469  18.85  0.001503558    1.348    0.258
       320  -9.7926    135.2287    238.1652   1.0382060588e+02   6.9611929303e+00    0.2481159   0.09119717 -45.27  0.001041994    3.432    0.709
       321 -11.6708    232.7835    244.5221   8.6153275413e+01  -8.5853532510e+00    0.5657235    0.1955416 -26.03  0.002344143    3.857    0.741
       322 -10.0071     24.0106    232.4657   1.2469770899e+02   2.2814197751e+01    0.1801568    0.1513888 -75.55 0.0006544346    1.418    0.295
       323 -10.5529     29.4833    232.9925   1.2375030532e+02   2.2139739910e+01    0.2681787    0.1280221  54.22  0.001345862    1.677    0.404
       324 -10.0670    159.8680    235.9093   9.8606238750e+01   3.4754442406e+00    0.1931907    0.1553479  15.61 0.0005283581    1.246    0.197
       325  -9.6539    168.3302     21.7030   4.5401383146e+01   4.0755141121e+01    0.1862459    0.1337471  88.52  0.000235669    1.467    0.318
       326 -11.0262    170.6870     18.6701   4.4160338686e+01   4.0496002483e+01    0.3156964    0.2189429 -80.23 0.0008838899    1.597    0.374
       327 -10.3923     66.7437     21.2477   6.9888565697e+01   6.3625503762e+01    0.2621093    0.1518642  32.46 0.0008014872    1.627    0.385
       328 -10.0601    139.3646     20.2287   4.9756346672e+01   4.8084866565e+01    0.2313437    0.1673073  47.15 0.0005066679    1.279    0.218
       329 -10.3231     99.0789     20.6463   5.9139419697e+01   5.7383271435e+01     0.243139    0.1998226  25.83 0.0003007243    1.091    0.083
       330  -9.8108    109.9264    243.0005   1.0938508223e+02   9.9457155308e+00    0.1981737    0.1229924  61.92    0.0006758    1.704    0.413
       331 -11.9072     36.8157    243.2962   1.2306849759e+02   1.9405476695e+01    0.6418246     0.280222  88.16  0.003452199    2.444    0.591
       332 -11.1563    153.7859    233.5586   9.9487289296e+01   4.8209441764e+00    0.2106747    0.1785424 -39.61 0.0007986772    1.374    0.272
       333 -10.7546     41.5463     19.2343   7.9503429667e+01   6.7754343013e+01    0.3503704    0.2517211  42.70  0.002128632    1.861    0.463
       334 -10.4381     86.6414    233.1237   1.1292740669e+02   1.5072095686e+01    0.2315141     0.134845  50.23 0.0009370036    1.453    0.312
       335  -9.3229     38.4235    232.7739   1.2211403900e+02   2.1206140909e+01    0.1356099    0.0941219 -72.96 0.0004829289    1.485    0.326
       336  -9.9977    177.3278    235.0726   9.5035373048e+01   8.5818997240e-01    0.1913164    0.1456623  -9.95 0.0008679051    1.468    0.319
       337 -10.3392     88.8727    241.2398   1.1328596723e+02   1.3262491388e+01    0.2013555    0.1483868 -35.61  0.001221979    2.091    0.522
       338 -11.1265      4.9005    226.6834   1.2775712210e+02   2.5781492532e+01    0.3960837    0.1471497  65.53  0.002116558    2.336    0.572
       339  -9.8210    190.5172    226.4606   9.1097759646e+01   9.7784033724e-02    0.2274326     0.123489 -38.85 0.0008258788    2.032    0.508
       340 -10.8357    165.1452     17.5621   4.4622395798e+01   4.1988967895e+01    0.2171705    0.1922293 -31.94 0.0002255721    1.226    0.184
       341  -9.9808     65.9999    226.2061   1.1635247099e+02   1.9174279449e+01    0.1916282    0.1566523 -89.94  0.000627903    1.178    0.151
       342 -10.8962    120.1965    226.1821   1.0534216770e+02   1.1420165913e+01    0.1858371    0.1635137  31.39 0.0005759303    1.163    0.140
       343 -10.0971     10.6571    225.6920   1.2670282699e+02   2.5440102866e+01   0.09446867   0.07814083 -57.26 0.0006209414    1.692    0.409
       344 -10.2739     26.7736    224.5944   1.2373345087e+02   2.4058340728e+01    0.1525225   0.08115212  50.16 0.0005321815    1.554    0.357
       345 -10.4522     77.5743     15.4257   6.3404202862e+01   6.2353992822e+01    0.2154025    0.1755853  16.90 3.027357e-05    1.042    0.040
       346  -9.2454    229.6648     14.7063   3.6657510837e+01   2.6887608744e+01    0.1178912   0.09264214  43.58 0.0004258712    1.642    0.391
       347 -10.9275     21.4376    222.2915   1.2457675436e+02   2.5059425956e+01    0.2011097   0.08964056 -74.94  0.001135504    2.016    0.504
       348 -10.2844    123.5853    222.2247   1.0412316766e+02   1.1626524557e+01    0.2011923    0.1608527 -33.93 0.0008858025    1.561    0.359
       349 -10.0333    142.1692    220.9098   1.0005376316e+02   8.8809240607e+00    0.2513723    0.1619843  15.87   0.00122823    2.068    0.517
       350  -9.7814     55.0252     13.0053   7.0593277893e+01   6.6616263228e+01    0.1874197    0.1504912   3.85  0.000328798    1.014    0.014
       351  -9.3046     41.6895    220.6887   1.2065289083e+02   2.3218734886e+01    0.1020306   0.08800287 -48.41 0.0007027515    1.626    0.385
       352  -9.1219    250.4779    219.4668   7.8798578250e+01  -7.8364131947e+00    0.1231993   0.09291521   1.04 0.0008091775    1.028    0.027
       353  -9.5692    173.7743    219.7736   9.3352820378e+01   3.8729386244e+00    0.2149671   0.09015619  46.07 0.0008848513    2.468    0.595
       354  -9.3781    230.2961     10.6500   3.5685784501e+01   2.7191058214e+01    0.1355014   0.07541849 -60.59 0.0007033753    1.682    0.405
       355 -11.4479      9.5795    217.0952   1.2645598614e+02   2.7235631190e+01    0.2995986    0.1705135  58.34   0.00131306    1.419    0.295
       356  -9.6986     37.9132    217.4977   1.2114923508e+02   2.4288100020e+01    0.1617404     0.103751  39.89 0.0006954027    1.541    0.351
       357 -11.5489     30.1232    216.0621   1.2255201226e+02   2.5420881252e+01    0.3760336     0.229892  21.17  0.002184859    2.394    0.582
       358 -11.2967    235.8000    214.8811   8.0556808301e+01  -5.1514209462e+00    0.3610433    0.2033401 -15.47   0.00123098    1.897    0.473
       359 -11.5548    241.0225    211.5427   7.9019170434e+01  -5.4486788237e+00    0.4733587     0.333461  44.60  0.002806097    1.848    0.459
       360  -9.4687    137.1902    215.6329   1.0033189857e+02   1.0668059521e+01    0.1934167    0.1149954  29.68 0.0009440448    1.711    0.416
       361  -9.7266     67.0022    215.2135   1.1512816091e+02   2.1259761248e+01    0.1759399    0.1452492 -11.31 0.0007950831    1.928    0.481
       362 -10.9350     21.5139    212.5339   1.2396921525e+02   2.7021534676e+01    0.3010215    0.1381112  54.77  0.001697358    1.847    0.458
       363 -10.1711    208.9604    212.0589   8.5046188836e+01  -6.2913906734e-01     0.201403    0.1642478   7.03  0.000553567    1.057    0.054
       364  -9.4169     76.3428    212.2919   1.1288448870e+02   2.0619935698e+01    0.1142705   0.09975205 -17.71 0.0006301075    1.655    0.396
       365 -12.2745      4.8116    207.4420   1.2682838057e+02   2.9618050685e+01    0.5239789    0.2723522  86.72  0.003228889    1.572    0.364
       366 -11.1362     19.5851    202.4194   1.2369112625e+02   2.9318498171e+01     0.439221    0.1654601 -71.63  0.002222122    2.275    0.560
       367 -10.3268    175.4414    202.6950   9.0115462367e+01   6.5350749502e+00    0.2368981      0.19443  36.87 0.0005250438    1.156    0.135
       368  -9.1611    194.6529    215.2977   8.8410912848e+01   1.1747269323e+00    0.1224224    0.1023561  60.93 0.0002539983    1.678    0.404
       369 -10.1429     10.7383    208.6222   1.2578057996e+02   2.8848734550e+01    0.1906769    0.1471561 -55.37 0.0006418357    1.697    0.411
       370  -9.3559    223.4922    201.5281   8.0350132679e+01  -1.3318388887e+00    0.1288048    0.1126897   3.19 0.0002203543    1.112    0.101
       371  -9.3970     34.4506    201.4458   1.2062143491e+02   2.8026078274e+01    0.1179619   0.09734321  82.08 0.0008051927    1.067    0.062
       372 -10.3529    206.0000    199.9812   8.3410692902e+01   1.7674212140e+00    0.2163733   0.07341651 -39.91 0.0008134784    3.019    0.669
       373  -9.6785    215.4940    194.5280   8.0530502460e+01   1.0667914068e+00    0.1372146    0.1141145   2.52 -3.802974e-05    1.048    0.045
       374 -11.0677     15.8831    193.5130   1.2383827541e+02   3.1571730030e+01    0.2092563    0.1920033  85.25 0.0004622138    1.278    0.218
       375  -9.5752    211.4847    188.4813   8.0126999756e+01   2.7355310462e+00    0.2411084    0.1196066 -27.28  0.001026399    2.252    0.556
       376  -9.4474      1.6145    188.2091   1.2638664701e+02   3.3933507465e+01    0.1549745   0.08322225 -72.95 0.0005288118    1.579    0.367
       377  -9.4733     61.6376    184.8300   1.1307898389e+02   2.8561885486e+01     0.187508    0.1112633 -83.14  0.000943186    1.714    0.417
       378 -11.4779     16.0107    182.7049   1.2304953829e+02   3.3935230410e+01    0.4352868     0.211249  80.55  0.002266701    1.975    0.494
