#   1 NUMBER                 Running object number                                     
#   2 MAG_AUTO               Kron-like elliptical aperture magnitude                    [mag]
#   3 X_IMAGE                Object position along x                                    [pixel]
#   4 Y_IMAGE                Object position along y                                    [pixel]
#   5 X_WORLD                Barycenter position along world x axis                     [deg]
#   6 Y_WORLD                Barycenter position along world y axis                     [deg]
#   7 A_WORLD                Profile RMS along major axis (world units)                 [deg]
#   8 B_WORLD                Profile RMS along minor axis (world units)                 [deg]
#   9 THETA_WORLD            Position angle (CCW/world-x)                               [deg]
#  10 FWHM_WORLD             FWHM assuming a gaussian core                              [deg]
#  11 ELONGATION             A_IMAGE/B_IMAGE                                           
#  12 ELLIPTICITY            1 - B_IMAGE/A_IMAGE                                       
         1 -12.9975    248.4225    114.0557   8.1722526423e+01   7.0379781129e+00     1.649101     1.001944 -20.65   0.00720791    2.191    0.544
         2 -14.3210    201.3865     17.0474   6.5184685085e+01   3.2891243734e+01     2.436636     1.522831  32.35   0.01042025    2.422    0.587
         3 -13.7518    206.3538     10.3110   6.2990814507e+01   3.2430834693e+01     1.288489     0.708881  50.07  0.001505648    2.005    0.501
         4 -13.6214      2.3042      5.4523   1.1480496808e+02   7.1528802347e+01     1.514705    0.9625363 -29.18   0.01158472    1.168    0.144
         5  -9.6848    199.9229    245.8893   1.1708257299e+02  -5.9992112133e+00    0.1793653    0.1437813  63.51 0.0005416861    1.631    0.387
         6  -9.4321    205.4722    250.4815   1.1677338379e+02  -7.5560387818e+00    0.1243429   0.09967776  26.56 0.0003262068    1.038    0.037
         7  -9.7736    183.8213    250.4504   1.2076966090e+02  -3.9410356913e+00    0.1764532    0.1004069  32.96 0.0003722341    1.610    0.379
         8 -11.0756    152.4693    243.6853   1.2570631661e+02   2.5169980084e+00    0.3234693    0.1878425  52.31  0.001716256    1.549    0.354
         9 -11.8212    136.1430    227.8171   1.2666676543e+02   8.1685006833e+00    0.5417216    0.3966212 -20.35  0.002796035    2.321    0.569
        10 -11.4722    149.9197    248.6664   1.2685976537e+02   2.1408828001e+00    0.4635385    0.2971782  51.80  0.002667565    1.341    0.254
        11 -11.2583    143.3955    249.1463   1.2814278202e+02   3.1782604681e+00    0.5312725    0.3191695  89.14  0.002442546    3.100    0.677
        12 -11.6636    135.6801    241.0598   1.2854973323e+02   5.8704718074e+00    0.3728673    0.2745934  39.55 0.0003980933    1.289    0.224
        13 -12.0257    134.9598    237.0599   1.2816127386e+02   6.6990382807e+00    0.4518101    0.4106424  21.46  0.001233271    1.363    0.266
        14 -10.0906    127.0694    248.8930   1.3114757386e+02   5.9776758333e+00    0.3045294    0.2224791  70.22  0.001237699    1.355    0.262
        15 -10.5807    122.5585    249.9789   1.3210826184e+02   6.5408321637e+00    0.6860244    0.2501488  57.26  0.002590728    3.493    0.714
        16 -10.4491    121.6936    244.8672   1.3166397253e+02   7.5722439500e+00    0.3690687    0.1899794  61.05  0.001799421    2.065    0.516
        17 -11.8649    126.2892    240.8376   1.3030609777e+02   7.5131283672e+00    0.5090604    0.4177141  72.57  0.001924126    1.159    0.137
        18 -10.6090    115.3808    250.1723   1.3344520925e+02   7.6843099874e+00    0.5127478    0.1747514  43.92  0.002246286    2.404    0.584
        19 -11.9108    109.6462    246.7977   1.3411641860e+02   9.2067039453e+00    0.5903803    0.5161304 -78.75  0.003641182    1.292    0.226
        20 -10.0084    135.9560    250.5417   1.2970288058e+02   4.2086204817e+00    0.2286495    0.1811803 -64.49 0.0008911072    1.490    0.329
        21 -10.7767    132.0474    248.9997   1.3023765372e+02   5.1253797584e+00     0.364036    0.2171681  55.46  0.001507233    1.474    0.321
        22 -11.0093    104.5332    237.8142   1.3405186313e+02   1.1668890813e+01    0.2726468    0.1922562  51.73 0.0009338355    1.199    0.166
        23 -11.6571     98.4835    247.3327   1.3620636339e+02   1.0884734031e+01     0.572741    0.3122224  55.05  0.003207928    1.518    0.341
        24 -10.2903     87.9633    250.5725   1.3840803996e+02   1.1916202973e+01    0.4733967    0.1592224  38.34  0.001569965    3.233    0.691
        25 -11.0258     88.1754    247.2808   1.3805046370e+02   1.2479539623e+01    0.3274204    0.1980527  37.60  0.001876495    1.826    0.452
        26 -10.8599     80.7844    245.8009   1.3922003125e+02   1.3854725766e+01    0.5519241    0.2648216  88.62  0.002554201    2.933    0.659
        27  -9.9907     83.9217    242.2706   1.3831904484e+02   1.4043761500e+01    0.1915525    0.1556805  84.82 0.0007723873    1.152    0.132
        28 -11.2809     90.0135    236.8023   1.3664830309e+02   1.4149644238e+01    0.3364419    0.2263197 -84.98  0.002011905    1.496    0.331
        29 -11.0157     84.2120    237.5985   1.3779870112e+02   1.4881132643e+01    0.4308761    0.3278571  26.63  0.002617318    1.951    0.487
        30  -9.1160     74.5018    250.6695   1.4076173309e+02   1.3878031922e+01    0.2134134   0.09033041  43.95  0.001103879    2.043    0.511
        31  -9.4507     68.0968    248.9041   1.4170868705e+02   1.5107804044e+01    0.3394363    0.1496953 -88.18  0.001574498    3.028    0.670
        32 -12.3234     61.7885    245.9793   1.4254218500e+02   1.6520004099e+01     1.068111    0.6046506  32.52  0.005881039    2.502    0.600
        33 -11.9540     54.4954    197.1096   1.3927228082e+02   2.7417564002e+01     1.452681      1.24467   1.32   0.00917065    1.955    0.489
        34 -14.4866     22.2116    153.7444   1.4136905281e+02   4.0749563686e+01      1.72435     1.380874 -25.21   0.01140592    1.813    0.449
        35 -14.5822     30.2532    246.2048   1.4777497035e+02   2.0481688418e+01     2.350097     1.073882  61.17   0.01419665    1.745    0.427
        36 -14.3457      8.7954    207.3183   1.4878647678e+02   3.0386863827e+01     1.794205    0.9186767 -71.11    0.0112564    1.658    0.397
        37 -14.5826     49.3996    218.7830   1.4239255332e+02   2.3482618029e+01     1.907493     1.300437  40.25   0.01208798    1.666    0.400
        38 -10.8608    103.4291    244.6075   1.3501519882e+02   1.0596881669e+01    0.4070497    0.2114192  72.35  0.001912256    2.531    0.605
        39 -10.0298    223.0228    244.4882   1.1261168968e+02  -9.5874766163e+00    0.1911221    0.1021902  37.30 0.0005346484    1.588    0.370
        40 -11.7405    249.3727    241.1232   1.0734976573e+02  -1.3197247797e+01    0.3677121    0.2529961  49.84  0.002219018    1.968    0.492
        41 -10.7164    173.2149    239.8514   1.2119535586e+02  -4.9316636409e-01    0.2832548    0.2097711 -58.46 0.0007111903    1.708    0.414
        42 -11.2393    145.3516    240.7539   1.2666270056e+02   4.2486512399e+00     0.344688    0.1440178  48.18 0.0008470019    2.052    0.513
        43 -11.8044     96.4726    239.0742   1.3569566348e+02   1.2716679528e+01    0.5098059    0.2760542 -79.61  0.002620848    2.215    0.549
        44 -10.5634    115.8120    239.8840   1.3217092208e+02   9.4415055414e+00    0.2328409    0.1994055  70.38 0.0007043146    1.083    0.077
        45 -10.5126    165.5460    241.8194   1.2295156158e+02   5.3764651702e-01    0.3013518    0.1822287  30.17 0.0006606239    1.757    0.431
        46 -10.8228    128.6584    233.5692   1.2891764527e+02   8.4190196477e+00    0.2948021    0.1889761  48.48  0.001630631    1.320    0.242
        47  -8.8622    183.2574    236.6652   1.1878306357e+02  -1.7561972548e+00    0.1186805   0.09759638  74.09 0.0002840802    1.571    0.364
        48 -10.2776    165.7786    235.2581   1.2193775741e+02   1.5709486954e+00    0.2360948    0.1944069 -37.66  0.001454228    1.451    0.311
        49 -10.3378    162.0504    232.8223   1.2229718840e+02   2.6470806478e+00    0.3042585    0.2115161  86.63  0.001410063    2.246    0.555
        50 -11.6125     98.4509    231.5332   1.3448312509e+02   1.3836459600e+01      0.39624    0.2781323 -88.44 0.0005860151    1.448    0.309
        51 -11.6546    111.6458    230.5385   1.3182957504e+02   1.1874699106e+01     0.501188    0.3775805  54.07  0.001686253    1.128    0.114
        52 -10.3434    104.3278    229.5300   1.3312141467e+02   1.3274914515e+01    0.3446885    0.1898845  54.03  0.001242172    1.581    0.367
        53  -9.6003     71.4326    233.4898   1.3972516824e+02   1.7549205257e+01    0.3232248     0.162844 -50.31  0.001597126    2.890    0.654
        54  -9.6672     77.8800    233.1006   1.3850692560e+02   1.6689364975e+01     0.280029    0.1660414 -87.77  0.001279209    1.735    0.424
        55 -13.3619     14.1052    238.9897   1.4989143924e+02   2.3635713678e+01    0.6643628    0.3434472  66.41  0.004402105    1.491    0.329
        56 -11.0717    156.7031    231.7518   1.2318343402e+02   3.7901496093e+00    0.2365701    0.2348103 -74.76  0.000565007    1.181    0.153
        57  -8.7335     62.3341    233.2416   1.4134468454e+02   1.8872573326e+01   0.09684514   0.09227848  48.60 0.0003444056    1.545    0.353
        58 -10.6160    141.6072    230.9762   1.2603436421e+02   6.6230472270e+00    0.2713432    0.2270599 -21.08 0.0009819204    1.667    0.400
        59 -11.6425    122.4843    232.8570   1.3002233668e+02   9.6101037624e+00    0.4518519    0.3582107  64.19  0.001708395    1.105    0.095
        60 -10.5134    165.6654    227.1682   1.2071978521e+02   2.9634051877e+00    0.4235891    0.2566759 -66.64  0.001842075    2.479    0.597
        61 -10.9782    161.1944    223.2266   1.2098995870e+02   4.4726231923e+00    0.5159214    0.3063441  23.26  0.001926722    2.426    0.588
        62 -10.4563     84.7701    229.5366   1.3685382738e+02   1.6356381386e+01    0.2741672    0.2261159  37.51 0.0009076623    1.505    0.336
        63 -10.7225     80.3358    227.6396   1.3748767883e+02   1.7398498224e+01    0.3307713    0.2943255  -6.88 0.0008023045    1.932    0.483
        64 -10.2439     78.9505    224.5555   1.3742292284e+02   1.8220525046e+01    0.2685441     0.225858  -9.70  0.001605536    2.221    0.550
        65 -10.6999     77.6574    221.0519   1.3729407117e+02   1.9120708445e+01    0.2707384    0.1814664  70.20 0.0003998491    1.324    0.245
        66  -9.2945    191.1079    228.1619   1.1589829221e+02  -1.8017521187e+00    0.1724255    0.1440123  56.23 0.0003620484    1.312    0.238
        67  -9.3194    179.7354    228.1532   1.1810954433e+02   2.4322144114e-01    0.2088681    0.1387178  76.49 0.0009401089    2.726    0.633
        68  -9.8986     93.9353    217.3977   1.3368991015e+02   1.7365988148e+01    0.4012928     0.213939 -87.98  0.001780492    2.584    0.613
        69 -10.6433     92.8710    226.0719   1.3492526266e+02   1.5788158552e+01    0.2784542    0.1817262  58.39 0.0004909417    1.313    0.239
        70 -11.8529     98.6886    223.6508   1.3351044972e+02   1.5342548070e+01    0.5206786    0.2920732  42.96  0.001357736    1.663    0.399
        71 -11.4331    131.9041    224.1488   1.2699334013e+02   9.6060320158e+00    0.4185316     0.291513  71.57  0.001893781    1.579    0.367
        72 -10.9081    149.4207    223.0375   1.2331987080e+02   6.6623719826e+00    0.4038773    0.2973419   9.08  0.001574071    2.094    0.522
        73 -11.7979    142.1104    221.6557   1.2458273587e+02   8.2475060827e+00    0.4088849    0.3426104  45.17 0.0002188157    1.106    0.096
        74 -11.3463    137.9109    214.3599   1.2433811023e+02   1.0407697390e+01    0.5925596    0.3390439  35.69  0.001257746    1.830    0.454
        75 -10.9079    117.3712    224.3162   1.2991126736e+02   1.2105099831e+01    0.2347926     0.204168  63.07 0.0002752841    1.056    0.053
        76  -8.7986    220.0035    223.4873   1.0958375036e+02  -6.1386420524e+00    0.1814493    0.1137388  38.49 -7.364419e-05    1.437    0.304
        77 -10.1284    110.8569    221.9993   1.3090221046e+02   1.3664477319e+01    0.3136739    0.1970378 -52.40  0.001084076    1.844    0.458
        78 -10.5298    105.5514    219.5241   1.3164056114e+02   1.5044743956e+01    0.3854367    0.2207879  73.38 0.0006983802    2.167    0.539
        79 -11.2247     70.5937    219.2365   1.3845546755e+02   2.0519637653e+01    0.5107409    0.2980748 -76.20   0.00273429    1.641    0.391
        80 -14.3321      4.0899    246.1269   1.5181264925e+02   2.3362614790e+01     1.583185    0.4716756 -79.88  0.008252195    2.846    0.649
        81 -12.3367     13.6527    248.9062   1.5051876099e+02   2.1855282536e+01    0.2822444    0.1697494  68.79 0.0007189102    1.186    0.157
        82  -9.3475    177.6632    220.3220   1.1723109001e+02   1.9441858976e+00    0.1352665    0.1025844  71.67 0.0002439017    1.712    0.416
        83  -9.0740     89.5266    218.5041   1.3469554018e+02   1.7835270150e+01    0.1310442    0.1063058  72.36  0.000418266    1.016    0.016
        84  -8.8908    193.6976    245.2894   1.1814940284e+02  -4.8636994386e+00    0.1169781   0.09220283  61.77 0.0002708265    1.565    0.361
        85  -8.7307    101.2585    216.3142   1.3208993759e+02   1.6403263226e+01    0.1131003    0.1043514 -31.33 0.0002099393    1.533    0.348
        86  -9.2338    183.0049    213.9747   1.1508149565e+02   2.0513592484e+00     0.165515    0.1477378  35.94 0.0003991871    1.001    0.001
        87 -10.1431     88.2389    213.1537   1.3431126532e+02   1.9140272200e+01    0.2601436    0.1788174 -83.74 0.0006719006    1.428    0.300
        88 -10.1357    102.1853    212.0395   1.3134706346e+02   1.7129448825e+01    0.3676977    0.1992124  63.59  0.001229996    2.019    0.505
        89  -9.1046    152.2821    211.8602   1.2098164550e+02   8.2264078323e+00    0.2060049    0.1690925 -88.73 0.0006739905    1.411    0.291
        90  -8.8501    131.6457    212.2988   1.2531794652e+02   1.1953896721e+01    0.1447199   0.09694193  69.99 0.0001642073    1.698    0.411
        91 -10.8791     72.7300    210.1180   1.3705174748e+02   2.2111568797e+01    0.3876951    0.2758528  53.08  0.002280667    1.293    0.226
        92  -9.6954     68.4543    211.5026   1.3804802264e+02   2.2431631061e+01    0.2069144    0.1624878 -77.12    0.0010162    1.225    0.184
        93  -9.7912     33.3650    211.5286   1.4470963784e+02   2.6924735743e+01    0.1640686    0.1296154  46.05 0.0006462503    1.487    0.327
        94  -9.4161    174.0336    211.2994   1.1642777257e+02   4.2183674428e+00    0.1975872    0.1641836  42.53 0.0001995491    1.082    0.076
        95 -10.3656    109.1030    207.9517   1.2936539411e+02   1.6816552479e+01    0.3754263    0.1876994 -65.74  0.001291447    2.207    0.547
        96  -9.8370    135.2558    208.1467   1.2392892267e+02   1.2124228485e+01    0.3282273    0.2189357  29.15  0.001299981    1.818    0.450
        97  -9.8458    119.8301    208.8952   1.2726630715e+02   1.4757375221e+01    0.1909285    0.1817423  49.58 0.0002656802    1.206    0.170
        98 -11.3182     92.0268    204.9701   1.3250914101e+02   2.0269796857e+01    0.7167405    0.2678339  50.51  0.001989946    2.548    0.608
        99 -10.6260     93.6603    201.7787   1.3174560847e+02   2.0692834513e+01    0.3411433    0.2297442  80.03 0.0008313378    1.557    0.358
       100 -11.7381    247.1207    205.5962   1.0130787482e+02  -8.0277862052e+00    0.4761707    0.3275304  12.13  0.002680746    1.504    0.335
       101  -8.8905    178.2954    204.7090   1.1439489248e+02   4.6059288509e+00    0.2082992    0.1626933  41.98  0.000215618    1.169    0.144
       102  -9.8868    125.8384    205.8503   1.2555159106e+02   1.4309408440e+01    0.1966005    0.1811984  52.49 0.0004492238    1.131    0.116
       103  -9.2718    149.3273    204.8352   1.2043903023e+02   1.0149271155e+01     0.290246    0.1782764 -24.02  0.001157566    3.069    0.674
       104 -11.0584    102.4105    202.5133   1.3000519901e+02   1.9097287305e+01    0.6123038    0.3094112  53.11  0.002388482    1.886    0.470
       105 -10.7563     98.7533    196.8652   1.2998469381e+02   2.0926413890e+01    0.5453849    0.2720179  48.16  0.001930451    1.865    0.464
       106  -9.8933    166.9589    203.0518   1.1644022639e+02   7.1074709877e+00    0.2534446    0.1949604  31.49  0.001341299    1.320    0.242
       107 -10.3484    169.7072    200.0912   1.1533773030e+02   7.1383597762e+00    0.2503404    0.2090041  44.19 0.0003953536    1.101    0.092
       108  -9.4700    133.0990    202.8567   1.2354694572e+02   1.3596523233e+01     0.211161    0.1752167  75.71 0.0004479327    1.205    0.170
       109  -9.3259     76.4998    203.0747   1.3547186480e+02   2.3065322485e+01    0.2823713    0.1689707  42.84  0.001506917    1.663    0.399
       110 -10.2652    138.0513    201.6023   1.2229013185e+02   1.2930388220e+01    0.2368556    0.2033947 -65.73 0.0002963988    1.233    0.189
       111  -9.9755     64.0030    202.1795   1.3790871837e+02   2.5043831267e+01    0.2459483    0.1714454  36.79 0.0008102621    1.684    0.406
       112 -10.1633    197.4055    200.8025   1.0980256035e+02   1.6364495323e+00    0.2831312    0.1886978  35.94 0.0008882367    1.416    0.294
       113 -10.5536    112.8627    193.4012   1.2641328976e+02   1.9267457575e+01    0.4886699    0.2763632 -64.86  0.001163353    1.878    0.467
       114 -11.1233    115.2683    200.2191   1.2693949984e+02   1.7375972563e+01    0.2497112    0.2299438 -89.95 0.0002365921    1.102    0.093
       115 -10.5892    119.9889    199.1090   1.2575770455e+02   1.6771702893e+01    0.3722306    0.2335267  67.96 0.0003650202    1.838    0.456
       116  -8.8132     32.6776    201.7568   1.4400472364e+02   2.9053882193e+01   0.09883513   0.08675308 -59.77 0.0002116774    1.526    0.344
       117  -9.9047     44.2795    199.4089   1.4154620657e+02   2.8199596217e+01    0.2881572    0.2132231  48.47 0.0009768176    1.416    0.294
       118 -10.2962    175.0306    205.6693   1.1523623224e+02   5.0576343874e+00    0.3303968    0.2277239 -28.92  0.001641577    1.794    0.443
       119  -8.9518    158.7874    199.4083   1.1751033261e+02   9.4005634298e+00    0.1996312    0.1285293  34.78 0.0004066735    1.596    0.373
       120 -10.2976    133.9444    197.5116   1.2249657303e+02   1.4545828651e+01    0.3657238    0.2220973 -68.28   0.00118418    1.987    0.497
       121  -8.8991     86.2596    199.2895   1.3296987424e+02   2.2405494455e+01    0.1867352    0.1675888 -66.16 0.0001809026    1.278    0.217
       122  -9.5076     85.9753    195.9695   1.3259048671e+02   2.3176855012e+01     0.204416    0.1587023  75.34  0.000347483    1.161    0.139
       123  -8.5366    149.7150    198.7240   1.1931782474e+02   1.1294850211e+01    0.1322936     0.111963   7.89 0.0001818419    1.509    0.337
       124 -11.7185     67.8155    195.1830   1.3631659918e+02   2.6042070693e+01    0.4065619    0.2755847 -47.69  0.001528596    1.895    0.472
       125  -9.8883     72.7056    193.2827   1.3505661999e+02   2.5765049107e+01    0.1982707    0.1727495  85.40 -0.000275831    1.088    0.081
       126  -9.2031    107.3192    195.9271   1.2800333220e+02   1.9684095808e+01    0.2192097    0.1587184 -88.50 0.0006930853    1.466    0.318
       127 -10.4146    248.3201    194.3322   9.8906893241e+01  -6.5290538904e+00    0.3097677    0.1885669   8.95  0.001024256    2.187    0.543
       128 -10.4789    120.7205    191.6945   1.2442030342e+02   1.8229545733e+01     0.527546    0.3479345 -46.75  0.001653655    1.718    0.418
       129  -9.4525     31.1109    195.0522   1.4370647140e+02   3.0663565597e+01    0.2286243    0.1067475  59.61 0.0008300919    2.077    0.519
       130  -9.9459    159.9806    194.1333   1.1631086996e+02   1.0214469366e+01    0.2164108    0.2007765  55.87   0.00042141    1.020    0.019
       131  -9.2347     82.0141    194.4382   1.3323007726e+02   2.4125295692e+01    0.1847461    0.1715612 -79.27 2.534124e-05    1.226    0.184
       132  -9.3100     84.6982    192.3337   1.3237349387e+02   2.4179294882e+01    0.1383739    0.1218573  84.69 0.0003792694    1.067    0.063
       133 -10.4968     38.7142    192.4951   1.4196747056e+02   3.0361049029e+01    0.2359386    0.1598706 -61.91 0.0001623972    1.510    0.338
       134  -9.4039     47.6717    192.8734   1.4020268162e+02   2.9208567851e+01    0.1772932    0.1255565 -76.80  0.001092497    1.217    0.178
       135 -13.0615     43.2211    228.3586   1.4431727973e+02   2.2332515052e+01    0.4139988    0.3710852 -78.01 0.0007758892    1.466    0.318
       136 -10.2777    191.4527    191.3790   1.0919801237e+02   4.4992476505e+00    0.2748843    0.2458862  12.69  0.000591428    1.137    0.120
       137  -9.2216    173.3013    192.0410   1.1309514630e+02   7.9837236402e+00    0.2271687    0.1125187 -26.64 0.0007037877    4.208    0.762
       138  -9.2888    135.2858    190.1111   1.2095159866e+02   1.5853218977e+01    0.1937858    0.1761547 -87.66 0.0003805821    1.095    0.087
       139 -10.9830     25.6335    184.3884   1.4380448456e+02   3.3565481630e+01    0.2973466    0.2083046  86.76  0.001358218    1.140    0.123
       140  -9.9782     31.9415    189.7590   1.4305172231e+02   3.1720843105e+01    0.3341254    0.2394648  31.64  0.002136241    1.833    0.454
       141  -9.9311     30.0559    184.0167   1.4287805290e+02   3.3184035164e+01    0.4522318    0.1758565 -63.16  0.002217841    2.185    0.542
       142 -11.0914    249.7750    187.6253   9.7316449972e+01  -5.7338471058e+00    0.3832869    0.2478076 -21.04  0.002023188    1.559    0.359
       143 -11.9398     73.1768    187.4855   1.3421196287e+02   2.6992437038e+01    0.3522778    0.2700478 -56.47  0.000646366    1.425    0.298
       144  -9.8695     77.3110    188.7316   1.3348249215e+02   2.6105408494e+01    0.2028011    0.1613872  75.28 0.0002210234    1.117    0.105
       145 -10.2792     26.0570    192.9720   1.4449978426e+02   3.1656351303e+01    0.2369881    0.1343778 -82.69 0.0009876532    1.442    0.307
       146  -9.8721    175.7790    186.8102   1.1156859969e+02   8.5104920267e+00    0.2009364    0.1722104  85.71 0.0005184959    1.389    0.280
       147  -8.8649    154.4959    185.4971   1.1590039769e+02   1.3066443145e+01    0.1462901    0.1378973  53.20 -0.0003059052    1.024    0.023
       148  -9.2436    143.3148    184.7129   1.1821719413e+02   1.5449434939e+01    0.2241427    0.1831984  46.10  0.000634045    1.169    0.145
       149  -9.6779    140.0415    183.2515   1.1867758608e+02   1.6404019148e+01     0.221231    0.2046597  81.42 0.0002536373    1.052    0.049
       150  -9.5782     86.0331    183.4491   1.3083213894e+02   2.5967753270e+01    0.3255985    0.2205066  30.72  0.001103883    1.846    0.458
       151  -9.4865     37.1178    184.1005   1.4144374595e+02   3.2392172835e+01    0.2452669    0.1528656  46.75  0.001121282    1.636    0.389
       152 -10.3790     54.2729    182.0173   1.3760166200e+02   3.0802783777e+01    0.2253433    0.2014934  31.81 0.0008209915    1.480    0.324
       153 -10.6290    236.5827    145.8591   9.0817767615e+01   3.7959966354e+00    0.7869205    0.3250573  34.28  0.002581187    3.810    0.738
       154 -12.6124    248.3512    101.5771   7.8918340959e+01   9.2185480792e+00    0.9113228    0.5143898 -38.18  0.004240626    1.622    0.383
       155 -12.9520    248.2215    171.8363   9.4361898431e+01  -2.9163233229e+00      1.19043    0.4971349 -39.38   0.00499654    2.251    0.556
       156  -9.6495    239.6639    249.3235   1.1043105989e+02  -1.2767741678e+01    0.1042701   0.09210347  56.49 0.0004161595    1.714    0.417
       157 -12.9317    246.7218    157.7480   9.1645212979e+01  -2.6562794595e-01     1.416424     1.034292 -67.46  0.007020926    2.026    0.506
       158 -12.8116    248.4873    134.0074   8.6169555737e+01   3.5237537957e+00     1.222458    0.9047183 -28.09  0.006468177    1.316    0.240
       159  -8.7495    115.3101    180.9745   1.2384592559e+02   2.1576616062e+01    0.2327659      0.11429 -77.61  0.000704373    4.237    0.764
       160 -12.2315    248.1845    142.1802   8.8020240198e+01   2.1522236008e+00    0.9049437    0.5179416 -33.92  0.004233939    1.638    0.390
       161  -9.5035    170.0208    180.0326   1.1146680921e+02   1.1040531181e+01    0.2136833    0.2043922  39.80            0    1.026    0.026
       162  -8.9408    104.3965    180.5546   1.2625399703e+02   2.3602010234e+01    0.1403082    0.1260922  86.35 0.0001008121    1.022    0.021
       163  -9.3630     48.0402    179.7253   1.3866829852e+02   3.2095928161e+01    0.1661784    0.1385678  66.75 0.0004318703    1.178    0.151
       164  -9.7970    174.8570    179.7376   1.1036817848e+02   1.0105801821e+01    0.4213461    0.1233287  45.31  0.001304742    3.274    0.695
       165  -9.7573    118.0245    190.0022   1.2473873504e+02   1.9086864099e+01    0.2126906    0.1870693  77.72            0    1.049    0.046
       166 -11.4828     82.6267    175.7597   1.3046370186e+02   2.8255743144e+01    0.3702053    0.3460171  56.21  0.000944854    1.214    0.176
       167  -8.9644    109.3511    177.6679   1.2464461299e+02   2.3390231186e+01    0.1550897    0.1041132  76.06 0.0007047195    1.777    0.437
       168 -11.7782     68.8095    173.9474   1.3334432752e+02   3.0704345800e+01    0.6108309    0.2911755 -52.06  0.001472612    2.189    0.543
       169 -10.8237     68.9835    166.8835   1.3228888424e+02   3.2320017263e+01    0.2426746    0.1899841 -71.40 0.0003338206    1.139    0.122
       170  -9.4369    114.7609    176.2018   1.2314961891e+02   2.2751856391e+01    0.2294363    0.1707304 -84.15 0.0004189358    1.466    0.318
       171 -10.2194     76.7728    175.3251   1.3173322133e+02   2.9238666982e+01    0.3531032    0.2012159  68.81  0.001187604    2.108    0.526
       172 -10.2100     95.6426    172.7685   1.2699368242e+02   2.6867119714e+01    0.2528282    0.2082277  79.92 0.0004359269    1.159    0.137
       173 -10.0971     80.9576    163.9015   1.2900558302e+02   3.1271187932e+01    0.2776334    0.2050972  36.16 0.0007810083    1.536    0.349
       174  -9.5048     91.0044    172.6855   1.2805752942e+02   2.7646016137e+01     0.249956    0.1808781 -50.60 0.0005689974    1.481    0.325
       175 -11.3840     95.9079    156.9939   1.2420114570e+02   3.0507652078e+01    0.3897554    0.2979811 -64.79 0.0008061726    1.231    0.188
       176 -10.9466     89.8660    160.4039   1.2627976520e+02   3.0698361092e+01    0.3986775    0.2275199 -65.78  0.001821628    1.720    0.418
       177 -11.3792     28.4577    171.4439   1.4193677865e+02   3.6148516554e+01     0.379636    0.2438991 -65.55  0.001349395    1.369    0.270
       178  -8.8162    154.5942    172.4664   1.1335104476e+02   1.5800558625e+01    0.1471353    0.1428878  67.94 7.677259e-05    1.024    0.023
       179  -8.6083    167.0000    170.0295   1.1009608364e+02   1.3735215532e+01    0.2433528   0.08650456 -46.33 0.0007971989    2.906    0.656
       180  -9.1444    100.5485    170.4967   1.2546828988e+02   2.6566673315e+01    0.1435922    0.1290777  88.39 -3.188877e-05    1.005    0.005
       181  -8.5752     76.6447    170.2350   1.3100810114e+02   3.0437172447e+01    0.1381831   0.09244466  68.10 0.0003943232    1.576    0.365
       182 -10.7997     43.7510    168.7978   1.3830379187e+02   3.5090809586e+01    0.3652943    0.3444971 -35.38  0.001681009    1.442    0.307
       183  -9.2200     49.0714    168.7049   1.3710197518e+02   3.4485740309e+01    0.2567945     0.149634  55.66 0.0004554359    1.759    0.432
       184  -9.2177    126.5138    168.0176   1.1892220828e+02   2.2407124545e+01    0.2092433    0.1282595 -80.41 0.0008092082    2.442    0.591
       185  -9.7369    107.4197    168.1063   1.2343398358e+02   2.5924068265e+01    0.2414918    0.2016346  29.33 0.0004332017    1.423    0.297
       186  -9.1857     58.5035    167.4926   1.3479931944e+02   3.3588813862e+01    0.1333445    0.1108311 -87.09  0.000810595    1.015    0.015
       187  -9.1466    136.0637    165.3338   1.1616500698e+02   2.1137302825e+01    0.2089882    0.1843156  58.20 0.0002833538    1.097    0.088
       188  -9.1983     53.8653    164.8450   1.3550459572e+02   3.4791643426e+01     0.176607    0.1299645  84.06 0.0002925901    1.276    0.216
       189  -9.5378     65.9525    182.0242   1.3507042344e+02   2.9250891774e+01    0.1928647    0.1661482 -89.97            0    1.061    0.058
       190 -10.3086     47.0085    163.2051   1.3686250911e+02   3.5999665836e+01    0.2290232    0.1574204 -79.92 0.0003392193    1.255    0.203
       191  -9.3155     36.8211    162.6146   1.3910536749e+02   3.7278287844e+01    0.1604801    0.1037615  53.46 0.0005161781    1.598    0.374
       192 -10.9517     73.6699    157.5483   1.2972943420e+02   3.3845761636e+01    0.4586852    0.3602209 -85.18  0.001752108    1.197    0.164
       193  -9.5290     79.0813    158.8594   1.2863166093e+02   3.2740718428e+01    0.2108624    0.1687071  81.81 0.0003949696    1.229    0.187
       194  -9.0230     52.2599    158.4049   1.3499078778e+02   3.6487831819e+01    0.1679686    0.1137858  52.82 0.0009365402    1.536    0.349
       195  -9.4826     47.9580    157.5051   1.3587981232e+02   3.7210808802e+01    0.2116371    0.1481244 -70.73 0.0005604982    1.205    0.170
       196  -9.6455    134.4772    155.9054   1.1461464198e+02   2.3587677852e+01    0.2274562    0.1485333 -52.36 0.0003485435    1.533    0.347
       197  -9.2810    228.3870    155.3115   9.4382267236e+01   3.7378164780e+00    0.1975012    0.1297741 -46.10 0.0004522433    1.541    0.351
       198  -8.8154    124.7048    154.3136   1.1663649160e+02   2.5894887888e+01    0.1538817     0.115729  84.17 0.0002657655    1.599    0.375
       199 -11.0702    113.8284    150.9125   1.1860701917e+02   2.8761391778e+01    0.3775585    0.3305623 -41.27 0.0008701374    1.247    0.198
       200 -11.0307    101.1135    150.7547   1.2173840616e+02   3.1089505505e+01    0.4063777     0.340018 -64.93   0.00205731    1.127    0.113
       201  -9.5356    104.1738    145.9725   1.2002068718e+02   3.1678569561e+01    0.3280967    0.2462432 -34.51  0.001600018    1.602    0.376
       202  -9.1671    104.3010    142.2973   1.1923497933e+02   3.2520841831e+01    0.2574607    0.1875603 -31.61  0.001117573    1.726    0.421
       203  -9.6473    132.0962    152.3291   1.1443325819e+02   2.4883761167e+01    0.2117461    0.1854917  58.51 0.0003746096    1.128    0.114
       204  -9.5882     53.1017    146.1532   1.3297748158e+02   3.9255661610e+01    0.1933798    0.1622556 -55.94 0.0002772645    1.206    0.171
       205 -10.2596     60.2365    150.9839   1.3196534152e+02   3.7229331253e+01    0.3211146    0.2004221  63.77 0.0009034949    1.828    0.453
       206 -11.0607     55.9298    150.2556   1.3291095695e+02   3.7945809343e+01    0.4556906     0.314395 -46.20  0.002216363    1.589    0.371
       207 -12.4679     88.1082    166.9234   1.2780065681e+02   2.9450919144e+01    0.7780671    0.7248371  81.55  0.004695203    1.095    0.087
       208  -9.9432     90.0865    149.9020   1.2433832634e+02   3.3142950132e+01    0.2135663    0.1942692 -77.22 0.0004736429    1.018    0.018
       209 -11.5890     60.8301    137.5983   1.2960152583e+02   4.0309661079e+01    0.3491197    0.2499641  60.53  0.001117432    1.553    0.356
       210 -13.1041     67.5554    144.3010   1.2903340741e+02   3.7836673453e+01    0.9253412    0.5887741  79.61  0.004165178    2.010    0.502
       211 -12.0281     74.0949    139.3192   1.2645828848e+02   3.8099742257e+01    0.6407283    0.4805093 -87.77  0.002829299    1.426    0.299
       212 -10.7281    134.0000    145.0127   1.1238612202e+02   2.6168428003e+01    0.6103333    0.1986219 -52.92  0.001850245    3.309    0.698
       213 -12.1552      2.4718    144.8418   1.4487315024e+02   4.4341173783e+01     0.493244    0.1930353 -63.73  0.002609189    1.904    0.475
       214 -12.5259      7.6047    141.7626   1.4337809509e+02   4.4652697151e+01    0.4061135    0.2794204  49.28  0.002720612    1.646    0.393
       215  -8.7267    158.9792    145.2563   1.0650647446e+02   2.0787333714e+01    0.1889607    0.1333892  47.63            0    1.407    0.289
       216 -10.8865    133.2972    140.3909   1.1152340118e+02   2.7368189196e+01    0.4511017    0.3698628 -59.16  0.001729502    1.214    0.177
       217 -10.7022     41.9849    140.6349   1.3491536544e+02   4.1812467856e+01    0.2243826    0.1869599  81.64  0.001229581    1.186    0.157
       218 -14.9170     16.5508    169.8714   1.4428789762e+02   3.7648012374e+01      3.23153     1.087555 -57.93   0.01503761    2.660    0.624
       219 -11.0629     47.2615    138.4581   1.3324419000e+02   4.1740092440e+01    0.4024046    0.1788763  22.62  0.001681667    3.426    0.708
       220 -12.1550     51.9720    237.6799   1.4354761296e+02   1.9399740729e+01    0.8639844    0.5755736 -87.81  0.003533647    1.296    0.229
       221 -10.4916    111.7707    136.2044   1.1601326342e+02   3.2582612301e+01    0.3864183    0.2935745  19.15  0.001323222    1.726    0.421
       222  -8.8577    122.0165    148.0367   1.1598512596e+02   2.7870422534e+01    0.1773598    0.1671049 -78.89 0.0009537099    1.015    0.015
       223 -12.7416     45.6993    131.5833   1.3253663836e+02   4.3517901074e+01    0.6600928    0.4554064  67.77  0.003264406    1.692    0.409
       224 -10.9514     20.9899    133.9776   1.3922323154e+02   4.5350470691e+01    0.1859351    0.1454973 -70.32 0.0003224406    1.037    0.035
       225 -12.0230      2.3224    126.6580   1.4292241279e+02   4.8373565732e+01    0.5404348    0.1960754 -81.47  0.002336779    2.926    0.658
       226 -12.1254     67.9276    128.2753   1.2599573779e+02   4.1566754049e+01    0.4807164    0.3873165  68.32            0    1.378    0.274
       227 -10.0181    117.0606    128.9721   1.1300343362e+02   3.3248497525e+01    0.3502009    0.2037224 -29.51  0.001310291    2.569    0.611
       228 -12.2658     38.4063    123.8545   1.3319205818e+02   4.6071640905e+01    0.5521045    0.2827512 -64.05  0.002434105    1.612    0.380
       229 -12.7642     19.8816    121.8117   1.3781144491e+02   4.8196665728e+01    0.4116694    0.3731005  18.52  0.002379283    1.427    0.299
       230 -11.9935     30.8675    126.6418   1.3564624403e+02   4.6155940679e+01    0.3440762    0.2407372  16.56  0.001833467    1.923    0.480
       231 -10.5955      9.4866    127.0404   1.4119238618e+02   4.7804091031e+01    0.1883307   0.09180338 -70.72   0.00102898    1.581    0.367
       232 -10.4509    209.7789    125.6810   9.1076400470e+01   1.3324942340e+01    0.2849559    0.2604854 -34.87 0.0005189141    1.078    0.073
       233  -8.5798     85.3022    126.6989   1.2095274091e+02   3.9386176672e+01    0.1424771    0.1083953  83.39 0.0007003667    1.588    0.370
       234  -9.0122    234.2755    125.3494   8.6584924365e+01   7.9933137319e+00    0.1452586     0.113034  -4.03 0.0003261284    1.635    0.388
       235  -9.5868    106.0039    127.7770   1.1562860449e+02   3.5609714725e+01    0.3671455    0.1780612 -55.84 0.0008691245    2.056    0.514
       236 -11.0058     55.0028    120.8387   1.2810380343e+02   4.4950415074e+01    0.2778741    0.2007599  29.71  0.001348709    1.636    0.389
       237 -12.5647      9.8811    119.0470   1.4004202135e+02   4.9557055465e+01    0.3632835    0.3407417 -48.46  0.002389172    1.277    0.217
       238 -11.9755     31.0594    117.3675   1.3410758325e+02   4.8253741586e+01    0.4039221    0.2673695 -44.03  0.001482734    1.495    0.331
       239 -11.4725     15.3791    114.5756   1.3794305454e+02   5.0161769412e+01    0.3012944    0.1852697 -66.67 0.0002994057    1.264    0.209
       240  -9.4096    143.6856    180.9930   1.1744680546e+02   1.6172731557e+01    0.2110867    0.1973174 -67.71  0.001175536    1.103    0.093
       241 -11.3056    168.0860    113.2794   9.6606098738e+01   2.5559169038e+01    0.3796539    0.3154453 -80.94 0.0006411844    1.388    0.280
       242 -11.5161     42.8926    237.3648   1.4507672435e+02   2.0618296527e+01    0.2625899    0.2010912 -83.70 0.0001489714    1.273    0.215
       243 -10.6776     65.0061    111.9755   1.2345600538e+02   4.5734163045e+01    0.2069541    0.1811648 -52.08 0.0003242429    1.032    0.031
       244  -9.5369    203.7686    111.4259   8.8751675338e+01   1.7464824085e+01    0.2141434    0.1434541  41.35 0.0009401882    1.640    0.390
       245  -8.7522     83.6722    111.2761   1.1793249067e+02   4.3200662778e+01    0.1386338    0.1095101  80.07 0.0002994648    1.591    0.371
       246 -10.5227     69.9220    111.0516   1.2183259845e+02   4.5280679743e+01    0.2001904     0.199182  -7.52            0    1.125    0.111
       247 -11.0545     56.1859    110.3721   1.2566584851e+02   4.7210593796e+01    0.3516587    0.2166569   3.25  0.001437964    2.691    0.628
       248 -10.7523     31.6775    110.4911   1.3274860169e+02   4.9751564199e+01    0.2612067     0.176689  70.60 0.0009526039    1.923    0.480
       249 -11.3290     27.7585    106.3342   1.3312832106e+02   5.1023609369e+01    0.2626241    0.2242239 -46.10  0.001439986    1.158    0.136
       250 -10.3169     13.4908    107.9985   1.3745662835e+02   5.1753421111e+01    0.1824614   0.09322112 -66.06 0.0004257502    1.518    0.341
       251  -9.7823     62.5084    107.0985   1.2310918982e+02   4.7165615729e+01    0.2120954     0.119725 -56.91  0.001024102    1.568    0.362
       252  -9.4292    114.3507    107.0820   1.0830571543e+02   3.8707143597e+01    0.2086513    0.1861156 -54.78 0.0004969136    1.101    0.092
       253  -9.6430    134.7587    105.2306   1.0244555269e+02   3.4866867482e+01     0.256385    0.1247823 -34.13 0.0008981597    2.478    0.596
       254  -8.8457     21.9433     98.0052   1.3331962107e+02   5.3327838244e+01    0.1451619    0.1142036 -58.08            0    1.005    0.005
       255  -8.6247     44.6633     90.2520   1.2470651447e+02   5.2956678908e+01    0.1157168    0.0959469  75.04 0.0002698371    1.566    0.361
       256 -12.4026    245.3428    163.4714   9.3105499866e+01  -9.8622212237e-01    0.5813345    0.4932965 -46.91  0.003367322    1.268    0.211
       257  -8.9166    123.9986     51.0351   8.9028321405e+01   4.7234269689e+01    0.1657813     0.156161  20.22            0    1.016    0.016
       258  -9.4302    193.0886    249.1858   1.1885909479e+02  -5.3218883420e+00    0.1879978    0.1485072  19.38  0.001052266    1.238    0.192
       259 -10.2798    169.5260    248.8064   1.2320199328e+02  -1.2533597186e+00    0.3027978    0.1901907  17.38 0.0008986788    2.367    0.577
