#   1 NUMBER                 Running object number                                     
#   2 MAG_AUTO               Kron-like elliptical aperture magnitude                    [mag]
#   3 X_IMAGE                Object position along x                                    [pixel]
#   4 Y_IMAGE                Object position along y                                    [pixel]
#   5 X_WORLD                Barycenter position along world x axis                     [deg]
#   6 Y_WORLD                Barycenter position along world y axis                     [deg]
#   7 A_WORLD                Profile RMS along major axis (world units)                 [deg]
#   8 B_WORLD                Profile RMS along minor axis (world units)                 [deg]
#   9 THETA_WORLD            Position angle (CCW/world-x)                               [deg]
#  10 FWHM_WORLD             FWHM assuming a gaussian core                              [deg]
#  11 ELONGATION             A_IMAGE/B_IMAGE                                           
#  12 ELLIPTICITY            1 - B_IMAGE/A_IMAGE                                       
         1 -15.1953      8.2497    148.3388   1.4329051441e+02   4.3047693212e+01     6.293472      1.82811 -82.10   0.02425051    3.522    0.716
         2 -14.6281     40.1352    224.0236   1.4270664669e+02   2.4001508125e+01     5.376065     1.270251  36.93  0.007397251    3.790    0.736
         3 -13.5988    210.8784     10.5555   6.0801415702e+01   3.0949769223e+01     1.290048    0.9817857  36.67  0.007350486    1.657    0.396
         4 -11.8743      2.3507      5.6022   1.1532969314e+02   7.3470432304e+01    0.7195904    0.1948006 -46.65  0.003396509    2.843    0.648
         5 -13.3448    195.6597     30.1455   6.7714650333e+01   3.2485086689e+01     1.329315     1.321235  43.50  0.006817752    1.130    0.115
         6  -9.5589     46.9880    249.4908   1.4321145365e+02   1.8616565062e+01    0.1545182   0.08408456  45.13 0.0003716007    1.532    0.347
         7 -11.8428    246.0142    246.8170   1.0797517348e+02  -9.9184632989e+00    0.5508729     0.306044  12.70  0.003324237    1.799    0.444
         8 -12.0065    122.4703    250.0000   1.3011064551e+02   8.2331172564e+00    0.8802935    0.1901611  36.71  0.002675998    5.772    0.827
         9 -10.9115     97.1248    245.8209   1.3424199127e+02   1.2636881041e+01     0.309174    0.1899721 -73.99  0.001935856    1.890    0.471
        10  -9.4388     66.8511    250.1186   1.3991015489e+02   1.6045302178e+01    0.1688101    0.1098598  62.94 0.0002625229    1.205    0.170
        11 -10.6619     28.9900    250.0118   1.4617573737e+02   2.0586150330e+01    0.3380261    0.1449702  39.39  0.002062677    2.135    0.532
        12  -9.6956     30.3012    246.6734   1.4578597944e+02   2.1014861538e+01    0.2218189    0.1052776  57.86  0.001401241    1.581    0.367
        13 -11.3272     35.2516    244.1949   1.4483507801e+02   2.0892834755e+01     0.475954    0.3230951 -82.23  0.003417898    1.428    0.300
        14 -11.0837     12.4560    249.8610   1.4877190157e+02   2.2353776784e+01    0.5999849    0.1947104  34.59  0.003154624    3.400    0.706
        15 -10.8758      2.8154    248.2659   1.5018625746e+02   2.3574543004e+01    0.3230195    0.1989559 -86.34  0.002550331    1.431    0.301
        16 -10.5385    216.0014    248.4853   1.1325986886e+02  -5.8758340200e+00    0.1829576   0.09099287  36.16  0.001041156    1.618    0.382
        17 -11.0476    106.8004    246.6428   1.3258309217e+02   1.1097644470e+01    0.2367523    0.1726872  49.79  0.001613104    1.089    0.082
        18 -10.7044    198.3840    245.7551   1.1592338398e+02  -2.9113537638e+00     0.191126    0.1439211 -13.32 0.0009786504    1.490    0.329
        19 -10.7994    101.0052    245.9857   1.3356116877e+02   1.2050375052e+01    0.2284963    0.1745487 -72.64  0.001209178    1.496    0.331
        20 -10.4432      1.8663    240.7411   1.5003590460e+02   2.4961188009e+01     0.318481   0.08451676 -79.07  0.001633048    3.270    0.694
        21 -12.0107     11.8327    240.4408   1.4844975475e+02   2.4044535311e+01    0.4315308    0.2006336  76.55  0.002224418    1.778    0.438
        22 -10.3338     19.8228    242.8893   1.4728459021e+02   2.2798389995e+01    0.1855688     0.107144  60.53 0.0005823739    1.263    0.208
        23 -11.2194    234.7989    239.3351   1.0865735082e+02  -7.5419928989e+00    0.3079774    0.1755791 -50.12  0.001571563    3.509    0.715
        24  -9.6195    185.6548    239.2992   1.1726371602e+02  -8.7454107036e-02     0.115192   0.08678105  58.78            0    1.677    0.404
        25 -11.2553    119.7666    238.2538   1.2931508477e+02   1.0523756665e+01    0.2940283    0.1812145  85.99  0.001566092    2.424    0.587
        26 -10.7234     50.4325    234.7678   1.4163496794e+02   2.0791200156e+01    0.2426437    0.1738183 -69.73  0.001729516    1.556    0.357
        27 -11.7851    140.4336    249.8529   1.2685856539e+02   5.5175023635e+00     0.470792    0.1686857  41.60  0.002227087    2.197    0.545
        28 -10.7888    151.0180    229.4726   1.2231869751e+02   6.9720520370e+00    0.2574281    0.1049412  37.76  0.001159852    2.172    0.540
        29 -12.7951      9.4119    207.0784   1.4717407412e+02   3.0497200942e+01    0.7192992    0.5494261  36.83  0.004042339    1.626    0.385
        30 -10.0992      7.0045    215.0231   1.4802427144e+02   2.9181691147e+01    0.1739367    0.1257888  60.13  0.000485674    1.203    0.169
        31  -8.7739    152.5323    212.9765   1.1965313355e+02   9.4445099820e+00    0.1647808    0.1300607 -49.90 0.0003192864    1.459    0.315
        32  -9.5576     34.7333    202.4777   1.4213425078e+02   2.8841496177e+01    0.1877278    0.1463858  85.24 0.0006103342    1.085    0.078
        33 -11.5026     61.1648    197.9336   1.3644737739e+02   2.6610827806e+01    0.2711528    0.2283899 -54.56 0.0005425559    1.495    0.331
        34  -9.8754    195.0195    198.8208   1.0895743916e+02   4.3177098695e+00    0.3971191    0.2184372 -61.72  0.001470493    4.282    0.766
        35 -11.8270     67.3514    189.7396   1.3427324830e+02   2.7518050299e+01    0.2652029    0.2296129 -65.30 0.0004569255    1.300    0.231
        36 -10.8860     77.4526    177.1381   1.3050033884e+02   2.8845510057e+01    0.2375559    0.2099889 -83.14 0.0004105337    1.099    0.090
        37 -13.1664     64.2490    175.0873   1.3322779147e+02   3.1122459894e+01    0.4822859    0.2713411 -46.85   0.00167181    2.253    0.556
        38  -9.2622     97.9105    173.6445   1.2531735949e+02   2.6492944798e+01    0.2663979    0.1766891 -47.62  0.001357393    1.692    0.409
        39 -11.8004     84.8680    167.8385   1.2747221444e+02   2.9821535862e+01     0.596366    0.5425736 -74.90  0.003696457    1.117    0.105
        40 -12.6715     34.4835    231.7352   1.4421318767e+02   2.3209051065e+01    0.2648114    0.2229658 -86.95 0.0007522931    1.337    0.252
        41  -9.8081     97.8132    152.0930   1.2174073574e+02   3.1343924744e+01    0.2896047    0.2575673 -43.36 0.0008680272    1.251    0.201
        42 -12.0291     86.2879    151.1972   1.2445976199e+02   3.3402132908e+01    0.2939607    0.2407925 -48.08 0.0006816729    1.316    0.240
        43 -12.3573     67.4239    143.6734   1.2800876798e+02   3.7906696590e+01    0.7440472    0.4577441  65.00  0.002732556    1.902    0.474
        44  -8.3855    192.0170    144.2399   9.8447797490e+01   1.4394907897e+01    0.1772436    0.1224775  44.24 0.0002637435    1.450    0.310
        45  -9.6369    109.6439    136.9785   1.1578936249e+02   3.2749735190e+01    0.3622049    0.2335022 -28.47  0.001528798    2.241    0.554
        46 -10.3998     96.6529    134.4054   1.1863530430e+02   3.5624558773e+01    0.2587223     0.226909 -31.15 0.0003406465    1.306    0.234
        47 -10.9315    162.5057    248.8142   1.2274938775e+02   2.2408554458e+00    0.2390459    0.1423395  39.95  0.001436794    1.333    0.250
        48 -11.1958     56.7039    130.4175   1.2866515334e+02   4.2430649156e+01     0.531967    0.2432994 -76.76  0.002085294    2.762    0.638
        49 -10.4685     32.4805    132.1490   1.3546348370e+02   4.4679835813e+01    0.2019269    0.1545399  71.96 0.0007218427    1.310    0.237
        50  -8.9149    106.6815    123.8951   1.1368594466e+02   3.6285766947e+01    0.1948595    0.1752679 -61.65 0.0003409286    1.069    0.064
        51  -9.5255     79.8171    131.8927   1.2263629295e+02   3.8909829083e+01    0.2341586    0.1871975  68.65 0.0006665139    1.335    0.251
        52 -10.1904    167.8726    112.9164   9.5890743335e+01   2.5766589242e+01    0.3454717    0.2820971 -78.66 0.0008542885    1.512    0.339
        53  -8.9610    203.4817    111.5018   8.8367762161e+01   1.7890511861e+01    0.1497758    0.1413063 -13.57 8.373664e-05    1.051    0.049
        54 -10.0953    228.4888    227.9838   1.0789529781e+02  -5.2711474765e+00    0.2055049    0.1967934  82.36  0.001319356    1.716    0.417
        55 -10.5286    230.6599    231.3598   1.0807625243e+02  -6.0063991031e+00    0.2605954    0.2004651 -54.39  0.001252393    2.261    0.558
        56  -8.9252    184.5283     77.4703   8.2835477042e+01   2.8346917008e+01    0.1491161    0.1470835 -14.16 6.835373e-05    1.047    0.045
        57  -9.8724     43.6346     67.7717   1.1910444720e+02   5.8299610639e+01    0.2681764    0.1986037  50.70 0.0008984529    1.762    0.433
        58  -9.3609     32.3895     62.3125   1.2180564668e+02   6.0598361102e+01    0.1861366    0.1435796  50.77 0.0007980552    1.724    0.420
        59 -10.6948     15.1827     55.3411   1.2671592591e+02   6.3456797761e+01    0.2028115    0.1984388  12.44 0.0006999816    1.297    0.229
        60 -10.2323    173.4169    222.2365   1.1699874684e+02   4.3826757742e+00    0.2607985    0.1552021  38.92  0.001420639    1.430    0.301
        61  -9.0375     88.7548    248.9953   1.3601896949e+02   1.3293621425e+01    0.1274601    0.0907355 -75.82  0.000370606    1.556    0.357
        62 -10.1775     81.5529    248.8315   1.3726809193e+02   1.4312136018e+01    0.1930842    0.1056738  49.24 0.0008527631    1.416    0.294
