#   1 NUMBER                 Running object number                                     
#   2 MAG_AUTO               Kron-like elliptical aperture magnitude                    [mag]
#   3 X_IMAGE                Object position along x                                    [pixel]
#   4 Y_IMAGE                Object position along y                                    [pixel]
#   5 X_WORLD                Barycenter position along world x axis                     [deg]
#   6 Y_WORLD                Barycenter position along world y axis                     [deg]
#   7 A_WORLD                Profile RMS along major axis (world units)                 [deg]
#   8 B_WORLD                Profile RMS along minor axis (world units)                 [deg]
#   9 THETA_WORLD            Position angle (CCW/world-x)                               [deg]
#  10 FWHM_WORLD             FWHM assuming a gaussian core                              [deg]
#  11 ELONGATION             A_IMAGE/B_IMAGE                                           
#  12 ELLIPTICITY            1 - B_IMAGE/A_IMAGE                                       
         1 -13.8042    246.1459      5.5357   1.3703151882e+01   2.2394807921e+01    0.9819671     0.676927 -53.60   0.00557211    1.312    0.238
         2 -14.0577    239.7919     41.4498   2.3141879520e+01   1.9613019504e+01    0.9138999    0.5736983 -33.16  0.004485446    1.530    0.346
         3 -12.1324      1.6053     24.6278   8.1900850846e+01   6.9082000242e+01    0.4291926    0.1060952 -59.45  0.001855678    3.288    0.696
         4 -13.4769     12.9341     22.1563   7.6005690020e+01   6.8858472608e+01    0.7060692    0.1692527 -42.41  0.003090595    3.004    0.667
         5 -13.4471      7.1696      9.9910   7.4154029043e+01   7.1313162006e+01    0.7356998    0.2728319 -39.36  0.004080117    1.992    0.498
         6 -12.2877     13.7370     11.9811   7.1766673955e+01   7.0530281172e+01    0.3230488    0.1262271 -45.26  0.001750022    1.925    0.480
         7 -12.8434     16.2069      5.9702   6.7986705369e+01   7.1290783910e+01     0.373647    0.1848994 -30.14  0.002154584    1.668    0.400
         8 -14.7235    248.4736     33.5079   2.0200986021e+01   1.8559895554e+01     1.815137    0.6098115 -30.41  0.004741037    2.799    0.643
         9 -12.2313     25.9288      3.9761   6.2352637688e+01   7.0701323066e+01     0.324035    0.1757293 -17.19  0.001900373    1.848    0.459
        10 -12.7467    180.1129      5.2976   2.0576185080e+01   3.9221200205e+01    0.4496662     0.114294  60.48  0.001510822    2.995    0.666
        11 -11.7543    194.5034      1.5358   1.7688059362e+01   3.5801102196e+01    0.3059941    0.1244854  70.85  0.001221677    2.213    0.548
        12 -11.9232     20.1334     13.2820   6.9274209063e+01   6.9813502172e+01    0.3514912   0.09949765 -39.40  0.001583788    2.787    0.641
        13 -11.2250     49.7089    243.3064   9.8790356497e+01   2.0624491057e+01    0.1632364    0.1004498  89.99 0.0005916236    1.442    0.306
        14 -12.4033    248.7267    225.0209   6.2549548548e+01  -8.1263847657e+00    0.3208082    0.1959904 -12.24  0.001950525    1.771    0.435
        15 -12.8812    234.6714    244.0962   6.7898575973e+01  -7.9272930244e+00    0.3943219    0.2200651  18.51  0.002303624    1.889    0.471
        16 -13.3135    244.4152    233.1850   6.4596792915e+01  -8.3136188379e+00    0.5781054    0.2327911 -18.68   0.00252129    3.939    0.746
        17 -12.4072    247.6938    238.8764   6.4964190693e+01  -9.3959225426e+00    0.3684618    0.2271844   8.67  0.001884408    1.654    0.395
        18 -11.7800    250.0851    232.7355   6.3594204657e+01  -9.1415559120e+00    0.3240775    0.2104444   0.27   0.00179237    1.565    0.361
        19 -12.8330    243.2852    245.5757   6.6716201031e+01  -9.3903302241e+00    0.5277365    0.2910287   2.41  0.002989036    2.365    0.577
        20 -11.4179    249.1573    244.9287   6.5668602284e+01  -1.0206172143e+01    0.2910611    0.1893301  22.15  0.002004426    1.210    0.174
        21 -11.6846    248.8959    250.0043   6.6482322700e+01  -1.0646756514e+01    0.5424651    0.1453719  38.06  0.002455798    2.842    0.648
        22 -10.9464     87.7918    250.5589   9.3297642479e+01   1.4479710756e+01    0.2679071   0.07670192  45.39  0.001294208    2.583    0.613
        23 -11.3779     75.0524    250.3605   9.5306705309e+01   1.6256731294e+01    0.3194481   0.08984437  48.33  0.001600378    2.510    0.602
        24 -11.9780     65.9892    249.2158   9.6646212926e+01   1.7631093758e+01    0.3025666    0.1551393  58.27 0.0009834938    1.436    0.304
        25 -11.7597     51.1393    250.1854   9.8991341767e+01   1.9342006564e+01    0.3814828    0.1034438  46.31   0.00201546    2.596    0.615
        26 -11.6198     44.9917    245.0054   9.9617730859e+01   2.0912811651e+01    0.2983319    0.1610158  64.31  0.001272324    1.355    0.262
        27 -12.2718     37.2458    248.9379   1.0100273017e+02   2.1180370871e+01    0.3587206    0.1513529  62.48   0.00130103    1.791    0.442
        28 -11.9000     20.6395    249.1927   1.0343411048e+02   2.2965216905e+01    0.2982781    0.1246827  59.42  0.001265764    1.666    0.400
        29 -11.9639     12.4162    249.0008   1.0459234287e+02   2.3846390872e+01    0.2989758    0.1289673  59.44  0.001283441    1.584    0.369
        30 -11.3980      3.8545    250.2422   1.0583033574e+02   2.4499239319e+01    0.2499635    0.1568298  36.02  0.001769625    2.231    0.552
        31 -12.6331      3.6186    243.0630   1.0559444224e+02   2.5667102770e+01    0.3421606    0.1658348  71.30  0.001269975    1.436    0.304
        32 -10.8781    136.2341    245.3981   8.4779889349e+01   7.9464479425e+00    0.1747016   0.08238942  51.49 0.0009531284    1.683    0.406
        33 -11.9849     29.7696    240.6460   1.0168080781e+02   2.3367276841e+01    0.3268468    0.1540904  69.11  0.001293374    1.649    0.393
        34 -12.4685     16.5678    240.5673   1.0363366231e+02   2.4785242158e+01    0.4846346    0.1570047  55.85  0.002482572    2.155    0.536
        35 -11.5069    225.9905    240.9808   6.8867767095e+01  -6.2386171331e+00    0.1924724    0.1153044  18.36  0.001142359    1.738    0.425
        36 -11.8247    108.0528    240.3314   8.9054423743e+01   1.3118361090e+01    0.3609506     0.153428  54.49  0.001911549    1.954    0.488
        37 -11.7302     73.3170    240.3941   9.4840382148e+01   1.8085856907e+01    0.2780024    0.1393981  59.84  0.001117226    1.577    0.366
        38 -10.8302     65.0441    240.2274   9.6165407518e+01   1.9205947134e+01    0.1960776    0.1234679  80.75 0.0007534022    1.379    0.275
        39 -11.2390     38.5895    240.5863   1.0033996164e+02   2.2384779673e+01    0.2209421    0.1180739  67.37 0.0007894677    1.397    0.284
        40 -10.7047    129.8801    240.3672   8.5321508601e+01   9.7059987059e+00    0.2442977   0.07819612  49.73  0.001082594    2.519    0.603
        41 -11.0056    121.1897    239.1670   8.6691075781e+01   1.1268781387e+01    0.1703009    0.1088464  61.41  0.001077521    1.354    0.261
        42 -11.5335     45.3956    237.3057   9.9090421812e+01   2.2135291990e+01      0.27308    0.1366458  62.41  0.001022994    1.516    0.340
        43 -11.8116     82.9646    236.9015   9.2970483126e+01   1.7336593339e+01    0.3012892     0.156878  60.30  0.000740776    1.570    0.363
        44 -11.9091      6.7763    236.1826   1.0486924889e+02   2.6487626543e+01    0.2992955    0.1384694  76.03   0.00105666    1.621    0.383
        45 -12.0636      5.0421    228.3072   1.0479226725e+02   2.7976326850e+01    0.3358978     0.148745  72.02  0.001249994    1.701    0.412
        46 -12.0103      2.1966    220.6848   1.0489158870e+02   2.9553071682e+01    0.2840776     0.131259  88.14  0.001028024    1.676    0.403
        47 -11.5568     96.5254    235.6812   9.0575138195e+01   1.5588132711e+01    0.2672034    0.1620149  63.60 0.0008244338    1.387    0.279
        48 -10.9258     33.2997    236.5575   1.0092433962e+02   2.3655866366e+01    0.2183524    0.1026987  68.39 0.0007997772    1.687    0.407
        49 -11.9634    231.6400    234.3417   6.6903842681e+01  -6.4211136469e+00     0.245387    0.1388048  15.63  0.001347897    2.052    0.513
        50 -10.2797     67.3260    234.4496   9.5367402881e+01   1.9870485911e+01    0.1835272    0.1010314  77.61 0.0009111722    1.718    0.418
        51  -9.8707      1.2169    234.9922   1.0562455695e+02   2.7215983081e+01    0.1198073   0.05747995 -86.93 0.0008633621    1.659    0.397
        52 -10.8037    237.6791    234.3209   6.5892479722e+01  -7.3785158646e+00    0.1023408   0.08771243  55.37 0.0007044522    1.671    0.402
        53 -11.7495     14.3774    232.0302   1.0356518797e+02   2.6430868471e+01    0.3096364    0.1459098  65.37  0.001431309    1.547    0.353
        54 -11.5147     11.3530    225.8404   1.0373233295e+02   2.7788297255e+01    0.2914649    0.1378201  70.21   0.00106831    1.588    0.370
        55 -10.3881    111.3187    233.6513   8.7828460650e+01   1.3681162533e+01    0.1233127   0.07251917  68.56   0.00070484    1.734    0.423
        56 -11.6582     60.6888    232.3430   9.6301346218e+01   2.1088659361e+01    0.2672056    0.1439284  57.94  0.000775558    1.415    0.293
        57 -11.2769     48.7209    230.5730   9.8127712029e+01   2.2879761736e+01    0.2728119     0.136991  78.15  0.001009828    1.833    0.454
        58 -12.2279     26.1455    228.2866   1.0157664308e+02   2.5846875447e+01    0.3928141    0.1869926  85.35  0.001512101    1.798    0.444
        59 -10.9096    104.2686    230.1494   8.8703434728e+01   1.5337509064e+01    0.2102401    0.1386052  81.09  0.001157687    1.582    0.368
        60 -10.5955     88.5188    230.0130   9.1426144214e+01   1.7697750805e+01    0.1539487    0.1027065 -76.22 0.0007708803    1.575    0.365
        61 -10.8085     32.6479    229.4815   1.0062499769e+02   2.4931225327e+01    0.2183953    0.1149695  70.86 0.0007824752    1.476    0.322
        62 -10.9382     96.6834    228.4482   8.9862204082e+01   1.6765328488e+01    0.2340392    0.1494031  69.45 0.0006458946    1.415    0.293
        63 -10.6319     82.0191    229.0145   9.2453814085e+01   1.8793222845e+01    0.1917486    0.1039237  68.06 0.0009062143    1.720    0.418
        64 -11.4990     40.1004    231.0039   9.9537284272e+01   2.3824620785e+01    0.2898789    0.1521151  74.90  0.001190997    1.577    0.366
        65 -11.4268    236.8040    228.0292   6.5031099626e+01  -6.5576984925e+00    0.1945931    0.1166043   6.71  0.001089902    1.983    0.496
        66 -10.3432    117.9830    228.4850   8.6106866376e+01   1.3471685599e+01    0.1727637   0.07703903  59.59 0.0007306103    2.375    0.579
        67  -9.9804    109.6751    228.3197   8.7563651538e+01   1.4807737262e+01    0.1240571   0.07354994  67.63 0.0003855238    1.677    0.404
        68 -10.9318     73.7871    227.7319   9.3750830369e+01   2.0152392377e+01    0.2213262    0.1333359  67.58 0.0008160027    1.378    0.274
        69 -10.1425     86.4978    223.4882   9.1174781007e+01   1.9108701350e+01     0.118501   0.08765973  66.35 0.0001060304    1.043    0.041
        70 -10.4601     78.2175    222.8110   9.2563440384e+01   2.0400186308e+01    0.1822699    0.1192445  67.62 0.0006846284    1.244    0.196
        71 -11.5478     19.1084    221.8708   1.0233485281e+02   2.7700912270e+01    0.2543398    0.1354104  68.48 0.0009543613    1.394    0.282
        72 -10.2412    101.5719    221.7692   8.8322941168e+01   1.7166675089e+01    0.1524388    0.1014203 -87.82 0.0006724893    1.611    0.379
        73 -10.5957     55.2501    221.9521   9.6439100066e+01   2.3585471780e+01    0.1750416     0.111296  72.10 0.0006941301    1.238    0.193
        74 -11.0848     44.1620    221.3649   9.8253982541e+01   2.5035061555e+01    0.2497305    0.1352186  61.19 0.0009923864    1.431    0.301
        75 -10.1027     70.6811    221.3351   9.3746607320e+01   2.1692939711e+01    0.1219592   0.06565775  68.91 0.0003330925    1.700    0.412
        76 -10.4992     63.9099    221.1661   9.4902191658e+01   2.2620288020e+01    0.1784044    0.1118895  67.06 0.0005171258    1.265    0.210
        77 -11.5801     35.5204    216.9965   9.9397929398e+01   2.6810750553e+01     0.259622    0.1548756  86.69  0.001061019    1.367    0.268
        78 -12.1160     12.3229    216.9438   1.0314952162e+02   2.9249208583e+01    0.3620377    0.1730221  58.49  0.001683588    1.584    0.369
        79 -10.7644     24.5159    217.2029   1.0121452505e+02   2.7967889087e+01     0.206826    0.1073848  67.96 0.0006972097    1.488    0.328
        80 -12.5852    248.3458    214.9033   6.0890592012e+01  -6.9562437120e+00    0.3433169    0.1907239 -16.83  0.001906809    2.012    0.503
        81  -9.7948     49.3261    217.7108   9.7129050794e+01   2.5073581705e+01    0.1160323   0.06046284  67.04 0.0004704272    1.613    0.380
        82 -10.0586     86.6860    215.3093   9.0352541486e+01   2.0529991709e+01    0.1239064   0.07197814  68.78 0.0002937106    1.629    0.386
        83 -11.9034      2.5461    212.2358   1.0445993083e+02   3.1008862204e+01    0.2977106    0.1471714  83.20   0.00102367    1.526    0.345
        84 -11.2667      1.4968    205.7301   1.0432157958e+02   3.2274713471e+01    0.2953849    0.1058634 -87.71  0.001252557    2.321    0.569
        85 -10.4182     44.9091    212.7049   9.7518481918e+01   2.6512760213e+01    0.1556993    0.1074309  69.45  0.000496661    1.083    0.077
        86 -10.9774     21.8528    210.9110   1.0128431880e+02   2.9381666228e+01    0.2557094    0.1300868 -89.12  0.001575115    1.614    0.381
        87  -9.8612    103.3178    212.7033   8.7023232398e+01   1.8489841151e+01    0.1263289   0.07711843  68.26 0.0004914009    1.611    0.379
        88 -10.1734     58.9622    212.0048   9.5016413379e+01   2.4918829680e+01    0.1391687     0.103384  70.24 0.0004902028    1.022    0.022
        89 -11.2178     28.7809    210.9550   1.0013564072e+02   2.8647558217e+01    0.2356879    0.1315175  81.26 0.0007954782    1.443    0.307
        90 -10.3500     67.1579    214.6868   9.3794256940e+01   2.3360622991e+01    0.1874902    0.1051621  61.49 0.0006456216    1.474    0.322
        91 -10.9120     36.5245    208.1443   9.8635586163e+01   2.8318961590e+01    0.2155744     0.118418  68.41 0.0006908728    1.477    0.323
        92 -12.7877     13.1296    204.9821   1.0238808146e+02   3.1335846675e+01    0.5102093    0.2169909  53.62   0.00324792    1.874    0.466
        93 -13.4673      5.9492    191.2948   1.0283772814e+02   3.4563713386e+01     1.028602    0.3604836  84.29  0.005176747    2.826    0.646
        94 -12.5037      3.7362    196.9420   1.0351736218e+02   3.3695104270e+01    0.4022757    0.1845902  83.22  0.001185081    1.741    0.426
        95 -14.6856     17.0056    186.2589   1.0058534177e+02   3.4521383394e+01    0.8888385    0.5899312 -79.72   0.00370165    1.286    0.222
        96  -9.9005     52.4602    206.4526   9.5715660534e+01   2.6766441607e+01    0.1134579   0.08491637  74.26  0.000193886    1.007    0.007
        97  -9.9087     42.4931    206.4562   9.7478228471e+01   2.7954662740e+01    0.1128322   0.08057942  74.00 0.0002200232    1.037    0.036
        98  -9.8930     89.5404    205.5110   8.8811123041e+01   2.1907343685e+01    0.1236637   0.09548924  69.36 7.241496e-05    1.048    0.046
        99 -10.9657     25.8355    203.2487   1.0014381468e+02   3.0387598184e+01    0.2230887    0.1283136  72.57 0.0007267051    1.363    0.266
       100 -10.3744     37.1550    201.8078   9.8074695667e+01   2.9438971209e+01    0.1755839    0.1107829  71.58 0.0006937741    1.242    0.195
       101 -10.2541     31.5026    201.8886   9.9072730743e+01   3.0043665581e+01    0.1555392   0.08582815 -82.84 0.0006752166    1.527    0.345
       102 -10.7291     18.9067    201.3566   1.0120896623e+02   3.1446317677e+01    0.1835741    0.1063399  81.86 0.0006561592    1.327    0.246
       103 -10.0101     53.1596    199.1857   9.4981455305e+01   2.8064324574e+01    0.1652189    0.1031934  71.96 0.0006033899    1.345    0.256
       104 -10.1487     45.1201    199.2006   9.6450117293e+01   2.9026325286e+01    0.1599587    0.0998527  71.69 0.0005251627    1.307    0.235
       105 -10.6384     24.7704    197.6947   9.9965159929e+01   3.1547563908e+01    0.1759518    0.1158824  85.99  0.000469912    1.158    0.137
       106 -10.5037     40.2180    193.9888   9.6927413291e+01   3.0599370751e+01    0.1818862    0.1132012  73.79 0.0006950633    1.316    0.240
       107 -11.0433     29.0311    192.4840   9.8848025866e+01   3.2109060383e+01    0.2097269       0.1144  83.24 0.0006326973    1.548    0.354
       108  -9.7432     52.5060    192.4830   9.4513870245e+01   2.9450752729e+01    0.1171527   0.08929466  77.23 -2.41333e-05    1.006    0.006
       109 -10.3384     33.9538    190.6804   9.7818125424e+01   3.1938028519e+01    0.1571984    0.1130028  72.77  0.000492732    1.081    0.075
       110 -10.5372     39.3100    185.0229   9.6362440506e+01   3.2471997853e+01    0.1633462    0.1177785  85.37 0.0005974647    1.083    0.077
       111 -10.4530     30.5980    184.7046   9.7978552214e+01   3.3474309874e+01    0.1558771   0.08374716 -89.13 0.0008445799    1.583    0.368
       112 -12.0061     30.6357    178.8487   9.7506565599e+01   3.4643994013e+01    0.2076289    0.1328624  58.35 0.0006835552    1.380    0.275
       113 -11.5199      1.8647    177.2542   1.0275046968e+02   3.7623772910e+01    0.2469912    0.1144647 -85.10 0.0006052742    1.660    0.398
       114 -11.0109      9.1264    177.6278   1.0145316487e+02   3.6935385897e+01    0.1837945    0.1078953  86.67 0.0005671972    1.293    0.226
       115 -10.9654    248.5287    177.0350   5.3784664410e+01  -2.3255925410e+00    0.1739987    0.1070824 -51.54 0.0008099258    2.646    0.622
       116 -13.1270     39.9128    167.9414   9.4699577014e+01   3.5902470396e+01    0.4969026    0.2546167 -89.02  0.002717481    1.869    0.465
       117 -11.0122      6.7229    170.8863   1.0145941830e+02   3.8481741248e+01    0.2431577    0.1276542 -85.32 0.0008823206    1.462    0.316
       118 -12.5335     36.8636    172.1021   9.5707124661e+01   3.5366933906e+01    0.2777429    0.1810843  87.36 0.0008383912    1.264    0.209
       119 -11.8332     28.7774    170.4948   9.7174382024e+01   3.6536681291e+01    0.2299912    0.1417091  84.90 0.0008484854    1.343    0.255
       120 -10.1728      1.4533    169.9890   1.0238625126e+02   3.9091380583e+01    0.1608112    0.0782269 -80.84  0.000584968    1.563    0.360
       121 -12.4350     23.9907    185.9988   9.9298115829e+01   3.3892740978e+01    0.4183596    0.1998331 -78.83  0.001508936    1.733    0.423
       122 -11.0421     32.9331    166.7204   9.6008045437e+01   3.6896497958e+01    0.1616277    0.1239744  80.48 0.0005866063    1.050    0.047
       123 -10.3770     11.0264    166.9411   1.0036850638e+02   3.8912465362e+01    0.1823239   0.09450565  70.83 0.0009277944    1.702    0.412
       124 -10.8408      2.0070    165.0028   1.0196516868e+02   4.0045072682e+01    0.2998973    0.1196968  66.70  0.001531967    2.417    0.586
       125 -12.7055     40.8796    174.3153   9.5108843181e+01   3.4472659736e+01    0.3163942    0.1912066  60.36  0.001401321    1.480    0.324
       126  -9.9778     51.6794    164.3446   9.1872862669e+01   3.5322550806e+01    0.1303347   0.07574201  73.48 0.0006073419    1.728    0.421
       127 -10.0319     11.5006    172.5100   1.0067010604e+02   3.7747275004e+01    0.1107484   0.07822549  82.30 0.0008102506    1.042    0.040
       128 -10.3598     12.3753    161.2404   9.9681964457e+01   3.9962510590e+01    0.1569809   0.07936265 -88.69 0.0005906973    1.620    0.383
       129 -10.5655      5.9339    160.9514   1.0093192778e+02   4.0554007332e+01    0.1719688     0.119243  83.95 0.0006608325    1.076    0.071
       130 -11.1209    250.3085    200.3446   5.7958066185e+01  -5.5865592649e+00    0.1937315    0.1188931 -20.99  0.001102086    1.669    0.401
       131  -9.8579     20.4808    155.4637   9.7558236890e+01   4.0455534339e+01    0.1146338    0.0854868  87.45 0.0002040168    1.025    0.024
       132 -10.9154     10.4120    155.2041   9.9609403281e+01   4.1373869679e+01    0.1614729    0.0803539 -89.05 0.0009069191    1.664    0.399
       133 -10.8786      4.3137    152.5479   1.0064527989e+02   4.2406166183e+01    0.2007004   0.07581236 -76.86  0.001081688    2.019    0.505
       134 -10.7347    249.2520    151.2428   4.8283027151e+01   1.1299548603e+00    0.2015706    0.1141132  58.80 0.0008863524    2.425    0.588
       135  -9.8679     16.5496    150.5224   9.7948140941e+01   4.1840914087e+01     0.114458   0.08418573  88.09 0.0001582645    1.042    0.041
       136 -11.3388      5.0307    146.9718   1.0007115688e+02   4.3509517984e+01    0.1775214   0.09761956  73.34 0.0006270976    1.643    0.391
       137  -9.9126     32.3626    145.2015   9.3983322902e+01   4.1535756217e+01    0.1658009   0.09059538 -83.80 0.0004470663    1.617    0.382
       138  -9.9598     13.4798    145.4543   9.8155184451e+01   4.3168057363e+01    0.1140466   0.08379944  88.05 0.0001118093    1.056    0.053
       139 -10.8138      2.2940    143.0081   1.0033380964e+02   4.4537955100e+01    0.1619881    0.1055211 -84.01  0.000657681    1.134    0.118
       140  -9.3343     35.6851    139.3165   9.2557732241e+01   4.2492342838e+01    0.1241365   0.07618497  74.66 0.0003687681    1.647    0.393
       141  -9.9581    227.6064    137.7632   4.9034010378e+01   7.5917135827e+00    0.1496796    0.1024784  23.03 0.0006916227    1.656    0.396
       142 -11.7384      4.1727    136.3812   9.9385873473e+01   4.5796482838e+01    0.2214411    0.1229137 -84.32  0.000821521    1.391    0.281
       143 -10.1453     13.7042    136.3163   9.7262507505e+01   4.5097599469e+01    0.1157484   0.06830729  75.08 0.0002447552    1.606    0.377
       144  -9.8076      8.6536    136.7280   9.8428325740e+01   4.5396893072e+01     0.103689    0.0719563 -52.87  0.000307639    1.622    0.383
       145 -10.5527    248.5103    135.5037   4.4918326555e+01   3.5974001069e+00    0.1388953    0.1260404  -4.98 1.491137e-05    1.021    0.021
       146  -9.6101     64.5335    135.5322   8.5141185143e+01   4.0052003554e+01      0.12997    0.1099673 -85.06 0.0001616751    1.023    0.023
       147 -10.3270     10.2984    132.6460   9.7680301091e+01   4.6145350929e+01    0.1181213   0.06709122  75.48  0.000703588    1.697    0.411
       148 -11.4986      2.6261    126.5759   9.8864731392e+01   4.7982614142e+01    0.2260609    0.1265543  88.35 0.0007843524    1.513    0.339
       149 -10.0551     13.5015    125.9703   9.6266189674e+01   4.7342689971e+01    0.1611392   0.07609551  82.10 0.0006090138    2.356    0.576
       150 -11.3005      7.6020    124.7481   9.7533519300e+01   4.8034586508e+01    0.1610232   0.08347844 -85.14 0.0006344173    1.609    0.378
       151 -10.1194     52.8733    122.1441   8.5964239997e+01   4.4486371713e+01    0.1919332    0.1474574  88.94 0.0004819166    1.251    0.200
       152  -9.7766    211.3098    122.6894   4.8475566611e+01   1.3722109627e+01    0.1481381    0.1199743 -74.66 0.0003402515    1.623    0.384
       153 -13.1609    245.7346    116.9470   4.1073997889e+01   7.0072621427e+00    0.4958597    0.3938971 -17.71  0.001033941    1.223    0.183
       154 -10.0644      8.7194    117.3457   9.6496752140e+01   4.9552463139e+01    0.1153503   0.06933421  78.42 0.0002976906    1.638    0.389
       155 -10.2521      4.3010    115.6589   9.7400163135e+01   5.0208767962e+01    0.1146327   0.06800956  76.39 0.0007037358    1.672    0.402
       156 -11.1710      4.6250    109.7881   9.6688588519e+01   5.1451157776e+01    0.1656535   0.08322794 -83.12 0.0009492147    1.683    0.406
       157 -11.0921    248.2151    107.2166   3.8363171511e+01   7.9771597135e+00    0.1987517    0.1636632 -55.02  0.001067571    1.361    0.265
       158  -9.7456    186.4967    106.5736   4.9302067714e+01   2.2479117596e+01    0.1540825    0.1501839  35.32 4.381712e-05    1.012    0.012
       159 -10.6328      3.4782    104.5134   9.6386305307e+01   5.2656461704e+01    0.1131347    0.0842692 -76.93  0.000596811    1.015    0.015
       160 -13.3085    243.6038     97.5953   3.6741580666e+01   1.0481305390e+01      0.74827    0.3086924 -44.28  0.002793025    2.522    0.603
       161 -10.0690    220.3453    102.6936   4.1843470560e+01   1.5023268029e+01    0.1536072    0.1180175 -72.07 0.0003730165    1.695    0.410
       162 -10.6386    156.0367     95.1231   5.2887006634e+01   3.1990068620e+01    0.3921946     0.197998  30.74   0.00125575    3.200    0.688
       163  -9.9240     32.0153     94.9089   8.7123376309e+01   5.2684617528e+01    0.1469921    0.1136583 -66.12 0.0004297864    1.041    0.039
       164 -11.4022      1.7814     93.4719   9.5506047336e+01   5.5123389779e+01    0.2167238    0.1166839 -72.07 0.0006532852    1.383    0.277
       165 -10.2002    249.3284     87.6994   3.3460668941e+01   1.0716914674e+01    0.1452286    0.1061939 -63.65  0.000436126    1.642    0.391
       166 -10.5414    167.9741     87.4819   4.8026207640e+01   3.0564442116e+01    0.2367868    0.1536675  52.19 0.0005226216    1.527    0.345
       167  -9.8954    107.0512     86.9649   6.3183521201e+01   4.4195418582e+01    0.1677554    0.1616879  40.08 0.0003500436    1.089    0.082
       168 -11.5946    172.4745     84.5468   4.6210945615e+01   2.9988666528e+01    0.2858302    0.2733825  53.37 0.0009208693    1.038    0.037
       169 -10.6262    150.7603     84.4476   5.1082117203e+01   3.5304145558e+01    0.2873646    0.2093774 -39.15 0.0008596033    1.374    0.272
       170  -9.8653    230.6720     82.7051   3.5003064995e+01   1.5809763148e+01    0.1500468    0.1133219  20.95  0.000393253    1.629    0.386
       171 -11.6064      3.0022     80.7917   9.3414314843e+01   5.7762029702e+01    0.2093381    0.1168511 -82.20 0.0007632578    1.652    0.395
       172 -10.7411    184.5051     77.5231   4.1715578278e+01   2.8195651509e+01    0.1541828    0.1528516  60.17 0.0001328466    1.003    0.003
       173 -12.5993    190.4409     72.5685   3.9146287603e+01   2.7514091910e+01     0.513509     0.389287  40.63  0.001085107    1.378    0.274
       174 -11.1475    169.6264     74.0730   4.3757244796e+01   3.2572255121e+01    0.2738501    0.2200836  47.26 0.0004089691    1.229    0.187
       175 -10.0760     24.5134     73.9391   8.5470917223e+01   5.7851483288e+01    0.1794883   0.09465837 -62.26 0.0004144019    1.502    0.334
       176 -10.0935     15.3684     74.1998   8.8476880575e+01   5.8438324039e+01    0.1637225   0.09085484 -73.60 0.0005808565    1.633    0.387
       177 -11.6045      5.2934     72.8145   9.1447993970e+01   5.9327409752e+01    0.1769891    0.1155768 -79.64   0.00075554    1.404    0.288
       178  -9.8071    153.7484     70.9729   4.6332116247e+01   3.7071584772e+01     0.193585    0.1330324 -34.33 0.0003436572    1.473    0.321
       179 -11.4180    199.2352     66.7803   3.5894149333e+01   2.6189817188e+01    0.2865445    0.2625258 -28.70 0.0003743429    1.111    0.100
       180 -10.7447      9.4966     67.9477   8.9223908160e+01   6.0116498372e+01    0.1825712   0.08755253 -65.37  0.001034566    1.596    0.373
       181 -11.6998      3.0359     66.4317   9.1080622405e+01   6.0780421648e+01    0.2621652    0.1397696 -71.40 0.0009930606    1.533    0.348
       182 -12.0233      2.0409     59.1742   9.0086534090e+01   6.2327973245e+01    0.4215796    0.1321928 -73.04  0.001751161    3.444    0.710
       183 -11.0457      7.2785     62.0286   8.8836887362e+01   6.1472030092e+01    0.1680689    0.1144316 -61.40 0.0007895093    1.108    0.098
       184 -12.1690    213.4549     57.5604   3.0973714849e+01   2.3946694950e+01    0.2883426    0.2621734  46.20 0.0004871506    1.146    0.127
       185 -11.2713     11.7132     55.6373   8.5942175235e+01   6.2531600151e+01     0.269774    0.1179706 -58.10   0.00109144    1.661    0.398
       186 -11.1855    233.1372     54.1077   2.7226071001e+01   1.9502137035e+01    0.2141895    0.1973659  25.44 0.0003394396    1.227    0.185
       187 -11.9119    195.2969     53.3199   3.2696893746e+01   2.9284885043e+01     0.279508    0.2740791  89.56 0.0002753695    1.010    0.010
       188 -12.2026    222.3422     52.1028   2.8178133243e+01   2.2478636295e+01    0.3104683    0.2837475  36.88 0.0005119781    1.198    0.165
       189 -12.2870      3.2664     49.1017   8.7581464556e+01   6.4308121832e+01    0.4538559    0.1539628 -60.43  0.002349203    2.048    0.512
       190 -11.1428     16.2338     47.4019   8.2281713123e+01   6.3903629411e+01    0.2771456    0.1258785 -60.80  0.001349975    1.828    0.453
       191 -11.9636    226.0371    248.1970   6.9926919495e+01  -7.0076859350e+00    0.3234355    0.1559011  33.15  0.001849678    1.667    0.400
       192 -11.5162    212.3284    247.8693   7.2154598995e+01  -4.8064114098e+00    0.2906725    0.1547975  16.36  0.001447496    2.828    0.646
       193 -11.9396      2.6583     39.7640   8.5628621285e+01   6.6177605748e+01    0.3464664    0.1312986 -61.43  0.001808775    2.006    0.502
       194 -11.8202     12.7836     35.6557   8.0412594981e+01   6.6400285984e+01    0.2580768    0.1228744 -57.04  0.001284619    1.690    0.408
       195 -11.5395      3.0859     33.4022   8.3796523874e+01   6.7376200004e+01    0.2345339   0.09879977 -47.86  0.001370529    1.660    0.397
       196 -10.7156    110.2179    248.7371   8.9487479864e+01   1.1498550397e+01    0.1877768    0.1053194  58.49 0.0009026735    1.445    0.308
       197 -10.9883     27.2771    248.6248   1.0245024097e+02   2.2343686544e+01    0.2237343    0.1015754  59.53 0.0008891984    1.546    0.353
       198 -10.6054    205.6973     22.7072   2.2335528851e+01   3.0624667826e+01    0.1434573    0.1050819  37.48 0.0002091345    1.572    0.364
       199 -10.9985      8.4989     43.4802   8.4260825599e+01   6.5146830623e+01    0.2354999   0.08597586 -60.62 0.0009588384    2.113    0.527
       200 -11.3495    145.6750    247.9911   8.3461578841e+01   6.0600071141e+00    0.2177047    0.1288681  59.21 0.0009311032    1.594    0.373
       201 -11.6172    201.0363     14.0212   2.0468049326e+01   3.2826855440e+01    0.2433467    0.1560373 -64.54  0.001143839    1.722    0.419
       202 -10.9548    128.1396    247.9207   8.6417250606e+01   8.8641835439e+00    0.1841909    0.1233451  62.74 0.0009635501    1.324    0.245
       203 -11.0910     77.6050    246.7911   9.4636040101e+01   1.6475193095e+01    0.1391924   0.08412602  86.64 0.0006335977    1.635    0.388
       204 -12.1404     97.9373    245.2218   9.1199490364e+01   1.3857408221e+01    0.3829955    0.1481564  52.50  0.002037506    2.008    0.502
       205 -12.2121     84.9090    244.9453   9.3312606196e+01   1.5762267059e+01    0.3109725    0.1575519  63.43  0.001154655    1.713    0.416
       206 -11.8542    116.5990    244.3880   8.8004753714e+01   1.1184832245e+01    0.2777096    0.1436011  59.23  0.001087127    1.721    0.419
       207 -11.8679     58.0158    242.4469   9.7437667575e+01   1.9739586472e+01    0.3524522    0.1623477  60.90  0.001064449    1.706    0.414
