#   1 NUMBER                 Running object number                                     
#   2 MAG_AUTO               Kron-like elliptical aperture magnitude                    [mag]
#   3 X_IMAGE                Object position along x                                    [pixel]
#   4 Y_IMAGE                Object position along y                                    [pixel]
#   5 X_WORLD                Barycenter position along world x axis                     [deg]
#   6 Y_WORLD                Barycenter position along world y axis                     [deg]
#   7 A_WORLD                Profile RMS along major axis (world units)                 [deg]
#   8 B_WORLD                Profile RMS along minor axis (world units)                 [deg]
#   9 THETA_WORLD            Position angle (CCW/world-x)                               [deg]
#  10 FWHM_WORLD             FWHM assuming a gaussian core                              [deg]
#  11 ELONGATION             A_IMAGE/B_IMAGE                                           
#  12 ELLIPTICITY            1 - B_IMAGE/A_IMAGE                                       
         1 -14.6526    163.5311     40.3670   8.0535577250e+01   3.9425218865e+01     1.393223    0.9958979  -6.14  0.003598323    1.496    0.331
         2 -13.9492    177.8989     10.2451   6.7448985910e+01   3.9125601264e+01    0.9990283    0.5158396  56.80  0.004012381    1.811    0.448
         3 -13.6666    176.4840      4.3122   6.5542386474e+01   4.0045680883e+01     1.016929    0.4852425  59.59  0.003726367    1.930    0.482
         4 -10.0511    150.7733    247.4412   1.2607657985e+02   1.0001845970e+01    0.1255426   0.07289608  37.82 0.0002598334    1.337    0.252
         5 -19.7365     73.8242    183.4970   1.3300572049e+02   2.9564233201e+01     13.15691     5.619218 -69.47    0.0720095    2.475    0.596
         6 -12.1959    133.8083    249.2119   1.2885130312e+02   1.2103266030e+01    0.1624088    0.1357525 -60.06  0.001023521    1.647    0.393
         7 -13.1226     11.7318    206.3425   1.4534994710e+02   3.2182864877e+01    0.3700016    0.2421656  38.99  0.002596617    1.633    0.388
         8 -10.2939      9.4911    201.5301   1.4552203307e+02   3.3152484151e+01   0.09269323   0.06706831  71.23 0.0004773829    1.070    0.065
         9 -10.5934    110.2002    244.8215   1.3211426631e+02   1.5725901149e+01    0.1178643    0.0922349  41.67 0.0004003549    1.254    0.203
        10 -13.8131    162.8680    202.0571   1.1881994320e+02   1.3716574156e+01    0.6364115    0.3272319 -59.93  0.002517004    3.493    0.714
        11 -11.6229    158.2346    204.1154   1.1990608578e+02   1.4175657459e+01    0.2782687    0.1688166  63.57  0.001552243    2.257    0.557
        12 -11.6537    156.6136    198.8451   1.1948488719e+02   1.5144394297e+01    0.2405899    0.1504781 -63.67  0.001056539    2.450    0.592
        13 -12.0889    168.9863    202.6566   1.1783609289e+02   1.2663039736e+01     0.177008    0.1697146  83.36 0.0003031845    1.331    0.249
        14 -11.0561     13.5604    244.5401   1.4640069070e+02   2.6332918159e+01    0.1041898   0.06351425  79.69 7.973347e-05    1.335    0.251
        15 -11.1537    138.7915    198.8280   1.2266729546e+02   1.7938753253e+01    0.4811323    0.2087979  56.54  0.002201233    2.908    0.656
        16 -10.4639     14.0000    240.9033   1.4622546910e+02   2.6799085186e+01    0.1401604   0.07534683 -86.85  0.001192364    1.731    0.422
        17 -11.2821    153.0654    194.2971   1.1949673442e+02   1.6345652716e+01    0.1686126    0.1265409  44.16 0.0003673602    1.097    0.089
        18 -12.6003    210.8161    188.9444   1.0855369112e+02   7.4557133072e+00    0.2563579    0.1730458 -27.41  0.001615148    1.678    0.404
        19 -10.7586     29.5483    179.0961   1.4094578558e+02   3.5185896442e+01    0.5937945    0.2646701  21.18  0.002825465    4.717    0.788
        20 -10.9982     36.4957    186.5000   1.4014931947e+02   3.3204000877e+01    0.2216587    0.1741396   9.07  0.001642438    2.235    0.553
        21 -12.6440     30.5673    183.4428   1.4102719409e+02   3.4318104247e+01    0.3926286    0.1751447  43.31   0.00193642    1.904    0.475
        22 -13.7879    196.6674    172.3204   1.0813176117e+02   1.1937799199e+01    0.9160072    0.5426604 -54.71  0.004273918    2.958    0.662
        23 -13.1485    205.2585    180.3968   1.0804638335e+02   9.4106998777e+00    0.4466903    0.3272833  64.73  0.001800561    2.076    0.518
        24 -13.1807    208.5080    178.4825   1.0715268095e+02   9.0807889001e+00    0.4249358    0.2884263  31.94  0.002242116    1.224    0.183
        25 -11.6941    108.1413    182.3611   1.2632316951e+02   2.5129362138e+01    0.2582888    0.1708625  64.32 0.0003926683    1.521    0.343
        26 -11.1753      3.7226    180.4931   1.4564436609e+02   3.7178426967e+01      0.22503    0.1658685  27.63  0.001865218    1.857    0.461
        27 -10.3379     10.8807    174.5870   1.4410380141e+02   3.7646498029e+01    0.1454839    0.1042575 -86.53 0.0003000201    1.235    0.190
        28 -13.0360    178.0734    171.9113   1.1143771060e+02   1.5302645758e+01    0.4212606    0.2756925 -49.08  0.002367833    1.940    0.485
        29 -14.0829    144.9105    169.4507   1.1735499874e+02   2.1457988041e+01    0.7003425    0.4703259  78.38  0.003594904    2.369    0.578
        30 -13.0142    138.5435    171.7308   1.1895662097e+02   2.2155642983e+01    0.4409973    0.3311675 -85.00  0.001950452    1.779    0.438
        31 -11.1108    119.3260    244.0332   1.3063616537e+02   1.4639866765e+01     0.161717   0.09741391  50.38 0.0001494037    1.228    0.186
        32 -11.0726    202.1402    165.9588   1.0599587381e+02   1.1786437726e+01    0.1889575    0.1523823 -67.91  0.001083008    2.058    0.514
        33 -11.4654    122.8934    165.9343   1.2120377063e+02   2.5683783327e+01    0.3086795    0.1686194  55.36  0.001255933    1.881    0.468
        34 -10.3474    131.8875    236.8255   1.2801122016e+02   1.3842347748e+01    0.1364258    0.1068754  42.86 0.0003844652    1.122    0.109
        35 -11.2884    223.8482    163.8776   1.0184176802e+02   8.1301737747e+00    0.1988574    0.1771977 -13.71 0.0004632708    1.283    0.220
        36 -10.2433    135.1763    235.1924   1.2732819109e+02   1.3590098996e+01     0.146001     0.113976  53.12 0.0006078074    1.118    0.106
        37  -9.1106     17.6247    233.8855   1.4547266174e+02   2.7469518824e+01    0.2644761    0.0691091  57.13  0.001593363    2.623    0.619
        38 -11.9592    164.7177    158.0945   1.1153392608e+02   1.9776821779e+01    0.2568773    0.1731232  36.83 0.0006488267    1.356    0.263
        39 -14.3547    134.2764    145.6549   1.1550410668e+02   2.7368874967e+01     1.326499    0.4086391 -55.11  0.004294771    4.699    0.787
        40 -14.1784    135.9651    128.0508   1.1172240631e+02   3.0305077608e+01     1.524041    0.3126737 -48.38   0.00423888    5.387    0.814
        41  -9.7003     19.3030    231.3850   1.4513783684e+02   2.7678699058e+01    0.0905531   0.06357694  65.28 0.0006272217    1.075    0.070
        42 -11.3426    152.9774    151.2080   1.1261671696e+02   2.3042094679e+01    0.2133946    0.1448254  67.83 0.0009330253    1.994    0.498
        43 -11.4444    174.5905    149.0387   1.0788463917e+02   1.9350741039e+01    0.2495649    0.2148774  47.63   0.00083938    1.164    0.141
        44 -14.0594    143.5150    143.8857   1.1321281317e+02   2.6029492335e+01    0.8300816    0.4652095 -62.94   0.00365835    2.643    0.622
        45 -10.3497     25.7353    232.0732   1.4421535522e+02   2.6980661337e+01     0.114208   0.07885735  70.00 0.0001801244    1.091    0.083
        46  -9.2317     28.3977    229.4308   1.4371023655e+02   2.7113275934e+01   0.09079437   0.06187978  64.72 0.0001528455    1.014    0.014
        47 -11.2953      4.8512    137.6283   1.4325182181e+02   4.5113343956e+01    0.1977713    0.1357359 -86.18 0.0004932054    1.139    0.122
        48 -11.2787     24.6182    226.5705   1.4416052394e+02   2.7893923138e+01    0.2887389    0.1034362 -66.28  0.001781977    3.120    0.679
        49 -12.0347    160.6098    128.1059   1.0636992726e+02   2.5525101386e+01      0.33641    0.2465201 -52.61  0.001635906    1.573    0.364
        50 -10.7739    219.2831    224.0314   1.1256776875e+02   2.4777537056e+00    0.1441947    0.1138918  21.08 0.0004036898    1.129    0.114
        51 -11.7070     19.8404    222.7400   1.4473024605e+02   2.8910163244e+01    0.1305054    0.1013631 -86.85 0.0005730826    1.417    0.294
        52 -10.1728     14.1554    221.9495   1.4556035927e+02   2.9542009581e+01    0.1032672   0.07666978  88.23 0.0004032835    1.334    0.250
        53 -11.6896    171.7969    117.3630   1.0157200920e+02   2.5060427399e+01    0.3625692    0.2836756  88.15 0.0009694149    1.916    0.478
        54 -11.2749     22.8755    155.2240   1.4066264023e+02   4.0232066173e+01    0.2549962    0.1723985  85.77  0.001099239    1.176    0.149
        55 -10.6026    205.5258    110.1948   9.3266625491e+01   1.8929179227e+01    0.2611813    0.1939934  41.79 0.0006656313    1.302    0.232
        56 -10.2697      1.3624    214.5193   1.4724445123e+02   3.1770644685e+01   0.08561743   0.06223254  74.73 0.0002645512    1.151    0.131
        57 -10.8443    139.5153    250.0575   1.2805348020e+02   1.1241711064e+01    0.2059043    0.0996084  52.10  0.001350488    1.747    0.428
        58 -10.7780    155.0215    104.8806   1.0209778181e+02   3.0788174014e+01    0.2102913    0.2006644  10.13  0.000335994    1.015    0.015
        59 -10.6948     10.0253    101.9314   1.3922283501e+02   5.2176051568e+01    0.1803792    0.1362288 -88.97  0.001309794    1.058    0.055
        60 -12.0118    111.1809    209.4769   1.2877257582e+02   2.0417086619e+01    0.2281814    0.1855382  17.75 0.0009286424    1.694    0.410
        61 -11.3742    101.7867    207.6047   1.3022688737e+02   2.1984031563e+01    0.3107247    0.1585339  63.95 0.0008060005    2.237    0.553
        62 -10.6976     13.6569     59.9495   1.3248633123e+02   6.1182525534e+01     0.169352    0.1189885 -70.21 0.0004652892    1.111    0.100
        63 -14.2050    152.0415     54.7809   8.7919794066e+01   4.0163851255e+01     1.049135    0.8393123  22.59  0.001060982    1.313    0.239
        64 -12.4570    125.0505    246.9368   1.2999841191e+02   1.3533738977e+01    0.2265861     0.132613 -55.93  0.001615306    2.319    0.569
        65 -12.6480    167.3694     31.9194   7.6831138351e+01   3.9539567231e+01    0.4226616    0.3728205   9.36 0.0008934853    1.107    0.097
        66 -10.3809    144.8635     34.0598   8.2063494337e+01   4.5025286607e+01    0.2233362    0.2034986 -57.04 0.0003983601    1.257    0.204
        67 -10.2173    114.1581    249.0636   1.3184491158e+02   1.4694797799e+01   0.08976624   0.06944478 -68.66 0.0003218118    1.693    0.409
