#   1 NUMBER                 Running object number                                     
#   2 MAG_AUTO               Kron-like elliptical aperture magnitude                    [mag]
#   3 X_IMAGE                Object position along x                                    [pixel]
#   4 Y_IMAGE                Object position along y                                    [pixel]
#   5 X_WORLD                Barycenter position along world x axis                     [deg]
#   6 Y_WORLD                Barycenter position along world y axis                     [deg]
#   7 A_WORLD                Profile RMS along major axis (world units)                 [deg]
#   8 B_WORLD                Profile RMS along minor axis (world units)                 [deg]
#   9 THETA_WORLD            Position angle (CCW/world-x)                               [deg]
#  10 FWHM_WORLD             FWHM assuming a gaussian core                              [deg]
#  11 ELONGATION             A_IMAGE/B_IMAGE                                           
#  12 ELLIPTICITY            1 - B_IMAGE/A_IMAGE                                       
         1 -14.6719    167.2733    121.5646   2.0096859346e+01   2.4689644835e+01     9.039145     3.968304 -28.69   0.02955692    3.807    0.737
         2 -14.7265    246.1594     99.5943   4.0224029877e+00   1.4894655826e+01     4.208597     1.722479 -56.85   0.01706583    4.047    0.753
         3 -15.4487    206.3746    177.5805   2.4262599095e+01   8.6223935854e+00     4.241815     2.965137  57.47   0.02393158    2.497    0.599
         4 -15.2467    207.2610    118.0638   1.2581947393e+01   1.8203705595e+01     4.629076     2.987058 -22.29    0.0248189    1.759    0.431
         5 -11.3051    228.8699     48.6039   3.5521242245e+02   2.4654159292e+01    0.9900692    0.3917481 -42.42  0.005103823    1.853    0.460
         6 -11.0634    211.6412     27.6152   3.5189197580e+02   3.0468104236e+01    0.5569192    0.3471846  45.69  0.001202319    2.474    0.596
         7 -11.6595    177.9068     24.2114   3.5376563264e+02   3.7949827203e+01    0.9156819    0.4823517 -81.36  0.004529932    2.006    0.502
         8 -10.8665    222.9144     22.4520   3.5001300981e+02   2.8891647559e+01    0.3510287    0.2666269  21.19   0.00217654    2.375    0.579
         9 -12.0735    247.9964      2.3435   3.4474283005e+02   2.6527537412e+01    0.8099455    0.7625223  39.48  0.006896701    1.711    0.415
        10 -12.4015    224.2504     12.6532   3.4783454718e+02   2.9709484038e+01     1.068664    0.3387991  62.38  0.004104704    3.723    0.731
        11 -13.0922    222.8551      8.3928   3.4699342414e+02   3.0416617701e+01     1.413383    0.5989643  60.87  0.006873384    2.972    0.664
        12 -10.6673    205.5149     22.1373   3.5106086491e+02   3.2319665769e+01    0.3951161    0.3217887  13.33  0.001548209    1.971    0.493
        13 -11.9864    201.1125     15.7494   3.4985812694e+02   3.3924861293e+01     0.525362    0.3697663 -56.22 0.0005484431    1.110    0.099
        14 -11.0952    212.4583     13.6492   3.4868557626e+02   3.1868678020e+01    0.4008435    0.2694626  54.95  0.002529208    2.011    0.503
        15  -9.3939    183.9267     12.7964   3.5030861235e+02   3.7885463099e+01    0.2268399    0.1547002  13.69  0.001182791    2.711    0.631
        16 -10.6624    192.7823     10.0015   3.4901153615e+02   3.6272302438e+01    0.2151915    0.1571746 -82.98  0.001402351    1.229    0.186
        17  -9.4355    120.3601      9.1667   3.5551809435e+02   5.3324163784e+01    0.2787152    0.2512517 -28.84  0.001176161    1.279    0.218
        18 -11.2536    182.3944      4.4841   3.4828900209e+02   3.9064411439e+01    0.4855569    0.2316912  84.59  0.002530256    1.979    0.495
        19 -10.1729    191.5287     23.4794   3.5241851900e+02   3.5066853388e+01     0.306522    0.2181807  33.20  0.000684751    2.286    0.563
        20 -10.9362    247.7493    248.5529   2.8818555791e+01  -5.0753540617e+00    0.4630123    0.3318835 -13.08  0.003654053    1.171    0.146
        21 -10.7265    239.2463    242.6726   2.9256634216e+01  -3.7158490060e+00    0.4371381    0.1935052  36.84   0.00240156    3.232    0.691
        22  -7.9088    155.3186    250.3058   4.4763070386e+01   3.4841838881e+00    0.1171137   0.07374035  -4.68 0.0002766011    1.632    0.387
        23  -9.2348    204.4739    221.4533   3.1737829556e+01   2.2975921067e+00     0.199291    0.1702116  -0.78    0.0007143    1.235    0.190
        24 -10.1275    200.7551    220.4018   3.2219723230e+01   2.8467869075e+00     0.241044    0.1777507  -1.79 0.0005630974    1.116    0.104
        25  -8.4724    191.2973    222.3240   3.4175962606e+01   3.6122062274e+00     0.119453   0.07352324  -9.68 0.0002067271    1.625    0.385
        26  -8.2397    195.6763    219.2673   3.2938250541e+01   3.5688009409e+00   0.09713235   0.08769533  32.95 0.0001566788    1.567    0.362
        27 -10.0721    174.9909    212.9101   3.5790154754e+01   6.9525136804e+00     0.283997    0.2088907 -67.23  0.001609551    2.426    0.588
        28  -7.9320    190.2393    244.0188   3.7437524213e+01   6.9063334970e-01    0.1276505   0.08108748 -32.44 0.0003185255    1.525    0.344
        29  -8.2499      1.3053    203.1813   7.6551325223e+01   2.9455051553e+01    0.1688394   0.09724107  77.53 0.0002423238    1.602    0.376
        30 -14.8430    180.7225    170.9813   2.7636900044e+01   1.3267457418e+01     2.738078     2.160834 -49.69   0.01649371    1.401    0.286
        31  -9.3769     55.0195    198.0063   6.2023093464e+01   2.5481128590e+01    0.2129376    0.1903812  57.68 0.0007877749    1.050    0.048
        32  -8.4921    150.3188    193.3927   3.7736225965e+01   1.3572144729e+01    0.2071308    0.1433751  -8.81 0.0009995662    1.655    0.396
        33  -9.0830     77.5703    191.8031   5.5276595030e+01   2.4131634652e+01    0.3192657    0.2181539 -24.90  0.001538862    1.948    0.487
        34  -9.2422     15.9813    182.3236   7.1639907208e+01   3.3267513910e+01    0.1879651    0.1618269  43.45 0.0005916393    1.103    0.094
        35 -10.4462    118.1556    173.5910   4.1927009317e+01   2.2393620387e+01    0.4709483    0.2523811 -51.29  0.001334645    1.902    0.474
        36  -9.4246    107.1583    171.6337   4.4430884842e+01   2.4542327258e+01    0.2381433    0.1974875 -74.02 0.0004691126    1.367    0.268
        37 -10.6276    183.1967    202.0203   3.2521976675e+01   7.6837167321e+00    0.3180108    0.2188853 -24.52  0.001322496    1.330    0.248
        38  -7.6224     48.6880    165.2797   6.0393945050e+01   3.4307776563e+01    0.1526692   0.09812263  57.06 0.0002108454    1.566    0.361
        39 -12.4719    134.1333    147.6847   3.3075307214e+01   2.5423263356e+01     1.584274    0.4263082 -52.82  0.004519579    4.282    0.766
        40 -10.2404    140.6620    108.1468   2.2472836700e+01   3.2615548996e+01    0.3695953    0.3520406  -8.49  0.001235601    1.154    0.133
        41 -11.6425    134.8826    109.3157   2.4114280400e+01   3.3565322998e+01     1.435315    0.3175632 -48.08  0.003732201    4.658    0.785
        42 -10.7899    134.9925    119.9831   2.6710717424e+01   3.1273445631e+01    0.4228602    0.2810933 -53.93    0.0012806    1.516    0.340
        43 -13.0248    137.7842    130.8808   2.8574429463e+01   2.8391031357e+01      1.31826    0.7234335 -53.99  0.005553224    1.908    0.476
        44  -9.4322    127.0175    153.9476   3.6087586879e+01   2.5286474930e+01    0.3377408    0.1787887 -59.08 0.0009413761    2.191    0.544
        45 -14.5286    228.3206    168.6091   1.9231849703e+01   7.2094220775e+00     2.207075     1.264862  52.73   0.01194303    3.022    0.669
        46 -13.7411    194.8343    195.2990   2.9294100350e+01   7.2971636968e+00     1.947922     1.263356  52.78   0.01044355    2.670    0.625
        47 -12.4661    142.5194    149.0337   3.1366855572e+01   2.3663878518e+01    0.7273965    0.6093232 -43.02  0.003444554    1.157    0.135
        48  -9.9707     66.2377    142.9970   5.1623344546e+01   3.7871666792e+01    0.4855366    0.3369026 -80.47  0.002228325    1.578    0.366
        49  -9.4547    129.1226    141.9213   3.3104725989e+01   2.7582630113e+01     0.386728      0.18132 -48.49  0.001524862    2.085    0.520
        50  -9.7574     69.6163    145.2708   5.0910551068e+01   3.6783713732e+01    0.4273262    0.3109641  47.34  0.001344198    1.353    0.261
        51  -8.7343    124.9827    133.4996   3.2326544800e+01   3.0226343524e+01    0.2451786    0.1911895 -48.10 0.0006825886    1.256    0.204
        52  -9.0188    113.2158    133.9141   3.5542978272e+01   3.2316471248e+01    0.2538647    0.2436639 -64.99 0.0006258879    1.040    0.038
        53  -8.0842    121.2725    132.3361   3.3030866401e+01   3.1184414324e+01     0.151189    0.1171082 -18.64 0.0005142927    1.601    0.375
        54  -8.6786     71.7439    127.9988   4.7022460480e+01   4.0995048278e+01    0.2080615    0.1980052 -71.94 0.0001875731    1.041    0.039
        55  -9.0692    128.9772    242.1989   4.9134703203e+01   7.6978729723e+00    0.2410551    0.1785627 -73.83  0.001406228    2.082    0.520
        56 -10.7524    140.5111    124.1900   2.6397891599e+01   2.9294326138e+01     0.327821    0.2808107 -42.27  0.001348059    1.124    0.110
        57 -10.9817    114.6504    121.6288   3.2344653806e+01   3.4907638954e+01    0.5425867    0.4411171 -65.01  0.002074312    1.288    0.223
        58  -7.8033    102.2734    119.3107   3.5329959721e+01   3.7835327583e+01    0.1516669     0.121657 -19.05 0.0002725607    1.552    0.356
        59  -8.9734     79.5435    116.4159   4.1878355517e+01   4.2706562450e+01    0.3463048    0.1498625 -56.24  0.001235405    2.272    0.560
        60 -10.3917    113.7508    109.5980   2.9623842138e+01   3.7844591270e+01    0.3634955    0.1842188 -45.39  0.001416615    1.961    0.490
        61 -10.0158    126.1605    119.8570   2.8870193878e+01   3.3050478701e+01    0.3213904     0.205921 -44.19 0.0006640611    1.535    0.349
        62 -12.1120     57.0740    106.0450   4.7691839378e+01   4.9057001302e+01    0.8953087     0.715798  26.69  0.002878879    1.313    0.238
        63 -12.9096     49.7907    101.6958   4.9628020800e+01   5.1264936358e+01      2.39911     1.036465  30.03  0.008247659    2.341    0.573
        64 -11.2708     40.5301    100.3998   5.3225396054e+01   5.2834236130e+01    0.4852946     0.354063  30.42   0.00100535    1.402    0.287
        65 -10.8089    249.3186    233.3214   2.6467859773e+01  -3.4910901823e+00    0.7263326    0.1437613 -34.14  0.003129266    4.251    0.765
        66 -11.9704    124.5609    104.9287   2.5533360965e+01   3.6647023017e+01      1.02411    0.6290194  73.71  0.003843103    2.703    0.630
        67  -9.7887    245.1693    233.1398   2.7039601333e+01  -3.1162675287e+00    0.2253266    0.1277861 -25.91  0.001646383    1.364    0.267
        68 -10.2007    110.7661    104.0198   2.9004478323e+01   3.9718558771e+01    0.3046635    0.2960847 -81.58  0.001236452    1.007    0.007
        69  -8.9712    142.0647    103.0059   2.0848198020e+01   3.3370735303e+01    0.2186819    0.2074834 -48.70 0.0003232653    1.042    0.040
        70 -12.4311     10.9047     96.9616   6.5819712153e+01   5.6616599331e+01    0.9647933    0.8766953 -61.90  0.003882341    1.050    0.048
        71  -8.6564    100.5192    100.6671   3.1111850007e+01   4.2585282045e+01    0.2968529     0.233336  11.79  0.001166363    1.688    0.408
        72 -14.3687    237.6249    126.9839   1.0283084731e+01   1.2168660486e+01     1.890067    0.4837116 -38.49  0.001486248    3.015    0.668
        73 -10.0972    124.7118     99.5537   2.4068632859e+01   3.7765973553e+01    0.3219206    0.2862035 -76.94 0.0002461195    1.160    0.138
        74  -9.6410    166.9113     92.5080   1.3204976669e+01   3.0160952016e+01     0.345351    0.2582528  43.17 0.0009557218    1.547    0.354
        75  -7.8571    154.4396     94.4515   1.6036837858e+01   3.2422753498e+01    0.1455496    0.1313186 -61.63  0.000128155    1.046    0.044
        76  -7.5952     93.6545    107.7198   3.5112289781e+01   4.2279135164e+01    0.1548979    0.1248646  -6.18 0.0003631756    1.636    0.389
        77  -8.1911    142.8477     90.7923   1.7456721955e+01   3.5616050319e+01    0.1915063    0.1625635 -80.56 0.0002964936    1.249    0.199
        78  -9.1090    172.1690     84.7641   1.0358103834e+01   3.0422066065e+01    0.3026923    0.1735383 -41.81 0.0008026124    1.562    0.360
        79  -9.5891    196.1853     82.4050   6.2243990495e+00   2.5972277997e+01     0.227758    0.1811766 -39.19 0.0006895229    1.146    0.128
        80 -10.7307    183.2991     78.4207   7.0608407029e+00   2.9173277521e+01    0.4276746    0.3722076 -64.20  0.001261917    1.071    0.066
        81  -8.9471    204.9107     80.6232   4.6925200666e+00   2.4586440990e+01    0.3389094    0.1994797 -84.95  0.001564459    2.654    0.623
        82  -8.1049    139.8280     78.9806   1.4822496016e+01   3.8519320620e+01    0.2324071    0.1743814  -8.22    0.0010671    1.997    0.499
        83  -7.8775     87.5037     77.9856   2.8603937908e+01   5.0396975535e+01    0.2209466    0.1497023 -45.83 0.0006380659    1.489    0.329
        84  -8.2632    148.4969     73.9438   1.1658341553e+01   3.7460689137e+01    0.2159384    0.1355257 -40.58 0.0006399959    1.522    0.343
        85  -9.0504    151.1927     70.3621   1.0148267721e+01   3.7466824169e+01    0.2648775    0.2205153 -28.97 0.0007066574    1.335    0.251
        86 -10.1803    174.9967     71.9155   6.6448169178e+00   3.1955869663e+01    0.3657266    0.3131973  72.00  0.001002104    1.245    0.197
        87  -8.9488    197.3439     70.9714   3.3877474194e+00   2.7507316225e+01    0.2054779    0.1790861  23.68 0.0005714575    1.570    0.363
        88  -9.4851    187.0477     69.3696   4.3131955740e+00   2.9827940798e+01    0.2423467    0.2223877 -63.61   0.00133452    1.096    0.088
        89  -9.5155    146.6816     66.7852   9.9581139166e+00   3.9105277051e+01    0.3789252    0.2543916 -19.28   0.00104101    2.072    0.517
        90 -10.1125    235.6263     65.2309   3.5813563463e+02   2.1304134904e+01    0.2485273    0.2458685  65.09 0.0007366898    1.372    0.271
        91 -10.3931    232.8289     60.8623   3.5747070925e+02   2.2363485929e+01    0.4142475      0.19878 -54.90  0.002227011    1.894    0.472
        92 -10.1708    173.5723     64.6586   4.9733626453e+00   3.3407913420e+01    0.3399841    0.2249904 -67.71  0.001733954    1.610    0.379
        93  -7.7453    110.3253     64.2966   1.7237936680e+01   4.8060907679e+01    0.1466499    0.1190419  19.32 0.0005280697    1.627    0.385
        94 -16.0504    244.4247    141.7953   1.2201826791e+01   9.0963254669e+00     2.222003     1.840101   1.36  0.008360566    1.345    0.257
        95  -8.8330    181.9014     60.5050   2.7674159196e+00   3.2246201023e+01    0.2222923     0.180382 -23.33  0.001291378    1.450    0.310
        96 -14.0281    248.7581    120.4362   7.7247350054e+00   1.1577777388e+01     1.024846    0.4696464 -41.99 0.0008720314    1.688    0.408
        97  -8.9079    186.8119     60.0027   2.0208431839e+00   3.1282794835e+01    0.1973197    0.1909755  56.44  0.000601729    1.283    0.220
        98  -9.4712    143.1011     59.4872   8.4746489308e+00   4.1145925437e+01    0.3956597    0.2630231  68.21  0.001577442    1.535    0.349
        99  -8.0518     72.7925     59.3085   2.7434360056e+01   5.7400058764e+01    0.2221159    0.1141907 -35.84 0.0007607717    2.295    0.564
       100  -9.8137    215.5794     56.5261   3.5808937926e+02   2.6052062438e+01    0.2418876    0.1970117 -45.58 0.0005764604    1.109    0.098
       101  -8.7797    248.0929     56.5167   3.5536641305e+02   2.0375816083e+01    0.1834591     0.161106 -19.05  0.001271842    1.476    0.323
       102  -8.1960    123.6021     54.2053   1.0707571306e+01   4.6656466768e+01    0.1921707    0.1412538 -26.87 0.0008892262    1.585    0.369
       103 -10.8048    246.5760    220.9027   2.5051310070e+01  -1.7823356357e+00    0.2547801    0.2430833  30.74 0.0007999432    2.019    0.505
       104 -11.3258    213.8097     31.9251   3.5271074063e+02   2.9534233443e+01    0.6352548    0.3292938  77.10  0.003160199    2.070    0.517
       105  -8.3386    122.0361    235.2994   4.9809010717e+01   9.6769669853e+00    0.1679769    0.1352236  22.80 0.0004615765    1.049    0.046
       106  -8.9947    226.9450     40.5364   3.5363718114e+02   2.6012789356e+01    0.1883742    0.1533723 -63.84 0.0006038605    1.118    0.106
       107 -10.3636    219.5226     38.0385   3.5364747613e+02   2.7697540979e+01    0.4740012    0.2441743 -36.65  0.002509623    1.621    0.383
       108  -8.6934    237.4630     50.9703   3.5504291300e+02   2.2847739684e+01    0.1787153   0.08957879 -37.76 0.0005065055    1.559    0.359
       109  -8.9732    159.3115     50.0591   3.0609950028e+00   3.8810613117e+01    0.1914319    0.1617552 -53.55  0.000511581    1.089    0.082
       110  -7.9303    249.3339     46.3235   3.5326497540e+02   2.1437123660e+01     0.097193   0.08351517  -5.65 0.0007050668    1.708    0.415
       111  -9.6471    238.0687     38.3725   3.5241042048e+02   2.4295475411e+01     0.247298    0.1864267  66.19  0.001065796    1.676    0.403
       112  -8.4908    195.0486     35.4701   3.5507077171e+02   3.2884948294e+01    0.1676002    0.1153924  77.76 0.0003510039    1.499    0.333
       113  -8.0067     96.4629     34.5618   9.9904153178e+00   5.6279150326e+01    0.1415349    0.1306133  74.72 8.853157e-05    1.005    0.005
       114  -8.1857     80.6237     32.7831   1.3772953879e+01   6.0323543476e+01    0.1824363    0.1291311 -47.29 0.0001830803    1.516    0.340
       115 -10.6315    222.0425     43.3344   3.5461508550e+02   2.6566748512e+01    0.6167709    0.3292908 -26.32  0.003024178    2.104    0.525
       116  -9.4293     54.9250    232.5286   6.4935911229e+01   1.7996176745e+01    0.1968087    0.1777051 -75.85 0.0003938387    1.294    0.227
       117 -10.2987    230.5044     23.5475   3.4980115217e+02   2.7364872026e+01    0.2134344     0.185566 -24.17 0.0009474018    1.490    0.329
       118  -8.6765    202.0621    231.7102   3.3656006112e+01   1.1400946160e+00    0.1561853    0.1163298   4.78  0.001015204    1.101    0.092
       119  -9.5711    240.7957    228.7427   2.7045410973e+01  -2.2108910214e+00     0.206863      0.14883 -12.06  0.001164279    1.049    0.047
       120  -8.7188    148.4510    228.6659   4.3362857231e+01   7.6189052679e+00    0.1883069    0.1197461 -51.86 0.0007775589    1.891    0.471
       121  -8.7996    235.3709    226.2235   2.7486239845e+01  -1.4100256527e+00    0.1882414    0.1270179 -38.64  0.001146718    1.693    0.409
       122  -9.7701    230.2888    223.4228   2.7846182806e+01  -5.8077454252e-01    0.4017299    0.3343609  87.30  0.002317003    4.366    0.771
       123 -10.3762    213.6124    205.5859   2.7754590964e+01   3.5420396596e+00    0.3405097      0.27363  57.84  0.001797567    2.409    0.585
       124  -9.8240    211.5235    209.5013   2.8717611069e+01   3.2159114504e+00    0.3258991    0.1724577 -23.99  0.001888824    1.773    0.436
       125 -10.7039    221.0134    216.0892   2.8193878443e+01   1.2972658688e+00    0.3931549    0.3096659  50.94  0.002221756    2.415    0.586
       126  -9.8543    244.3587     26.9463   3.4972331578e+02   2.4540874585e+01    0.2693728    0.1601608  41.89  0.001514052    3.298    0.697
       127 -10.4313    215.9661    212.7010   2.8486161577e+01   2.2870368104e+00     0.293196    0.2243419  38.38  0.001130908    1.825    0.452
       128 -10.2391    175.1623    222.9070   3.7248280151e+01   5.3651799605e+00    0.3260205    0.2225647  51.72    0.0018491    2.435    0.589
       129 -10.6042    239.7417    221.0312   2.6065246030e+01  -1.1723965132e+00    0.2811499    0.2285172 -26.07  0.001725886    1.438    0.305
