#   1 NUMBER                 Running object number                                     
#   2 MAG_AUTO               Kron-like elliptical aperture magnitude                    [mag]
#   3 X_IMAGE                Object position along x                                    [pixel]
#   4 Y_IMAGE                Object position along y                                    [pixel]
#   5 X_WORLD                Barycenter position along world x axis                     [deg]
#   6 Y_WORLD                Barycenter position along world y axis                     [deg]
#   7 A_WORLD                Profile RMS along major axis (world units)                 [deg]
#   8 B_WORLD                Profile RMS along minor axis (world units)                 [deg]
#   9 THETA_WORLD            Position angle (CCW/world-x)                               [deg]
#  10 FWHM_WORLD             FWHM assuming a gaussian core                              [deg]
#  11 ELONGATION             A_IMAGE/B_IMAGE                                           
#  12 ELLIPTICITY            1 - B_IMAGE/A_IMAGE                                       
         1 -13.6752    165.5603     48.9238   7.5342357648e+01   3.7658506579e+01     1.693823    0.9526667  31.76  0.005968155    2.724    0.633
         2 -13.7047    179.2249     33.5947   6.8934895749e+01   3.6381885796e+01     0.999043    0.8083734 -36.37  0.003954804    1.375    0.273
         3 -12.8679    183.6965     27.2409   6.6651689271e+01   3.6077458743e+01    0.5524058    0.4725049 -52.30  0.001510641    1.234    0.190
         4 -11.6723    189.6456     14.7013   6.2768476493e+01   3.6073997069e+01    0.2549596    0.2016795 -80.64  0.001034636    1.165    0.142
         5 -10.6660     57.0000      9.2439   8.9273052166e+01   6.4927551876e+01    0.1510633   0.08433916  39.82  0.000739575    1.613    0.380
         6 -12.4814    201.4315      2.7152   5.8676435634e+01   3.4549245612e+01    0.6506272    0.3267973  55.50  0.002643045    1.987    0.497
         7 -11.9459    197.1810      2.3845   5.9032738318e+01   3.5567115322e+01    0.4556072    0.2071182  70.17  0.001708985    1.821    0.451
         8 -11.0867     62.7994    216.9619   1.3662159901e+02   2.1503601587e+01    0.2840009    0.1850242  61.48  0.001039349    1.364    0.267
         9 -15.0795    179.1524    247.2879   1.1701899498e+02  -3.4915374629e+00     2.307691    0.6751749  36.80  0.008373983    3.229    0.690
        10 -16.8166    136.3952    234.1680   1.2365862199e+02   6.1691812026e+00     5.549144     2.219283  35.35   0.02192741    2.636    0.621
        11  -9.5793     95.3086    215.0684   1.2963164295e+02   1.7026131664e+01    0.2471763      0.17642  45.42  0.001289248    1.325    0.246
        12 -11.7073     91.0010    210.2924   1.2992561330e+02   1.8759336269e+01    0.5281021    0.4704175  24.72  0.003180444    1.442    0.307
        13 -10.2472     82.7559    212.2824   1.3194293556e+02   1.9611911671e+01    0.3910715    0.2300092  49.51  0.001124335    1.549    0.355
        14 -10.3148     71.9808    213.5598   1.3436010760e+02   2.0941833483e+01    0.3585895    0.2019476  74.87  0.001721757    2.010    0.503
        15 -11.6095    116.1882    211.6509   1.2465571278e+02   1.4247344274e+01    0.3672253    0.2905785 -86.37 0.0007922275    1.327    0.246
        16 -10.7605    108.3290    209.2693   1.2602082728e+02   1.6118921709e+01    0.3567344     0.257208 -79.31  0.001525456    1.480    0.324
        17 -11.4128    107.5057    203.5488   1.2536003735e+02   1.7516916410e+01    0.4565241    0.3643234  35.40  0.002370973    1.364    0.267
        18 -10.9811     64.9983    213.7000   1.3582089439e+02   2.1908168930e+01    0.3729911    0.2218478  74.56  0.001636609    1.723    0.420
        19 -11.7880     12.5022    206.1664   1.4551718277e+02   2.9818262591e+01    0.3089585    0.2190555  52.71  0.002123605    1.400    0.286
        20 -10.7038      7.9729    205.7764   1.4633807244e+02   3.0340502445e+01    0.2000977    0.1520941  80.25  0.001080979    1.065    0.061
        21 -10.5322    164.4053    205.5551   1.1314694949e+02   6.6315114993e+00    0.2379645    0.2345233  24.47 0.0004327603    1.061    0.058
        22 -10.1303    104.9195    211.8087   1.2712528351e+02   1.6145704945e+01    0.3764547    0.2447346  78.74  0.001664355    1.833    0.454
        23 -11.8074     72.3029    203.1406   1.3304885661e+02   2.3214819101e+01    0.4141849    0.2989839 -54.86   0.00136254    1.541    0.351
        24  -9.7479     63.1270    203.7258   1.3508797740e+02   2.4386046070e+01    0.1928402    0.1432833  67.96   0.00058312    1.200    0.167
        25 -13.1126    182.3247    198.3264   1.0798402932e+02   4.6319156355e+00    0.9148704    0.6585801 -64.37  0.004451776    1.801    0.445
        26 -10.1845    112.7862    196.5468   1.2309001337e+02   1.8162159252e+01    0.4421778     0.298462  -3.69  0.001691608    3.445    0.710
        27  -9.7481     87.1856    183.1063   1.2691429792e+02   2.5588128873e+01    0.3007324    0.2642449 -25.17 0.0007058521    1.517    0.341
        28 -11.5992     81.2248    192.7473   1.2970576623e+02   2.4261314021e+01    0.6307352    0.3801478  61.21  0.002396566    1.719    0.418
        29 -12.0353     82.1864    188.3003   1.2885419808e+02   2.5149610818e+01    0.6397382    0.4389777  58.65  0.002872328    1.423    0.297
        30  -9.8439    103.3763    194.8340   1.2496588585e+02   2.0185327192e+01    0.3168631    0.2219648  28.59   0.00107525    1.734    0.423
        31  -8.9695     90.5446    194.0210   1.2776978015e+02   2.2501256684e+01    0.1993675    0.1131545  89.49 0.0008076236    2.469    0.595
        32 -12.6326    193.3732    193.8069   1.0479789659e+02   3.3890041366e+00    0.9122344    0.5232713 -58.22  0.003818375    2.396    0.583
        33  -8.7733     66.5443    208.5558   1.3492177232e+02   2.2826559116e+01    0.2744094    0.1768749  20.83  0.001344918    2.489    0.598
        34  -9.3553     92.0716    185.2512   1.2609681359e+02   2.4295283611e+01    0.1931325    0.1634034  62.71 0.0003187646    1.118    0.105
        35 -12.0913    207.6461    180.4621   9.9200296021e+01   3.1987665508e+00    0.9252236    0.4742759  32.14   0.00376124    2.274    0.560
        36 -10.0724    194.1861    166.1336   9.8931349423e+01   8.7082793027e+00    0.3026389    0.2498367 -60.41 0.0009771624    1.343    0.256
        37 -10.3746    196.9931    176.0036   1.0044250571e+02   6.1554237522e+00    0.4932396    0.3237413  75.07  0.001914091    2.830    0.647
        38 -11.1439    196.0889    171.2102   9.9620942704e+01   7.2937663586e+00    0.3970498    0.3655294 -21.15   0.00109404    1.081    0.075
        39 -10.0393     99.0585    180.9555   1.2375580043e+02   2.4144337305e+01     0.304399    0.2086066  32.43  0.001471568    1.661    0.398
        40 -11.8418    126.9514    173.5408   1.1573472063e+02   2.0826744854e+01    0.6032959    0.3520967  67.33  0.002287009    2.518    0.603
        41 -10.8856    118.3997    173.3919   1.1776933465e+02   2.2481102535e+01    0.2937991    0.2520771  76.40 0.0007235762    1.177    0.150
        42 -11.3789    137.5051    171.1792   1.1274793697e+02   1.9307187301e+01    0.3384277    0.2548226  46.23 0.0009157881    1.302    0.232
        43 -10.9734    101.5167    169.7245   1.2122780468e+02   2.6394878337e+01    0.2997007    0.2299096  62.15 0.0009318707    1.330    0.248
        44  -9.2389    224.2849    164.6674   9.2656301713e+01   2.9845429970e+00    0.1392059    0.1123693 -71.00 0.0002896839    1.618    0.382
        45  -9.3092    120.1176    163.8092   1.1550632614e+02   2.4418909583e+01    0.2331657    0.1946607  76.59 0.0007108168    1.268    0.211
        46 -10.8114     97.5683    161.8091   1.2077382060e+02   2.8980511259e+01    0.2675008    0.2435143 -65.21 0.0004949742    1.079    0.073
        47  -8.8133    115.4694    162.4665   1.1639667562e+02   2.5615061866e+01      0.15264    0.1414511  86.51 6.373566e-05    1.038    0.036
        48  -9.3830      7.0643    161.4777   1.4282620194e+02   4.0273943709e+01    0.1384911    0.1201789  33.99 0.0006009538    1.489    0.328
        49 -11.6316    102.1093    154.9040   1.1829645911e+02   2.9861975923e+01    0.6152753     0.407572 -34.86  0.001996214    1.915    0.478
        50  -9.5320    120.2604    156.3858   1.1396940808e+02   2.6153764569e+01    0.2204426    0.1395757  51.62 0.0009501616    1.638    0.389
        51 -12.8792    133.9472    144.9719   1.0805706180e+02   2.6113403285e+01     1.337291    0.3357695 -53.64  0.003255533    5.011    0.800
        52 -11.2087    174.7713    148.9437   9.9297055461e+01   1.6452788006e+01    0.2854439    0.2741724 -50.29 0.0008483799    1.032    0.031
        53 -12.7756      4.4893    132.5812   1.4031123972e+02   4.7077188687e+01     1.515151    0.6015095 -80.11  0.006873717    2.469    0.595
        54 -11.5571    145.2723    146.1302   1.0552305503e+02   2.3472565876e+01     0.444149    0.3118794  53.55  0.000280748    1.476    0.323
        55 -11.5403    111.6082    139.8711   1.1267038927e+02   3.1742052837e+01    0.5422131    0.3335779 -29.24  0.002127792    2.353    0.575
        56 -11.4599    100.6356    139.9151   1.1560488758e+02   3.3739618386e+01    0.2873776    0.2694908 -26.54 0.0004703771    1.179    0.152
        57  -9.2782    167.3043    133.6541   9.7393577810e+01   2.1428394634e+01    0.1635131    0.1248678 -82.78 0.0007041059    1.691    0.409
        58 -12.6428    135.0035    122.3794   1.0241188452e+02   3.1075379771e+01    0.9349206    0.2982194 -49.41  0.002795905    3.238    0.691
        59 -10.3707    105.6737    126.4408   1.1120265932e+02   3.6028024189e+01     0.304089    0.2557063 -35.05  0.000779104    1.250    0.200
        60 -11.3416    118.0061    130.0487   1.0872137764e+02   3.2823750048e+01    0.4058939    0.3437412  16.12  0.001146146    1.399    0.285
        61 -13.9478    195.7090    119.3228   8.7876153510e+01   1.7951665533e+01     1.430512     1.089923  -1.85  0.003934138    1.897    0.473
        62 -14.4321    188.6000    110.2369   8.7065463880e+01   2.1406952912e+01     1.502245     1.128535 -70.46  0.004179466    1.550    0.355
        63 -14.2482    196.4933    108.4188   8.5070644037e+01   1.9924713295e+01     1.693713     1.106978 -54.84  0.003473423    1.591    0.372
        64 -11.4249    160.8105    128.0820   9.7533268227e+01   2.4105457462e+01    0.3980929    0.3089921 -61.37  0.001848084    1.380    0.275
        65 -10.8826      6.5363    145.8449   1.4132938982e+02   4.3897137392e+01    0.2467511    0.2223554 -50.87 0.0005404882    1.313    0.238
        66 -11.8187    125.9786    127.6261   1.0603848996e+02   3.1778667498e+01    0.3894312    0.2867382  74.38   0.00171739    1.756    0.430
        67 -11.0969    127.5729    122.7695   1.0442888859e+02   3.2557948960e+01    0.3054067    0.1478006 -43.62  0.001134446    2.075    0.518
        68  -8.8038     80.2783    120.3176   1.1696620382e+02   4.1790596499e+01    0.1446125    0.1067356 -28.51 0.0003867815    1.574    0.365
        69 -10.0436    112.0645    119.0801   1.0766522711e+02   3.6520522718e+01    0.2276045    0.2196386 -74.63 0.0003252859    1.042    0.040
        70 -12.1013     13.2144    143.6527   1.3944708308e+02   4.3894967200e+01    0.3597446    0.2441485 -61.95   0.00182938    1.239    0.193
        71 -10.6252    105.8308    130.8392   1.1218304533e+02   3.4964202340e+01    0.3722913    0.3156656 -78.43  0.001301216    1.263    0.208
        72 -11.0916    168.3223    113.2114   9.2099148399e+01   2.5547566570e+01    0.4295052    0.3071735 -77.85  0.001067276    1.894    0.472
        73 -10.4103      2.0227    113.0712   1.3844484794e+02   5.1637068141e+01    0.2253063    0.1496865 -53.06 0.0009122188    1.265    0.210
        74 -11.4020    134.5590    105.7704   9.8222916797e+01   3.4803215001e+01    0.7902902    0.1520154 -44.35   0.00188913    5.161    0.806
        75  -8.9198    159.3162    107.6530   9.2702150043e+01   2.8795880272e+01    0.1642737     0.123433 -80.77 0.0007047994    1.723    0.420
        76  -9.8159    152.4864    102.9382   9.3049753847e+01   3.1349406481e+01    0.2702156    0.2137693  70.31 0.0006098248    1.413    0.292
        77 -13.9435      6.1226     63.0641   1.2796428648e+02   6.1955308979e+01    0.7433028    0.5279092 -46.01  0.002838128    1.069    0.065
        78 -11.3857     13.9258     87.3632   1.3051418839e+02   5.6523013621e+01    0.5405919    0.2692069 -57.99  0.002061076    1.554    0.356
        79 -12.5028      8.6137     82.1011   1.3123073538e+02   5.7969027507e+01    0.5370747    0.2974983 -53.34  0.001773141    1.359    0.264
        80 -12.3369      2.2727     77.5458   1.3247054669e+02   5.9269149313e+01    0.5258198    0.2873819 -70.23  0.002227795    1.757    0.431
        81 -12.2455    171.0623     84.4081   8.3967681378e+01   3.0533665650e+01    0.7408103    0.4426024  73.53   0.00284972    2.230    0.552
        82  -8.9009     83.4366     76.5036   1.0446636278e+02   5.0750042701e+01    0.1379325    0.1265063 -18.41 0.0001136654    1.015    0.015
        83  -9.7113    177.4669     75.4820   8.0317522951e+01   3.0564156118e+01     0.149834    0.1395732 -88.46 -3.728944e-05    1.027    0.027
        84 -11.2511     85.0474    235.8359   1.3421597629e+02   1.4299528145e+01    0.3213155    0.2017245 -79.16 0.0004151191    1.656    0.396
        85 -11.3186     92.5900    235.3123   1.3266995386e+02   1.3239648812e+01    0.2409283    0.1927067  84.71  0.000314694    1.172    0.147
        86  -9.4815     78.3866    232.5041   1.3516424202e+02   1.5978984996e+01    0.1877898    0.1640372  40.30 0.0005734953    1.385    0.278
        87  -9.1140    112.5360     21.5398   7.7927541970e+01   5.3325697101e+01    0.1278844    0.1132603  44.03 2.369615e-05    1.053    0.050
        88  -9.2277     70.6055    229.2740   1.3635322044e+02   1.7784381208e+01     0.186581    0.1503748  24.54  0.000775409    1.759    0.432
        89 -19.3941     36.8374    145.3394   1.3368425351e+02   4.1353553065e+01     20.67554     2.440548 -66.11   0.04610544    8.159    0.877
        90 -12.1115     80.1282    219.6970   1.3338504682e+02   1.8402913268e+01    0.3833387      0.25006  68.28 0.0004064734    1.465    0.318
