#   1 NUMBER                 Running object number                                     
#   2 MAG_AUTO               Kron-like elliptical aperture magnitude                    [mag]
#   3 X_IMAGE                Object position along x                                    [pixel]
#   4 Y_IMAGE                Object position along y                                    [pixel]
#   5 X_WORLD                Barycenter position along world x axis                     [deg]
#   6 Y_WORLD                Barycenter position along world y axis                     [deg]
#   7 A_WORLD                Profile RMS along major axis (world units)                 [deg]
#   8 B_WORLD                Profile RMS along minor axis (world units)                 [deg]
#   9 THETA_WORLD            Position angle (CCW/world-x)                               [deg]
#  10 FWHM_WORLD             FWHM assuming a gaussian core                              [deg]
#  11 ELONGATION             A_IMAGE/B_IMAGE                                           
#  12 ELLIPTICITY            1 - B_IMAGE/A_IMAGE                                       
         1 -14.2355    165.7948     51.2424   7.4810089236e+01   3.7370487333e+01     1.895786     1.277613  20.71   0.00672465    2.319    0.569
         2 -13.9882    179.3312     34.8367   6.8206884103e+01   3.6299903609e+01    0.8722678    0.8000874 -73.22  0.003160352    1.110    0.099
         3 -12.3881    189.7873     14.8408   6.1851301059e+01   3.6127637077e+01    0.2775748    0.2123259 -82.11 0.0008996707    1.190    0.159
         4 -13.7429    199.5789      4.0126   5.8288345866e+01   3.4965295886e+01    0.8776141    0.4510242  72.36  0.004275149    1.622    0.383
         5 -10.9561     60.7487      2.9936   8.3908753509e+01   6.4996999717e+01    0.1415154   0.08888657 -16.36 0.0008195184    1.609    0.378
         6  -9.9001    220.5358    229.0654   1.0481114866e+02  -7.4357794517e+00    0.2854874     0.119933 -46.98  0.001205443    2.948    0.661
         7 -18.8983     51.6306    243.6800   1.4049068298e+02   1.7449342419e+01      6.77053     6.077463  83.09   0.04934382    1.306    0.235
         8 -10.8804    163.1988    210.8471   1.1320339795e+02   5.8445027678e+00    0.3004221    0.1711573 -52.40 0.0009692425    1.942    0.485
         9 -10.5326    163.3506    204.0435   1.1195552911e+02   7.1810864274e+00     0.198064    0.1827846 -52.13  0.000483583    1.154    0.133
        10 -11.7778    139.5183    200.5904   1.1661662820e+02   1.2433345727e+01    0.3275642    0.2445636 -70.69  0.001633899    1.521    0.343
        11 -10.1620      6.2751    202.2258   1.4573043741e+02   3.1382940800e+01   0.09649715   0.07839919 -65.81 0.0002902633    1.422    0.297
        12 -12.5809    193.4409    192.6246   1.0336888404e+02   3.6955474431e+00    0.8880128    0.4903679 -52.30  0.003023006    2.083    0.520
        13 -10.6838    208.9780    197.9571   1.0126406673e+02  -1.9992109678e-01    0.2062521    0.1761663  88.26 0.0006299372    1.658    0.397
        14 -10.5642    153.8857    196.1043   1.1258831245e+02   1.0649503149e+01    0.2303168    0.1977131  76.09 0.0008827988    1.286    0.223
        15 -10.1611     22.9094    195.9323   1.4191027994e+02   3.1146079906e+01    0.1322084   0.09926024 -86.69 0.0008515845    1.061    0.057
        16  -9.4661    180.3100    192.6443   1.0613953837e+02   6.2219544785e+00    0.1471929    0.1170978  86.80 0.0007043302    1.730    0.422
        17 -10.8441    167.7468    188.5972   1.0807791339e+02   9.5218282366e+00    0.2846286    0.2449126 -72.36   0.00107583    1.320    0.242
        18 -10.0706    163.2972    188.3164   1.0900969261e+02   1.0462601999e+01    0.1478713    0.1181545  -3.84            0    1.609    0.378
        19 -19.0638     36.4513    104.6262   1.2572040575e+02   5.1219795713e+01     17.13143     0.724345 -60.23   0.02463791   19.882    0.950
        20 -12.6589     97.9278    180.8318   1.2294705122e+02   2.4498822636e+01    0.5517442    0.3156777  40.64  0.002482522    1.758    0.431
        21 -11.1550    208.5220    178.5031   9.7435389188e+01   3.5416015892e+00    0.3589205    0.2907372  11.56  0.001890892    1.364    0.267
        22 -12.6652    141.6722    175.8152   1.1151038477e+02   1.7536287751e+01    0.4827108    0.3642084 -12.70  0.002161996    1.934    0.483
        23  -9.8696    195.6974    174.3199   9.9164201003e+01   6.8818790983e+00    0.2493118    0.1922264  67.42   0.00080592    1.641    0.390
        24 -11.4680    195.8824    170.2128   9.8256304860e+01   7.6752374390e+00    0.4240324    0.3860322 -55.50 0.0009741361    1.152    0.132
        25 -10.7790    193.8280    164.9593   9.7554001713e+01   9.1670800597e+00    0.3696966    0.2995886 -57.05  0.001416661    1.319    0.242
        26 -11.0335    205.7715    180.5731   9.8412971167e+01   3.6702677380e+00    0.2926216    0.2520354  52.79 0.0008708189    1.277    0.217
        27 -11.9518    137.6635    171.0897   1.1151908820e+02   1.9421751429e+01    0.3469089    0.3026617  63.45 0.0009900669    1.152    0.132
        28 -10.4406    114.9058    162.1394   1.1532132741e+02   2.5958114545e+01    0.2338973    0.1988394  86.44 0.0004370177    1.231    0.188
        29  -9.5816     13.4543    160.4483   1.4049916102e+02   4.0224955556e+01    0.1245186   0.09676498 -84.50 5.897426e-05    1.040    0.039
        30 -11.2504    120.1616    156.7308   1.1288996098e+02   2.6254789130e+01    0.3666449    0.2045214 -60.71  0.001465548    1.922    0.480
        31  -9.3776      3.4396    155.5994   1.4233150698e+02   4.2144039778e+01    0.1194839   0.09145409 -70.72 0.0001773693    1.118    0.105
        32 -12.2491    134.3958    148.2198   1.0745862084e+02   2.5427255953e+01    0.6771598    0.2881568 -56.59  0.002256274    2.694    0.629
        33 -12.4575    134.0000    144.0099   1.0660569481e+02   2.6494501831e+01     1.008927    0.3243131 -57.53   0.00247674    5.037    0.801
        34 -10.0399      9.8367    153.2753   1.4057853939e+02   4.2192588591e+01    0.1950865    0.1523449 -34.78  0.001273133    1.636    0.389
        35 -10.5156    174.8838    149.0974   9.8090220597e+01   1.6549231243e+01    0.2456053    0.2145727 -85.12 0.0006489439    1.284    0.221
        36 -10.0483     10.5154    213.8930   1.4576937767e+02   2.8454280520e+01    0.1548796     0.139985  46.26 0.0007224429    1.498    0.332
        37 -12.1849    144.7643    145.6287   1.0430787345e+02   2.3854908488e+01    0.4249948    0.3334274 -74.96 0.0009708563    1.476    0.323
        38 -13.9257     11.9265    206.2224   1.4494320843e+02   2.9970891601e+01     0.551151     0.274311  34.98  0.003126258    2.266    0.559
        39  -9.8971      5.9000    146.0355   1.4073251207e+02   4.4171552270e+01    0.1785457    0.1188646 -47.20 0.0007244013    1.589    0.371
        40 -12.4293    100.7995    139.4269   1.1427677835e+02   3.4035988976e+01    0.3021265    0.2958002  35.65 0.0004131014    1.104    0.094
        41 -12.0967      4.4752    131.4763   1.3938177946e+02   4.7628887226e+01    0.4632185     0.216586  82.99  0.002053662    2.959    0.662
        42 -11.9331    105.9225    130.6957   1.1091197404e+02   3.5189132602e+01     0.412573    0.3298391 -63.53  0.001227844    1.259    0.206
        43 -11.2219    105.8399    125.9022   1.0980478360e+02   3.6333205005e+01    0.3295917    0.2532933 -35.42 0.0007268723    1.390    0.281
        44 -12.2747    117.9998    129.6814   1.0740295669e+02   3.3103696976e+01    0.4224621    0.3810253 -11.00  0.001099591    1.270    0.213
        45 -11.4466    136.0000    129.0166   1.0255174756e+02   2.9538041535e+01    0.4232608    0.1736623 -53.57  0.001382406    2.709    0.631
        46 -11.1586    136.0000    123.9825   1.0130624278e+02   3.0677569680e+01    0.4042801    0.1985069 -42.13  0.001500845    2.083    0.520
        47 -10.7044    135.0000    119.9676   1.0054908683e+02   3.1791920212e+01    0.3811756      0.14791 -43.60  0.001205957    2.591    0.614
        48 -11.3129    160.8384    127.4523   9.6135824520e+01   2.4401608917e+01    0.3925727    0.2795074  89.45  0.001609893    2.035    0.509
        49 -11.4146    125.0291    127.0255   1.0489695568e+02   3.2297323963e+01    0.3684516    0.2440942  76.41  0.001425713    2.368    0.578
        50 -10.7155    112.2736    118.9482   1.0632533456e+02   3.6711718780e+01    0.2695424    0.2250676  34.63 0.0002071473    1.264    0.209
        51 -11.0198     11.7952    117.2268   1.3541982615e+02   5.0395336362e+01     0.237155    0.1589763   6.18  0.001433179    1.985    0.496
        52 -11.0823    168.4020    113.1725   9.0846428848e+01   2.5702437575e+01    0.4240543    0.2925898 -75.04  0.001045145    1.992    0.498
        53 -10.9148      1.8248    113.0119   1.3765382254e+02   5.1985933459e+01    0.1821295    0.1386108 -61.14 0.0008820913    1.046    0.044
        54 -10.5970    205.3155    110.3084   8.2729330748e+01   1.7724115456e+01    0.3595861    0.2303922  40.69  0.001269621    1.831    0.454
        55 -12.6266     61.3934    109.0486   1.1887792892e+02   4.7367809252e+01     0.383065    0.3447326 -23.95  0.002305202    1.147    0.128
        56  -9.7870    109.9521    107.4748   1.0401265863e+02   3.9735778760e+01    0.2177216    0.1302736  64.81 0.0008097088    2.609    0.617
        57 -10.0868     81.4853    106.0565   1.1197911467e+02   4.5122761649e+01    0.2208538    0.1336024 -50.67 0.0006797216    1.543    0.352
        58 -11.4938     66.7691    104.5912   1.1615045607e+02   4.7650507012e+01    0.3003904    0.1809735  29.50  0.001447305    1.856    0.461
        59  -9.6294    150.4898    101.4409   9.1871357610e+01   3.2274713666e+01    0.1554373    0.1482358  89.88 7.961705e-05    1.054    0.051
        60 -10.1589     83.1225     76.5037   1.0324289276e+02   5.1010543970e+01     0.193781    0.1341573  37.15 0.0004709364    1.482    0.325
        61  -9.9665     13.5049     59.9629   1.2326847184e+02   6.2405526189e+01    0.1702089   0.09395437 -52.55 0.0004125664    1.500    0.333
        62 -10.8125      1.4371    248.6109   1.4942905335e+02   2.2326610790e+01    0.1205601   0.08010647 -86.35 0.0008771294    1.262    0.208
        63 -10.6354    198.8912    222.9024   1.0793585776e+02  -2.8356959794e+00    0.2024281     0.181605  23.15 0.0005566099    1.043    0.041
        64 -13.2730    183.6160     28.4418   6.5967863023e+01   3.6054503980e+01    0.5207521    0.4540716  74.30  0.001199433    1.072    0.067
        65  -9.8326    112.2648     21.4351   7.6701781959e+01   5.3437922194e+01    0.1755381    0.1158187  66.25 0.0009417686    1.612    0.380
        66 -10.6124     16.0533    213.2339   1.4468530459e+02   2.8035016183e+01    0.1096804   0.08710526  61.11 0.0007619974    1.252    0.202
        67 -11.2336    169.1435    236.5278   1.1624379491e+02  -2.8614633157e-02    0.2194082    0.2124255 -47.68 0.0003064371    1.185    0.156
