#   1 NUMBER                 Running object number                                     
#   2 MAG_AUTO               Kron-like elliptical aperture magnitude                    [mag]
#   3 X_IMAGE                Object position along x                                    [pixel]
#   4 Y_IMAGE                Object position along y                                    [pixel]
#   5 X_WORLD                Barycenter position along world x axis                     [deg]
#   6 Y_WORLD                Barycenter position along world y axis                     [deg]
#   7 A_WORLD                Profile RMS along major axis (world units)                 [deg]
#   8 B_WORLD                Profile RMS along minor axis (world units)                 [deg]
#   9 THETA_WORLD            Position angle (CCW/world-x)                               [deg]
#  10 FWHM_WORLD             FWHM assuming a gaussian core                              [deg]
#  11 ELONGATION             A_IMAGE/B_IMAGE                                           
#  12 ELLIPTICITY            1 - B_IMAGE/A_IMAGE                                       
         1 -11.0311      4.6306     37.7806   1.0609877156e+02   6.7950827573e+01    0.6617293    0.4391401  89.12  0.003723406    2.630    0.620
         2 -12.4581    107.6570     28.8686   6.1493477349e+01   5.4532400465e+01     0.480385    0.4116047 -39.30  0.002769987    1.309    0.236
         3 -10.8463    186.1424     29.8306   4.6558670343e+01   3.5047553373e+01    0.7226725    0.4229532  73.52  0.002481191    1.678    0.404
         4 -11.0328     18.4481     23.1410   9.3951501574e+01   6.9710378863e+01    0.3913906      0.24504 -47.74  0.002436398    1.523    0.344
         5 -10.5374     24.8924      6.7327   8.2855681578e+01   7.1621706647e+01    0.2303609    0.1479579 -35.02 0.0006138441    1.488    0.328
         6 -10.5475     13.8438     10.7187   9.0883821437e+01   7.2131262536e+01    0.2467394    0.1409249 -36.36 0.0004943124    1.409    0.290
         7 -11.4730     19.8940      6.5484   8.5450442985e+01   7.2181668163e+01     0.532581    0.3105261  -9.38  0.001690301    1.668    0.400
         8 -11.8984    165.9153     18.4807   4.6115871733e+01   4.1490966266e+01    0.6166049    0.4156698 -76.94   0.00192674    1.696    0.410
         9  -9.6374     17.4150      1.9251   8.4377866647e+01   7.3077308038e+01    0.2002615    0.1446579  12.39 0.0007095098    1.297    0.229
        10  -7.5359      5.6169      8.8245   9.4700402714e+01   7.3078853250e+01    0.3254175     0.242902  34.76  0.002303067    1.961    0.490
        11 -11.8475      5.1919     15.7185   9.7987120201e+01   7.1973338515e+01    0.5186388    0.4178572 -82.27  0.001665653    2.279    0.561
        12 -11.3030     67.5609     15.3892   6.8274941780e+01   6.4283658825e+01    0.3625295    0.2490399  31.28  0.000474909    1.315    0.239
        13 -10.7159    115.5929     14.8915   5.4094919174e+01   5.4303203561e+01    0.4601434    0.2603358  57.71  0.001259455    1.599    0.374
        14 -12.6041    116.6663     22.2028   5.6646626945e+01   5.3269226593e+01    0.4573416    0.3199606  63.59  0.002381398    1.455    0.313
        15 -10.4017     26.6472     21.5614   8.9097680374e+01   6.9205795575e+01    0.4069154    0.2200562 -17.14  0.002175937    1.997    0.499
        16  -8.5389     16.3926     17.4052   9.2567984354e+01   7.0846089646e+01    0.6331258    0.2780918 -31.87  0.003352355    1.985    0.496
        17 -10.4100    218.4650     18.5725   3.9850891848e+01   2.8460830943e+01    0.3196594    0.2517421 -50.85   0.00192064    1.184    0.155
        18  -9.6082    199.3602     18.4270   4.1804464598e+01   3.3090317170e+01    0.2910762    0.2295158  -9.96  0.001047296    1.616    0.381
        19 -10.5050    182.7540     17.7471   4.3598514332e+01   3.7305904549e+01    0.5546237    0.3355685  22.56  0.002022689    2.647    0.622
        20 -10.2834    230.2801     14.6323   3.7843544002e+01   2.6169874157e+01    0.3329671    0.1972744 -21.19  0.001704765    2.120    0.528
        21  -9.5264    127.1589     16.0492   5.2038508619e+01   5.1431426170e+01    0.3943062    0.2518845   7.52  0.001304597    1.991    0.498
        22  -9.7097    225.7585     16.2924   3.8625502145e+01   2.7018528392e+01    0.2741672    0.1575791 -40.76  0.001127941    1.600    0.375
        23  -9.5019     48.2257      8.1435   7.2398155227e+01   6.8348526728e+01    0.9361835    0.2252688  34.64  0.002993058    5.362    0.813
        24  -8.2994     45.4559     16.4889   7.7771759302e+01   6.7679863117e+01    0.3175165    0.2091605  -7.85  0.001460839    1.448    0.309
        25  -8.7243     42.2789     14.6286   7.8302701385e+01   6.8377100780e+01    0.3241127    0.2199005 -51.00  0.001554932    2.348    0.574
        26  -9.2725     51.4954     13.4809   7.3680342366e+01   6.7188924515e+01    0.3706215    0.1805593  40.29  0.001910504    2.036    0.509
        27  -9.6963     52.9680      9.9143   7.1294356270e+01   6.7398582305e+01     0.419932    0.2464917  32.97  0.002160789    1.569    0.363
        28  -9.8551     32.4562     12.6063   8.1981270324e+01   6.9923469492e+01    0.2993976    0.1705156 -34.81  0.001703232    1.589    0.371
        29  -9.7543    209.7571     14.2689   3.9644022873e+01   3.1021629674e+01    0.2366623    0.2096452  69.63 0.0006456443    1.190    0.160
        30  -9.8315    173.4728     13.5343   4.3587640245e+01   4.0094450851e+01    0.2583751    0.2500844 -81.51  0.001152579    1.103    0.094
        31 -10.3804    176.1747     10.8445   4.2461342583e+01   3.9684929411e+01    0.4078612    0.2901979  49.01  0.002218856    1.450    0.310
        32  -9.7052    139.3285     13.6906   4.8876367405e+01   4.8681841093e+01    0.2623903    0.2329384  69.70   0.00100663    1.075    0.070
        33 -10.9888    133.1115     12.7523   4.9687432890e+01   5.0307739133e+01    0.2448153    0.2245079  71.26 0.0002987798    1.093    0.085
        34 -10.0716     88.7405     13.4674   6.0444871033e+01   6.0401631246e+01    0.2844479    0.1910833  42.26  0.001578181    1.318    0.241
        35 -10.5298    146.9355     12.1099   4.7041861871e+01   4.6938169522e+01    0.5180723    0.3140427  65.91  0.001303578    1.481    0.325
        36  -8.4956     74.8205     11.9552   6.4130325921e+01   6.3337648443e+01    0.2700122    0.1466356 -38.64   0.00134293    2.190    0.543
        37  -9.3973     74.1095      8.1625   6.2594716507e+01   6.3873622302e+01    0.2159251    0.1851413  -2.46 0.0008896815    1.146    0.127
        38  -8.4855     98.0300      9.9718   5.6377867208e+01   5.8769854946e+01    0.5093356    0.1747197 -21.18  0.001970205    3.239    0.691
        39  -8.4600     23.2803     12.0367   8.6392288144e+01   7.1034823017e+01    0.1596939   0.09739885  -6.78 0.0008315914    1.601    0.375
        40  -8.9271    219.1009     11.2847   3.8035694931e+01   2.9128408896e+01    0.1857217    0.1482188 -85.90 0.0005174797    1.102    0.092
        41 -11.4157    108.9032      7.3871   5.2671615900e+01   5.6568251669e+01    0.5603225    0.4230635  48.17  0.002235374    1.150    0.130
        42  -9.1199    102.8120      9.9882   5.5171145974e+01   5.7709604367e+01    0.2052562    0.1834709 -68.67  0.001258528    1.424    0.298
        43 -11.0081    248.0797      4.9392   3.4353582565e+01   2.3312700978e+01    0.4345447    0.3110227   5.68  0.001555457    2.499    0.600
        44  -9.9341    165.2882      8.2861   4.3114906696e+01   4.2679686995e+01    0.3639652    0.2044725 -42.91  0.001543714    1.874    0.466
        45  -8.6673    224.3962      9.1373   3.7070417043e+01   2.8128825062e+01    0.1823054   0.09772333 -45.51   0.00055009    1.673    0.402
        46  -9.4920    211.5148      8.9063   3.8148413866e+01   3.1178371471e+01     0.292351    0.2074712  84.02   0.00168674    1.272    0.214
        47 -10.3483    208.7888      4.4573   3.7303379795e+01   3.2287865934e+01    0.4098637    0.2921089 -65.15  0.001950187    1.284    0.221
        48  -9.7124    202.3241      8.3844   3.8893030722e+01   3.3446236429e+01     0.315221    0.1977687 -78.10  0.001415481    1.583    0.368
        49 -10.1196    193.4480      8.1168   3.9726501669e+01   3.5647352532e+01    0.4190927    0.2011486  74.17  0.001930932    1.904    0.475
        50 -10.7039    195.1970      3.1982   3.8258176745e+01   3.5701605673e+01    0.7489625    0.2331685  62.95  0.002983326    2.681    0.627
        51  -9.9947    187.0179      2.3521   3.8859588832e+01   3.7794890706e+01    0.3087557    0.2067593 -69.31  0.001678701    1.489    0.328
        52  -9.6778    128.2406      8.1898   4.8971501291e+01   5.1921818088e+01    0.2294073    0.1893532  72.16 0.0002217504    1.194    0.163
        53  -9.7572    120.2152      8.2316   5.0561453643e+01   5.3847257670e+01    0.2297627    0.2036519 -41.12 0.0006459014    1.294    0.227
        54 -10.6427     86.6613      6.3920   5.7923262195e+01   6.1535806979e+01    0.3263039    0.2827033  47.32  0.001329779    1.187    0.157
        55  -8.8910     92.2967      7.9913   5.7057064163e+01   6.0198373889e+01    0.1765372    0.1700831 -22.98 0.0004402003    1.248    0.199
        56  -7.6113     79.4953      9.5622   6.1508124852e+01   6.2681801452e+01     0.129666    0.1080846  22.77  0.000240834    1.008    0.008
        57  -8.6916     28.6705      8.6415   8.1880982227e+01   7.0927017715e+01    0.1267033   0.07333855  -7.55 0.0007042939    1.790    0.441
        58  -9.4586    138.8933      6.9276   4.6632188581e+01   4.9421610316e+01    0.1932378    0.1673351  46.44 0.0002932448    1.095    0.087
        59  -9.5097     62.4579      6.1598   6.5699679063e+01   6.6225906953e+01     0.287535    0.2448177 -67.65  0.001782497    2.023    0.506
        60 -10.8074    237.7776      4.1289   3.4899506764e+01   2.5640480124e+01     0.311348    0.2728646  41.15  0.002088399    1.556    0.357
        61  -7.4953     40.6955      6.6849   7.5001144636e+01   6.9629893241e+01    0.2357731    0.1318039  -6.49  0.001249483    1.973    0.493
        62 -10.3384     38.0932      2.5771   7.4021512998e+01   7.0487448400e+01    0.2911575     0.257298  21.60 0.0009845375    1.412    0.292
        63  -8.4140    174.6540      5.2931   4.1052770807e+01   4.0603162982e+01    0.1409348   0.09089125 -69.49 0.0002019109    1.665    0.400
        64 -10.2865     30.9683      3.4196   7.7949775077e+01   7.1334348997e+01    0.2172298     0.155218 -31.29 0.0004955092    1.467    0.319
        65  -9.1562    224.0499      3.7841   3.5858773738e+01   2.8774977851e+01    0.2007134    0.1686015  -4.46  0.001262852    1.640    0.390
        66 -10.3042    218.6691      2.5789   3.6009780882e+01   3.0144818280e+01     0.291273     0.220404  78.21  0.001111808    1.222    0.182
        67 -10.7868    160.5441      2.8995   4.2109221507e+01   4.4363082786e+01    0.4581659    0.2683809  59.53  0.001717595    1.492    0.330
        68  -8.9351     87.7503      2.3447   5.5811102437e+01   6.1668630440e+01    0.1574088    0.1121301  -0.46 0.0007426657    1.432    0.302
        69  -9.3731     90.9366      1.4267   5.4553262081e+01   6.1069134083e+01    0.2912188    0.2354074 -67.39   0.00172467    1.770    0.435
        70  -9.5191     81.6418      1.9132   5.7337184309e+01   6.2971373247e+01    0.2542577    0.1783675  59.55   0.00123732    1.523    0.343
        71 -10.8799     74.2962      1.9001   5.9560249843e+01   6.4437806138e+01    0.3554163    0.2148878  48.22  0.001095474    1.494    0.331
        72  -8.4812    171.0045      6.2163   4.1764116370e+01   4.1433902162e+01    0.1845406    0.0979745  70.81 0.0005452896    1.671    0.402
        73 -10.2323    180.0841      1.9665   3.9493380526e+01   3.9551643341e+01    0.3432509    0.2026621  76.32 0.0009252586    1.512    0.339
        74  -8.6819    175.2368      1.2090   3.9820221848e+01   4.0828633584e+01    0.1981551    0.1140487  84.45 0.0009690265    1.676    0.403
        75 -10.5763     49.5484      2.2977   6.8790047299e+01   6.8802351604e+01    0.2674038     0.164894  29.23 0.0002549175    1.430    0.301
        76  -8.6869      3.4923      2.9971   9.3157030657e+01   7.4138749162e+01     0.164878   0.08301712 -39.92   0.00102187    1.570    0.363
        77  -9.0495    147.7562      1.4881   4.3431607804e+01   4.7683728647e+01    0.2021385    0.1263572  45.08  0.001041839    1.561    0.360
        78  -8.6381    119.5096      2.5353   4.8554776121e+01   5.4501044614e+01    0.1320054    0.1158451  52.27 8.100847e-05    1.027    0.027
        79 -10.2947    115.6228      2.0207   4.9127708641e+01   5.5460811671e+01    0.2635537    0.1730232  60.61 0.0002259774    1.348    0.258
        80  -8.3242    122.6741      1.3163   4.7497754665e+01   5.3843837825e+01    0.1302355   0.09744933 -68.62 0.0007044291    1.672    0.402
        81  -9.1030     23.5738      1.3664   8.0674361083e+01   7.2485059098e+01    0.1118226   0.08516019  -4.51 1.776877e-05    1.047    0.045
        82  -8.5435     71.3719    117.6922   1.0092882814e+02   4.3541051977e+01    0.1497838    0.1072753  73.32 0.0007033144    1.767    0.434
        83  -9.4343    201.3801    249.3168   9.3865290162e+01  -5.2049289992e+00    0.2266545    0.1578613  33.91 0.0007851283    1.200    0.167
        84  -9.9704    115.8499    248.8780   1.0993672005e+02   8.0577505269e+00     0.230862    0.1997281  70.95  0.000863865    1.186    0.157
        85 -10.7272     61.8207    113.0382   1.0288130064e+02   4.5978110468e+01    0.5017124    0.2464013 -49.34  0.002015388    1.860    0.463
        86 -11.1864     31.8432    112.8471   1.1214623763e+02   4.9302701172e+01    0.5179473     0.404092  65.69  0.003117984    1.429    0.300
        87 -10.4089     36.6354    106.5558   1.0956057799e+02   5.0382282710e+01    0.5344754    0.2918414 -71.26  0.002609134    1.704    0.413
        88  -9.9065     31.9914    106.9648   1.1111052040e+02   5.0710811300e+01    0.5691787    0.2965517  74.47  0.002292471    3.277    0.695
        89  -8.4346     49.2977    111.6619   1.0651430359e+02   4.7830255492e+01    0.1380071   0.09966508  79.52 0.0007032739    1.657    0.397
        90  -9.2981    129.3756    109.3165   8.2034212119e+01   3.5029196513e+01    0.2852051    0.1451696  46.23  0.001076478    2.012    0.503
        91  -9.8361    137.3737    107.3960   7.9405760277e+01   3.3707186916e+01    0.2891083    0.2681865 -87.14 0.0005445264    1.169    0.145
        92 -10.3376    153.9147    107.0277   7.5173862376e+01   3.0034196287e+01    0.2552195    0.2274783  37.93            0    1.149    0.130
        93  -9.4247     93.4318    118.9550   9.4626788498e+01   3.9765685735e+01    0.2713796    0.2270411  27.53 0.0008551796    1.324    0.245
        94 -10.0267     95.1075     87.0964   8.5713657880e+01   4.6839566402e+01    0.5838588    0.2901455  49.97  0.001320313    2.407    0.585
        95 -10.5840    104.4682     91.0274   8.3985243675e+01   4.4204305930e+01    0.4457668    0.3222113  74.09            0    2.048    0.512
        96 -10.8260    101.7813    101.2335   8.7672471691e+01   4.2434315152e+01    0.7612594    0.5466338 -32.99   0.00186458    1.487    0.327
        97 -10.1847    110.2391     99.1004   8.4581919355e+01   4.1279679190e+01    0.3350412    0.2981472  -3.50 0.0006869417    1.237    0.192
        98 -10.4410    106.5143     97.9428   8.5353015425e+01   4.2273014648e+01    0.5297428     0.281817 -39.20  0.001750799    1.935    0.483
        99  -9.7606     48.1133    103.4405   1.0524921778e+02   4.9953715290e+01    0.2883857    0.1882638 -35.35  0.001468189    1.677    0.404
       100  -9.7084     50.8232     98.9427   1.0339472897e+02   5.0725766403e+01    0.2487198    0.1905447 -58.90 0.0003814964    1.141    0.124
       101 -10.1437    175.1878    102.6467   6.9152202841e+01   2.5926145956e+01    0.3918971    0.2820649  15.08            0    1.950    0.487
       102 -10.5835     57.2959    102.1128   1.0196380178e+02   4.9194569186e+01    0.4004354    0.2614858 -55.62  0.001269797    1.336    0.252
       103  -9.9815     79.7844    101.2958   9.4495268692e+01   4.6223337365e+01    0.3973163    0.2105481  55.27  0.001528413    2.721    0.632
       104  -8.9701     15.7468     99.4782   1.1506968773e+02   5.3765313025e+01    0.1667191    0.1521626 -68.27 0.0005726695    1.139    0.122
       105  -9.3765     17.9980     96.2570   1.1381337123e+02   5.4371324454e+01    0.2459319     0.148934 -65.10 0.0002114069    1.313    0.238
       106 -10.0571    123.9155     98.3244   8.0479323852e+01   3.8620254093e+01    0.4276932    0.2699089  16.65  0.001300112    2.625    0.619
       107 -10.1849     75.0550    104.5810   9.6812356542e+01   4.6171535522e+01    0.3074485    0.1964548 -49.07  0.001461504    1.429    0.300
       108  -9.2641     67.1430     97.9173   9.7742432646e+01   4.8895780560e+01    0.2086927    0.1851678 -87.07 0.0004993796    1.258    0.205
       109 -10.0229    134.9230     92.4117   7.5809641030e+01   3.7446543659e+01    0.2454724    0.2206219 -79.78 0.0006530401    1.253    0.202
       110 -10.4119    130.2711     96.3832   7.8195007107e+01   3.7653764870e+01    0.4567514    0.3076826  -0.46  0.001199645    2.547    0.607
       111  -9.5161     12.2884     94.2010   1.1536431073e+02   5.5229223206e+01    0.3728679    0.1501864 -77.96  0.001598781    2.577    0.612
       112  -9.6063     51.9319     94.0013   1.0189954510e+02   5.1768612513e+01    0.2614766    0.1731253 -50.78 0.0002979288    1.305    0.233
       113 -11.1269     46.7796     93.8845   1.0363027175e+02   5.2378599207e+01    0.6450344    0.3684471 -14.99  0.002565869    2.871    0.652
       114 -10.1977     43.7403     88.2077   1.0338238836e+02   5.4034290762e+01    0.3299098    0.2175011  40.86  0.000802937    1.783    0.439
       115  -9.7456     54.4580     86.0765   9.9085076783e+01   5.3311126416e+01    0.4548766    0.1957556 -42.53  0.001744369    2.245    0.554
       116  -9.4843     44.9361     73.1782   9.9135108522e+01   5.7316288466e+01    0.2211663    0.1647893 -51.72  0.001082548    1.177    0.150
       117 -10.4552     45.1670     69.0636   9.7889913852e+01   5.8189456082e+01    0.7078921    0.3155632 -29.48  0.002279014    3.250    0.692
       118 -11.3653     50.3215     83.0642   9.9781449690e+01   5.4492433528e+01     0.775589    0.4446099 -15.49  0.003006484    2.745    0.636
       119  -9.9924     57.0193     82.4922   9.7236179959e+01   5.3809363153e+01    0.3390691    0.2186614  46.21  0.001694098    1.888    0.470
       120 -11.8974     52.9470     75.1506   9.6688484324e+01   5.5954723704e+01    0.2661658    0.2373629 -22.00 -0.0009232552    1.101    0.092
       121 -10.6056     52.9308     70.2889   9.5286414170e+01   5.7015576378e+01    0.3939312    0.2583959 -70.52 0.0004810447    2.049    0.512
       122  -9.4274     80.3369     93.4005   9.2244772574e+01   4.7970596973e+01    0.4646198    0.2566037 -45.85   0.00126558    1.674    0.403
       123  -8.7818     73.4397     94.7953   9.4875428567e+01   4.8717217390e+01    0.2054695    0.1231202 -43.53 0.0003509529    1.568    0.362
       124  -9.1620     23.6002     95.3919   1.1180074224e+02   5.4166560496e+01    0.1776584    0.1359244  79.77 0.0006786577    1.493    0.330
       125  -9.0139    179.0201     94.0390   6.6006093165e+01   2.6668479266e+01    0.2432641    0.1912416   5.00 0.0006042268    1.646    0.393
       126 -10.5209     32.7378     92.9276   1.0823404362e+02   5.3993361089e+01    0.4368942    0.3419965  -8.32  0.002636495    1.534    0.348
       127 -10.2474     16.7619     85.9547   1.1242355635e+02   5.6860957842e+01    0.4435127    0.2068413 -43.28   0.00167563    1.969    0.492
       128  -9.1539     11.4509     85.9544   1.1427753254e+02   5.7195707234e+01     0.197358    0.1698514 -58.83 0.0007198208    1.093    0.085
       129 -10.1663     21.1542     87.6593   1.1120641728e+02   5.6160582362e+01    0.2848644    0.1727456  22.24 0.0003058599    1.988    0.497
       130 -10.3088     27.6225     87.8038   1.0896874779e+02   5.5629236695e+01    0.4944459    0.2580117 -65.34  0.002490957    1.648    0.393
       131 -10.5750     30.6148     84.1211   1.0712888112e+02   5.6233101096e+01    0.3294755    0.2364845 -12.17 0.0006624907    1.665    0.399
       132  -9.4888      1.9143     92.9775   1.1858336756e+02   5.6092248146e+01    0.1823151     0.143815 -74.40 0.0006811766    1.085    0.078
       133  -9.4425    117.0843     91.4060   8.0392873977e+01   4.1563220494e+01    0.2555433    0.2095369 -27.29 0.0005873823    1.270    0.212
       134 -10.4926    129.4655     85.8713   7.5307484594e+01   4.0021743060e+01    0.3893703    0.3241433   5.86 0.0008433572    1.404    0.288
       135 -10.0810    129.5319     79.5524   7.3349364535e+01   4.1268241959e+01    0.3902766    0.1466529 -42.51  0.001298459    2.639    0.621
       136 -10.2925    124.5096     88.9135   7.7569932146e+01   4.0495895119e+01    0.4503154    0.2968259 -49.98  0.001238173    1.568    0.362
       137 -10.7750    119.1055     84.4438   7.7726186004e+01   4.2595666409e+01    0.4594405    0.3437497  76.39  0.002041803    1.867    0.464
       138 -10.2693     87.7374     87.6572   8.8229423874e+01   4.8032726967e+01    0.5647519    0.2450141 -47.66  0.001814043    2.154    0.536
       139 -10.2369     68.5391     87.2768   9.4513857740e+01   5.1164829683e+01     0.464287    0.3215356   9.10  0.002259313    1.860    0.462
       140 -10.5801     73.4145     81.3342   9.1161855726e+01   5.1771317991e+01    0.5502054    0.3085647 -41.68  0.002493138    1.667    0.400
       141  -8.6152    189.4674     87.0551   6.2040082218e+01   2.5431299670e+01    0.2211168    0.1476031 -36.76 7.194415e-05    1.458    0.314
       142  -8.3368      2.2508     86.6691   1.1755116609e+02   5.7528081034e+01    0.1145142   0.07989138  83.96 0.0005020994    1.553    0.356
       143 -10.5876    155.2533     84.7536   6.8541942926e+01   3.4196018990e+01    0.3858404    0.3273723 -27.72 0.0003663239    1.219    0.180
       144 -10.5367    150.5100     80.5113   6.8385265430e+01   3.6148516184e+01    0.4170934    0.2864219  61.19   0.00183582    1.580    0.367
       145  -9.0374     78.9720     84.1991   9.0110259895e+01   5.0264644473e+01    0.2624601    0.1965789 -58.07  0.001328945    1.383    0.277
       146  -9.3434     81.5925     81.1930   8.8343367312e+01   5.0495199997e+01    0.2860082    0.1220188 -39.04  0.001052325    2.446    0.591
       147  -9.2871     35.6226     82.8053   1.0502519633e+02   5.6088086786e+01    0.3303139    0.2106685 -52.92 0.0009576439    1.289    0.224
       148  -9.1633     42.5782     80.7210   1.0199088494e+02   5.5878293869e+01    0.2779848    0.1867376 -40.55  0.001519285    1.346    0.257
       149  -8.9040     38.6465     79.5489   1.0314314359e+02   5.6542413940e+01    0.2002107    0.1634457  78.07  0.001175211    1.578    0.366
       150  -9.4612     20.6514     81.9018   1.1025430836e+02   5.7526478982e+01    0.2404032     0.196696  56.31   0.00111313    1.519    0.342
       151  -8.8207    133.3512     81.3087   7.2885967367e+01   4.0049315825e+01    0.2274719      0.16213 -22.20  0.000628522    1.625    0.385
       152 -10.6502    135.4506     78.5060   7.1475799530e+01   4.0108301561e+01     0.526937    0.2628107  58.27  0.001916875    2.383    0.580
       153 -10.6635    108.8150     77.7383   7.8623457332e+01   4.6134960847e+01    0.6143599    0.3427523  27.94  0.002253727    2.385    0.581
       154  -9.1293      2.0054     73.9782   1.1556105137e+02   6.0415370308e+01    0.2322868    0.1040983 -54.76 0.0006014038    1.625    0.385
       155 -10.0103     90.3776     79.1518   8.4819453976e+01   4.9410707619e+01    0.2505149    0.2080407  46.38 0.0004502881    1.317    0.241
       156  -8.8372     67.5916     78.4847   9.2355325835e+01   5.3266269921e+01    0.1769674    0.1355651  12.19 7.512489e-05    1.485    0.327
       157 -10.6499     63.3646     75.4245   9.2960389071e+01   5.4534773336e+01    0.4073028    0.3889534  16.36  0.001719806    1.160    0.138
       158 -11.6259     17.0104     74.1540   1.0999071376e+02   5.9536359594e+01     0.323438    0.2269984 -54.31  0.000468586    1.120    0.107
       159 -10.3690    157.7348     76.6302   6.5565175653e+01   3.5107611864e+01    0.2822137    0.2778887 -84.92 0.0004623859    1.021    0.020
       160  -9.7053      1.9201     79.6486   1.1655730964e+02   5.9143233443e+01    0.3493745    0.1703126 -74.83  0.001843006    1.796    0.443
       161 -12.1371    199.7632     71.8529   5.6099655986e+01   2.5547515306e+01    0.3843587    0.2771731 -29.22 0.0004566855    1.439    0.305
       162  -9.4331    126.4047     75.6049   7.2945960995e+01   4.2745073819e+01    0.2924046    0.2052811   7.94 0.0008232663    2.050    0.512
       163  -9.8082     82.4226     75.4204   8.6290479408e+01   5.1590731143e+01    0.3940848    0.2734105   5.73  0.001262893    1.917    0.478
       164  -8.9410     28.4876     75.7225   1.0600957875e+02   5.8327932987e+01    0.2376783    0.1444739 -44.45 0.0007306397    1.397    0.284
       165 -10.0786    180.5598     74.1089   6.0128980180e+01   2.9896641671e+01    0.5179083    0.3385685  13.50  0.001985107    2.643    0.622
       166 -11.3074    171.4226     73.3831   6.1705757104e+01   3.2295324161e+01    0.7549906    0.4189038  75.67  0.002681392    2.781    0.640
       167 -10.8565     89.2297     72.8449   8.3195639352e+01   5.0930735518e+01    0.4933616    0.2900463 -48.92    0.0014672    1.713    0.416
       168  -9.2421     93.2643     74.3250   8.2357923974e+01   4.9886328343e+01    0.2680927    0.1953419 -41.31 0.0002465604    1.310    0.237
       169  -9.4601     94.5411     71.4374   8.1007497384e+01   5.0231064871e+01    0.2763997    0.2488808  31.35 0.0007020704    1.142    0.124
       170  -9.4408    152.1959     72.5754   6.5582860470e+01   3.7199480841e+01    0.3103568    0.2122281 -41.35 0.0004257875    1.465    0.317
       171  -9.4894     68.9840     73.7517   9.0439662385e+01   5.4086316490e+01    0.2427552    0.1806325 -43.65 0.0009429855    1.218    0.179
       172  -9.6379    137.9043     72.0017   6.8814062983e+01   4.0754686004e+01    0.2294017    0.2267433 -80.56 0.0005000371    1.052    0.049
       173 -11.3068     79.7268     69.8039   8.5412825779e+01   5.3211095984e+01     0.266282     0.236817 -32.18 0.0002751848    1.047    0.045
       174  -9.9003     75.2396     66.0830   8.5756565850e+01   5.4706924305e+01    0.4107103    0.2358517 -33.33 0.0002816643    1.760    0.432
       175 -10.2188     30.4342     53.1167   9.9097933415e+01   6.3027309828e+01    0.3966611    0.2719166  16.72   0.00226679    1.626    0.385
       176 -10.4164     22.7009     63.3873   1.0523624534e+02   6.1509828802e+01    0.5342625    0.3043739 -43.24   0.00207723    1.444    0.307
       177 -10.2399     22.1548     57.2208   1.0381707249e+02   6.2867206004e+01    0.3908352    0.2291631 -63.18 0.0009439606    1.653    0.395
       178 -11.6061     32.1573     64.6808   1.0176946077e+02   6.0445344889e+01    0.5548471    0.3716293 -18.04  0.001016993    1.640    0.390
       179 -10.5348     31.3632     58.7383   1.0040445682e+02   6.1780390548e+01    0.3641627    0.2069838 -62.94  0.001464247    1.853    0.460
       180  -9.3262     10.1750     69.3451   1.1158723844e+02   6.1029019024e+01    0.2173649    0.1214771 -52.23 0.0008423416    1.363    0.267
       181  -9.9112     16.2558     59.9432   1.0699691781e+02   6.2707826200e+01    0.5561453    0.2659684 -79.67  0.002210034    3.804    0.737
       182  -9.7441    163.4962    246.1085   1.0050531222e+02   1.0785147384e+00    0.2447205    0.1157326 -39.28  0.001217486    2.711    0.631
       183  -9.5084      5.0850     31.7840   1.0399988078e+02   6.9084710960e+01    0.4177243    0.2092836   4.17  0.002385278    2.297    0.565
       184 -11.1946     14.7101     65.0071   1.0884999431e+02   6.1712181664e+01    0.6566259    0.3821001  57.27  0.002109522    2.823    0.646
       185 -11.1096      6.9674     50.8598   1.0864021404e+02   6.5180361604e+01    0.5440089    0.4339663   0.07   0.00380882    1.431    0.301
       186 -10.4903      1.6434     67.8486   1.1457554331e+02   6.1792860059e+01     0.402799    0.1812961 -59.38 0.0009730032    1.597    0.374
       187 -11.2016     12.3391     44.0349   1.0434761022e+02   6.6261294788e+01    0.3776904    0.1679884 -47.28 0.0007037214    1.668    0.400
       188 -11.6377     14.3862     39.1894   1.0188618322e+02   6.7081886077e+01    0.5990857    0.4144358 -72.09  0.003513378    1.918    0.479
       189 -11.1776      1.8480     62.0161   1.1334367604e+02   6.3058551651e+01    0.3212675    0.2248081 -55.66  0.001138899    1.076    0.071
       190 -11.0515      6.0882     59.1611   1.1100698394e+02   6.3470906707e+01    0.2804983    0.2647291 -40.94  0.001053707    1.231    0.188
       191  -9.6414    120.4297     67.4809   7.1941385780e+01   4.5620619776e+01    0.3877428    0.2722432 -51.29  0.001787863    1.585    0.369
       192  -9.0957     63.8076     69.3959   9.0960361337e+01   5.5762588899e+01    0.2288786    0.1680273  19.08   0.00102891    1.499    0.333
       193  -9.8178     92.9803     67.0014   8.0034747614e+01   5.1403693828e+01    0.4072003    0.2502388 -52.91  0.001570402    1.869    0.465
       194 -10.1105    135.5262     64.7054   6.7062858538e+01   4.2628198764e+01    0.3825767    0.2672215  54.11 0.0002685922    1.436    0.304
       195 -10.7888    143.7352     66.3861   6.5612984132e+01   4.0359811270e+01    0.5220297    0.3253511  33.30  0.001998705    1.914    0.478
       196  -9.5282    139.8898     64.1316   6.5808083069e+01   4.1682041479e+01    0.2673817    0.2118492  48.94 0.0002626714    1.239    0.193
       197  -9.8181    105.9876     66.8148   7.5894566442e+01   4.8859435818e+01    0.3517164    0.2869042  38.71  0.001313899    1.233    0.189
       198 -10.3209    202.5525     63.6706   5.3456944718e+01   2.6182840162e+01    0.4276051    0.3709753  46.01  0.001526343    1.262    0.208
       199 -10.0585     83.0549     62.9448   8.1964645223e+01   5.4005516567e+01    0.4182919     0.230627 -50.99 0.0009826951    2.010    0.502
       200 -10.0529    100.0995     64.0531   7.6761627254e+01   5.0580156856e+01    0.3175873    0.2270407  48.18            0    1.483    0.326
       201  -8.9945     98.4855     60.5551   7.6053283923e+01   5.1552025191e+01    0.3025706    0.1943829  14.98  0.001283733    2.166    0.538
       202 -10.5302     70.5404     60.3550   8.5507563438e+01   5.6595116894e+01    0.4283459    0.3349704   9.17  0.001200253    1.358    0.263
       203  -9.1518    194.0894     60.8045   5.4020007029e+01   2.8712901312e+01    0.3167999    0.1842165 -39.32 0.0006886495    1.652    0.395
       204  -9.3272    171.0235     57.9852   5.7235875496e+01   3.4947459283e+01    0.2376463    0.1990435 -68.87 0.0005697357    1.276    0.216
       205 -10.1288    167.2235     56.8437   5.7614872012e+01   3.6087424963e+01    0.2475323    0.2000606  74.22 0.0003768234    1.280    0.219
       206 -10.0950    163.1563     54.2297   5.7605001148e+01   3.7521809980e+01      0.48984    0.2659721 -33.47  0.002052143    1.878    0.468
       207  -9.7990    160.3552     61.3519   6.0358511297e+01   3.7097485044e+01    0.3412553    0.2357551 -33.02  0.001280389    1.483    0.326
       208  -9.9619    116.8504     61.4428   7.0904392907e+01   4.7509011905e+01     0.271812    0.2482104  25.76 0.0003323793    1.071    0.067
       209  -8.3256    212.0051     61.0439   5.1355477809e+01   2.4305928148e+01    0.1677346    0.1546689 -66.06            0    1.008    0.008
       210 -10.1796    151.2362     59.8403   6.1825188764e+01   3.9622664604e+01    0.3996052    0.2203817  62.82  0.001608769    1.962    0.490
       211  -8.7810     53.6629     60.7145   9.2022501541e+01   5.8931290803e+01    0.2155228      0.14939  30.65  0.001178742    1.580    0.367
       212  -8.7544     55.3252     57.2740   9.0224390921e+01   5.9407033942e+01    0.1357444    0.1209409 -28.70 0.0002921048    1.074    0.069
       213  -9.2090     52.5805     54.2304   9.0268517580e+01   6.0366470639e+01    0.5023876    0.1962308 -48.57  0.002099039    2.345    0.574
       214  -9.8978    180.6003     55.7903   5.4862375109e+01   3.2866416120e+01    0.4947565    0.1435293 -32.27  0.001519205    3.518    0.716
       215  -9.7195    136.8612     56.4129   6.4005873214e+01   4.3708749381e+01    0.3487104     0.246366   5.70 0.0008682446    1.930    0.482
       216  -9.7279    105.0574     57.6182   7.2995909051e+01   5.0732761709e+01     0.266804    0.2077779 -35.11 0.0002656272    1.273    0.214
       217  -9.7150     60.3321     58.0934   8.8558832995e+01   5.8560381948e+01    0.2710117    0.2281336  24.34 0.0009592222    1.268    0.211
       218 -10.0617    135.9797     36.4479   5.7420431068e+01   4.6881199458e+01     0.502302    0.3321899 -42.19 0.0008836778    1.629    0.386
       219 -10.9230    124.0850     46.6070   6.3795492792e+01   4.8294497407e+01    0.7040369    0.4604922 -33.01  0.001118046    1.566    0.361
       220  -8.9625    143.4832     35.5011   5.5510293173e+01   4.5149041346e+01    0.2569076    0.1665353  48.31 0.0007576888    1.460    0.315
       221 -10.1965    153.2637     32.0645   5.2479352202e+01   4.3129034509e+01     0.431337    0.2681959  68.26   0.00125107    1.592    0.372
       222 -11.0337    145.1180     29.1688   5.3057701481e+01   4.5537661011e+01    0.7534102     0.535944  35.26  0.003150854    1.502    0.334
       223 -10.5242    118.5621     54.7753   6.8125071207e+01   4.8269315713e+01    0.4869229    0.3020662 -27.27  0.001738046    1.717    0.417
       224 -10.3413    122.9697     51.9208   6.5951119097e+01   4.7725515410e+01    0.4781275     0.264768  39.25  0.001981875    1.887    0.470
       225 -11.3762    127.2493     39.5637   6.0514854275e+01   4.8571332208e+01    0.3550622    0.2858105  66.13 0.0007021548    1.313    0.238
       226 -10.6563    130.7732     35.9881   5.8422940128e+01   4.8211570031e+01    0.5112999    0.3877677  73.04  0.001105069    1.469    0.319
       227  -9.3604    140.6298     25.7581   5.2773327284e+01   4.7063452942e+01     0.243745    0.1468277  51.39 0.0005408564    1.512    0.339
       228  -9.8450    142.8034     22.8401   5.1363438099e+01   4.6854460354e+01    0.2312671    0.2051563 -11.57 0.0002998257    1.236    0.191
       229 -10.7253    225.8257     55.2866   4.8045057264e+01   2.1915232584e+01     0.254382    0.2061751 -52.18 0.0002689233    1.114    0.103
       230  -9.9624     96.4462     44.8954   7.0964865805e+01   5.4646591246e+01    0.4151081    0.3177684  46.86  0.002213971    1.338    0.253
       231  -9.4882     87.7900     46.0034   7.4179465489e+01   5.6179537843e+01    0.3347397    0.1593271 -42.90  0.001038742    2.217    0.549
       232 -10.5990     93.3969     54.6691   7.5575015784e+01   5.3616202313e+01    0.3488547    0.2514915 -22.77 0.0004356284    1.418    0.295
       233 -11.0299     94.7764     49.5358   7.3241008688e+01   5.4226381271e+01    0.5129141     0.277079  35.68   0.00135208    1.936    0.483
       234  -9.8496     89.5326     49.5165   7.4934514122e+01   5.5257310108e+01    0.2720365    0.2157321  -2.77 0.0005985603    1.304    0.233
       235  -9.7723     46.7470     47.0674   9.0116719911e+01   6.2477638811e+01    0.4441958    0.2549794   5.88 0.0009183673    2.347    0.574
       236  -9.6061     44.4661     55.5340   9.3998239140e+01   6.1096036075e+01    0.3105454    0.2128501 -11.81  0.001135088    1.603    0.376
       237 -10.6685     42.0233     52.0846   9.3857035770e+01   6.2060403149e+01    0.4416107    0.2971778 -37.05 0.0003839413    1.261    0.207
       238  -9.6165     39.4787     46.5437   9.3020665642e+01   6.3421556070e+01    0.2926258    0.2236759  22.23  0.001816371    1.426    0.299
       239  -9.7035     42.2906     44.3841   9.1029708929e+01   6.3513397543e+01    0.2363672    0.2121713   6.21  0.001133159    1.213    0.176
       240  -8.2365    243.4715     55.5734   4.6023379041e+01   1.7917726268e+01    0.1336701    0.1165686 -57.91 0.0001100158    1.017    0.017
       241 -10.0426    191.4818     54.1587   5.2596030376e+01   3.0377686222e+01    0.3039788    0.2549373 -27.31  0.001615455    1.275    0.216
       242 -10.0779    151.8303     54.0369   5.9850879001e+01   4.0402026439e+01    0.4466105    0.3224419  50.35  0.002150882    1.342    0.255
       243 -10.9718    154.6067     49.1498   5.7715356061e+01   4.0449452960e+01    0.7626042     0.367799  72.09   0.00266716    2.893    0.654
       244  -9.9229     83.3703     52.2637   7.8037254521e+01   5.5932508676e+01     0.327307    0.3016471 -23.90  0.001190938    1.108    0.097
       245  -7.6743     79.3650     48.6953   7.8095152778e+01   5.7277270084e+01    0.2398337    0.1861451 -77.01  0.001176089    2.221    0.550
       246  -8.6216    106.8157     53.1007   7.0858962091e+01   5.1137250577e+01    0.1962718    0.1604016  13.14 0.0003322378    1.284    0.221
       247 -10.5319     57.5660     34.0570   8.0511861146e+01   6.3290816694e+01    0.6348009    0.5060784  48.66  0.002771102    1.670    0.401
       248  -9.6726     60.9537     51.9640   8.6155608509e+01   5.9654453575e+01    0.2499608    0.2382541 -66.12  0.001083039    1.362    0.266
       249 -12.4122     61.8424     44.0539   8.2837307174e+01   6.0963588420e+01    0.4529882    0.2736964 -37.89 0.0005472746    1.522    0.343
       250 -10.3217     65.5658     49.4815   8.3462818670e+01   5.9425030509e+01    0.3245876    0.2069634 -30.32 0.0006145154    1.481    0.325
       251 -10.9179     67.6102     44.4062   8.0747233669e+01   6.0004947231e+01    0.4466936    0.2822576  14.80 0.0004966852    1.884    0.469
       252  -8.5464     51.9845     28.9767   8.0658323140e+01   6.4914306852e+01     0.241429    0.1594881  25.75 0.0003988947    1.498    0.332
       253 -10.3606     48.7319     26.4667   8.0949669290e+01   6.5762810041e+01    0.3577693    0.2681506  55.53  0.001835503    2.193    0.544
       254  -9.8482     24.9815     54.0335   1.0170786821e+02   6.3309687802e+01    0.2362637    0.2156735 -88.16  0.001041967    1.444    0.308
       255 -10.1649    199.6669     51.6072   5.0646444437e+01   2.8720283744e+01    0.3372006    0.2706986   2.56   0.00116432    1.643    0.391
       256  -9.0235    204.2232     46.5094   4.8633077684e+01   2.8329853173e+01    0.2955463    0.1542687  49.10 0.0009013331    2.116    0.527
       257  -9.8420     71.4103     51.4903   8.2015765052e+01   5.8132753952e+01    0.3512051    0.2360474   1.54  0.001122803    1.852    0.460
       258  -9.9358    176.4530     49.8445   5.3843165183e+01   3.4807485691e+01    0.3853697    0.2347402  47.27  0.001722462    1.706    0.414
       259 -10.4018     38.8049     58.0906   9.7139567320e+01   6.1191901981e+01    0.4959646    0.3021683  25.79   0.00171985    1.833    0.454
       260  -9.0778    196.7235     48.2025   5.0152838781e+01   2.9942073151e+01    0.2514701    0.1653293  40.21  0.000630439    1.843    0.457
       261  -9.5470     31.8230     47.8386   9.6795692258e+01   6.3955988466e+01    0.1758242    0.1490291 -28.10 0.0006757178    1.064    0.060
       262  -8.6375     21.6027     46.2662   1.0082220379e+02   6.5157259164e+01    0.2873321    0.1307184 -31.26 0.0008368969    2.229    0.551
       263  -9.0439     17.1188     46.8986   1.0303320083e+02   6.5364777848e+01    0.2238839     0.219071  62.99  0.001100071    1.388    0.279
       264 -10.4481    114.7952     46.2543   6.6113647053e+01   5.0485400939e+01    0.3076444     0.261926  -1.08  0.001106376    1.213    0.175
       265 -11.8880    103.6213     39.6481   6.6795566922e+01   5.3943521130e+01    0.6588714    0.2950809 -30.09 0.0007058714    2.320    0.569
       266  -9.8078    108.4668     43.9448   6.7024980173e+01   5.2247104347e+01    0.6991032     0.261022 -28.69   0.00235864    3.069    0.674
       267  -9.4387     26.7600     45.1566   9.8145297890e+01   6.4947624062e+01    0.3557557    0.1129602 -46.73  0.001539569    2.401    0.584
       268  -9.4672    245.6658     45.1634   4.3396347064e+01   1.8899930372e+01    0.3549358    0.1963452 -85.98  0.001652234    2.272    0.560
       269  -8.0967    234.6810     46.7232   4.4926774495e+01   2.1113393593e+01    0.1240075    0.1042586  31.48  0.000220381    1.574    0.365
       270  -8.7116    164.8505     46.1960   5.4810440166e+01   3.8286614347e+01    0.1987039    0.1673165  33.81 0.0003841468    1.294    0.227
       271  -9.2442    157.4119     68.7731   6.3257603287e+01   3.6583002298e+01    0.2627465    0.2076362  56.01 0.0004054267    1.256    0.204
       272  -9.3904    200.0146     43.6156   4.8439249697e+01   2.9770567049e+01    0.2409924    0.2061138 -28.48 0.0004079122    1.266    0.210
       273 -10.1460    176.6946     36.6315   4.9910547430e+01   3.6580084022e+01    0.3925563    0.2562341  78.29   0.00106048    1.607    0.378
       274 -10.3642    178.8222     41.7578   5.1076220537e+01   3.5352397957e+01    0.4196691    0.2405338 -33.41  0.001555603    1.773    0.436
       275  -9.7965    145.6955     53.5937   6.1039192489e+01   4.1997529470e+01     0.286462    0.2136491 -28.40  0.001391081    1.404    0.288
       276  -8.6952    187.1947     43.6308   5.0306073130e+01   3.2973753479e+01    0.2206165    0.1206943  54.02 0.0009597496    1.799    0.444
       277 -10.5550     78.6516     34.5739   7.2747853286e+01   5.9690634227e+01    0.8021109    0.3195668  44.25  0.002665037    2.478    0.596
       278  -9.4153     86.0248     36.9359   7.1200028957e+01   5.7946961712e+01    0.2975319     0.205238 -10.04 0.0002841282    1.576    0.365
       279 -10.4421     83.4496     33.6528   7.0722269787e+01   5.8926937613e+01    0.3542634    0.2689471  13.26 0.0006771162    1.309    0.236
       280  -9.6926     82.0000     42.0602   7.4607769747e+01   5.7910959218e+01    0.3107052    0.1791515 -34.20 0.0006876984    1.684    0.406
       281  -9.5100     82.3536     38.7087   7.3151699550e+01   5.8374846221e+01    0.2252263    0.2025447  80.45 0.0005282693    1.573    0.364
       282 -10.6406     75.4811     28.9175   7.1483531365e+01   6.1092168084e+01    0.4058388    0.2840599 -13.83  0.001059103    1.416    0.294
       283 -10.3252     71.7213     29.6607   7.3157639764e+01   6.1658619042e+01    0.4907175    0.2415404 -22.30  0.002165692    2.309    0.567
       284 -10.0844     53.0751     42.7532   8.5862805523e+01   6.2452022677e+01    0.2167851    0.1620197 -29.90 0.0003314103    1.167    0.143
       285  -9.4946     32.5023     42.0166   9.4477873230e+01   6.5014320108e+01    0.2887262    0.2062723 -59.56  0.001706099    1.668    0.401
       286 -11.7434     41.0838     37.4630   8.8927880405e+01   6.4917560288e+01    0.6354513    0.3317716 -24.55 2.777303e-05    2.103    0.525
       287  -9.5215     91.0630     41.1851   7.1239991926e+01   5.6312255476e+01    0.2419353    0.1926428 -35.59 0.0004016712    1.302    0.232
       288 -10.4726    228.1510     37.8598   4.3523583731e+01   2.3804396715e+01    0.3795565    0.1747259 -42.24 0.0004885013    1.916    0.478
       289  -9.0122    191.4659     38.7640   4.8312399597e+01   3.2560863694e+01    0.3215536    0.1498724 -18.14   0.00115246    3.239    0.691
       290  -9.0988    165.9852     39.6581   5.2595699433e+01   3.8907540847e+01    0.2054387    0.1920956 -41.92 0.0004081702    1.115    0.103
       291  -8.2632    164.7024     36.2638   5.1772528591e+01   3.9684922631e+01    0.1423623    0.1069527 -73.42            0    1.511    0.338
       292  -9.4222    158.1291     38.9436   5.3785996653e+01   4.1002771386e+01    0.3325977    0.1817592 -39.23 0.0007796034    1.872    0.466
       293  -8.2707     78.3781     39.2746   7.4761667092e+01   5.9017169267e+01    0.1431452    0.0968222  11.01 0.0007001661    1.698    0.411
       294  -8.6051     24.2243     39.1890   9.7261293903e+01   6.6319322632e+01    0.2283437   0.09708639 -26.71 0.0007245665    2.925    0.658
       295  -9.3687    238.0032     37.9360   4.2512255010e+01   2.1557580473e+01    0.1984422    0.1698349 -64.01 0.0004531262    1.006    0.006
       296  -8.6359    182.5011     38.6076   4.9587860880e+01   3.4843963403e+01    0.1429177    0.1306901  85.87 0.0001072904    1.026    0.026
       297  -9.9055    113.6728     35.6708   6.2500772264e+01   5.2278570260e+01    0.4068486     0.307225 -63.17  0.002038661    1.804    0.446
       298  -9.0514    117.0608     32.9721   6.0615899166e+01   5.1861676300e+01    0.3169715    0.2081245  -9.43 0.0007872163    1.811    0.448
       299  -9.9364    204.4842     24.2494   4.2746851263e+01   3.1158575911e+01    0.3508819    0.2386129 -87.31  0.001167561    1.468    0.319
       300 -10.4691    208.0705     34.7340   4.5044531130e+01   2.8980245466e+01    0.5060502    0.2772596 -23.10   0.00127608    2.184    0.542
       301 -10.5353    211.5656     28.0437   4.2921536617e+01   2.8978454020e+01    0.3681148    0.2275254 -88.90 0.0003773489    1.707    0.414
       302  -9.4481    186.5594     37.0143   4.8528590328e+01   3.4027788554e+01    0.2512434    0.1920691 -83.75 0.0006703314    1.357    0.263
       303  -9.1976    249.8956     36.1082   4.0952379177e+01   1.9197311921e+01     0.251857     0.165253  59.74 0.0005919116    1.705    0.414
       304  -8.9439     47.6342     34.7620   8.4973218799e+01   6.4569733708e+01    0.1969882    0.1461671   4.76 0.0004212736    1.311    0.237
       305  -9.8206     20.6243    244.1688   1.2674823400e+02   2.1340767829e+01    0.2577238    0.1155091 -87.52  0.001314929    2.032    0.508
       306  -9.9384    100.0124     26.9564   6.2844886956e+01   5.6454028214e+01     0.316772    0.2013127  49.29  0.001171952    1.480    0.324
       307  -9.2229    233.6821     31.6129   4.1470570691e+01   2.3350170144e+01    0.3314663    0.2164754  45.93  0.001678318    1.969    0.492
       308  -9.9517    202.7177    242.6524   9.2616815284e+01  -4.5336936214e+00    0.2315806    0.1590035 -22.90  0.001071777    1.609    0.378
       309  -8.9468      1.4555    244.0615   1.2987415672e+02   2.3285785811e+01    0.1424627   0.07739592  89.49 0.0003676225    1.501    0.334
       310  -9.5806     34.5331    239.4982   1.2411256822e+02   2.0674325079e+01    0.2682753    0.1042424  50.28 0.0007306023    1.949    0.487
       311  -9.4116    247.5073    239.4978   8.4130974734e+01  -1.0555833172e+01    0.1169989   0.08730781   8.72 -0.0001800425    1.001    0.001
       312  -9.4427    221.1559    237.3495   8.8409318203e+01  -6.5962514515e+00    0.1975867    0.1223862  19.36  0.001113012    1.451    0.311
       313 -11.1582     19.2111     29.0030   9.5917640629e+01   6.8620553679e+01    0.4853314    0.2073824  19.83 0.0004224451    2.601    0.615
       314 -10.9890     27.7971     31.2027   9.2579970011e+01   6.7455938985e+01    0.8987166    0.4307058  -7.65   0.00332634    3.611    0.723
       315 -10.7551     23.3410     31.0000   9.4655249203e+01   6.7907728850e+01     1.268695    0.3119112  20.31   0.00402614    6.593    0.848
       316  -9.3760    247.5285     30.2946   3.9877651415e+01   2.0452349800e+01    0.2312071    0.1922908  65.42  0.000806744    1.363    0.267
       317 -11.1052    221.3919     29.2081   4.2146267601e+01   2.6492804860e+01    0.3842219    0.2947075 -29.79  0.002200145    1.413    0.292
       318  -9.1014    158.9336     30.0737   5.0832572254e+01   4.1936492737e+01    0.2700902    0.2044601 -14.66 0.0007494101    1.531    0.347
       319  -9.1063    168.0234    237.5203   9.8439492650e+01   1.6525297934e+00    0.1733354    0.0932614  54.91  0.000737305    2.387    0.581
       320 -10.3037    159.5263     25.0679   4.9152680204e+01   4.2380968807e+01     0.360616    0.2522258 -72.80  0.001042119    1.686    0.407
       321  -9.3494    126.3142     30.6960   5.7550410084e+01   4.9970659539e+01    0.2447257    0.2062632  40.31 0.0007607221    1.109    0.098
       322  -9.2924    123.4774     29.4311   5.7746197848e+01   5.0806011465e+01    0.2518584    0.2046169 -76.50 0.0005312813    1.565    0.361
       323  -9.0057     94.0369     30.4198   6.6006675818e+01   5.7267695615e+01    0.3057353    0.1681014  26.44 0.0009334197    2.197    0.545
       324  -9.2345    221.6650    233.2997   8.7656590331e+01  -6.1479764198e+00    0.1075639   0.09323931  50.23 0.0005223062    1.655    0.396
       325  -9.6634    134.0359     27.3996   5.4678164749e+01   4.8499809315e+01    0.2419682    0.2061344 -23.99 0.0004334499    1.255    0.203
       326  -9.0819    187.0066    231.2457   9.3821085739e+01  -4.6878380648e-01    0.1724295   0.09171063  37.25 0.0008831989    1.589    0.371
       327  -8.6460    163.3071    226.3582   9.7733794979e+01   4.1990804314e+00    0.1300423   0.09515798   4.55 0.0007041006    1.729    0.422
       328 -10.9361      2.0338     25.5228   1.0345125876e+02   7.0422931978e+01    0.1735772    0.1281192 -37.06 0.0003450259    1.017    0.016
       329 -10.6454      1.5300     22.4189   1.0261579173e+02   7.1016566246e+01    0.2183353    0.1411245 -50.32 0.0004520013    1.315    0.239
       330  -9.2897    233.9546     24.4961   3.9791000692e+01   2.4174760616e+01    0.2931852    0.1951492 -86.26  0.001392744    1.465    0.318
       331  -9.1862    230.6890     23.3024   3.9816003173e+01   2.5061769281e+01    0.1925928     0.144037 -63.13 0.0005190523    1.176    0.150
       332  -9.6303    131.8759     22.1812   5.3279633999e+01   4.9630318241e+01    0.4263119    0.2732828   1.98  0.002000801    2.030    0.507
       333  -8.9224     85.4458     24.1193   6.6062720873e+01   5.9835146986e+01    0.2287596      0.12603 -22.11  0.001024184    1.891    0.471
       334 -10.1932     61.5757     23.7747   7.4416880474e+01   6.4215344820e+01    0.3200457    0.2286285  -8.24  0.001870215    1.325    0.245
       335  -8.7377     66.0372     22.9765   7.2332624127e+01   6.3580039355e+01    0.1945934    0.1693952   1.87 0.0005368009    1.078    0.072
       336  -9.4500     69.0811     11.5416   6.5914073768e+01   6.4454536230e+01    0.2978238    0.1170229  49.77  0.001261546    2.525    0.604
       337  -9.9763     60.6508     17.6017   7.1933439545e+01   6.5197509963e+01    0.4708762    0.2344012  41.61  0.002375084    1.960    0.490
       338  -8.6605    223.7746    225.1519   8.5907782726e+01  -5.3833839759e+00    0.1723952    0.1214663   7.56  0.000656142    1.313    0.238
       339 -11.1907    153.5887     23.0362   4.9500286797e+01   4.4118879412e+01    0.2950857    0.2316241  45.17 0.0003163203    1.258    0.205
       340  -8.5807      2.0048    224.2563   1.2896516722e+02   2.6917848353e+01    0.1221382   0.07686258  46.30 0.0003520162    1.488    0.328
       341  -9.8245    123.4394     22.6590   5.5260667377e+01   5.1616773559e+01    0.3936929    0.2727559  67.88  0.002008925    1.506    0.336
       342  -9.0371     88.9184    221.0661   1.1223471696e+02   1.7145258972e+01    0.1967217    0.1655811  57.82 0.0007142329    1.061    0.057
       343 -10.8631    105.0968     20.8711   5.9008130842e+01   5.6065222497e+01    0.3253438    0.2650997  78.85 0.0003033313    1.538    0.350
       344  -9.6986    243.6414     23.1618   3.8632785574e+01   2.2181026741e+01    0.2575419    0.1401596 -72.11  0.001283712    1.926    0.481
       345  -8.8144    203.1397    217.8067   8.8510086990e+01  -1.0850275148e+00    0.1759018    0.1303348  12.13 0.0003617606    1.291    0.225
       346  -8.3597    183.4880    219.5145   9.2632780489e+01   1.9169444063e+00    0.1315146    0.1119373  25.17 0.0008103935    1.004    0.004
       347  -9.7447    164.9886     25.4900   4.8402611089e+01   4.0942070144e+01    0.5252638    0.2792114 -75.35  0.001960475    3.036    0.671
       348  -8.8835     79.9867     22.0312   6.6943793631e+01   6.1166451224e+01     0.185858    0.1643495 -69.43  0.001109314    1.667    0.400
       349  -9.4934     36.1930     21.0305   8.4192049301e+01   6.8227612375e+01    0.2352674    0.1782905 -40.66 0.0004115903    1.468    0.319
       350  -9.5331     41.2248     21.7417   8.2167103076e+01   6.7491107089e+01    0.2068876    0.1879999  33.75 0.0007335406    1.516    0.340
       351  -8.9901     39.7799     17.9737   8.1073836385e+01   6.8237089635e+01    0.1732965    0.1291167 -22.86 0.0004885618    1.162    0.140
       352  -8.5378      2.2585    211.9903   1.2835273792e+02   2.9303865606e+01    0.1352961   0.07359391 -86.76 0.0003840198    1.475    0.322
       353  -9.7506    214.0263     18.4871   4.0267297873e+01   2.9524514463e+01    0.2948467    0.1207714  71.80  0.001254524    2.320    0.569
       354  -8.8631    230.7920    209.2439   8.1823374410e+01  -4.2607813188e+00    0.1782077    0.1240998   8.70 0.0004572993    1.363    0.267
       355  -9.1561    198.9342     14.1465   4.0729155125e+01   3.3666948261e+01    0.3093679    0.1787202  72.63 0.0008249522    1.588    0.370
       356  -8.6778      8.4824    209.4589   1.2708802594e+02   2.9246456881e+01    0.1129332   0.08191182  76.15 5.780714e-05    1.003    0.003
       357 -10.0601     93.6435     20.0807   6.1844992295e+01   5.8643984630e+01    0.2317286    0.1796556  50.78 0.0003110507    1.283    0.220
       358  -9.5606    244.8138     19.1845   3.7657704048e+01   2.2401716931e+01     0.158674    0.1472621  63.64  0.001072949    1.340    0.253
       359  -9.8585    234.6230     18.5067   3.8357600218e+01   2.4739103668e+01    0.3088984    0.1861363  80.48  0.001332414    1.603    0.376
       360 -10.1394     33.7521    199.7362   1.2153404376e+02   2.8729180308e+01    0.2933209    0.1678469  67.92  0.001676723    1.550    0.355
       361  -8.9936    151.8044     17.9890   4.8165688209e+01   4.5119486945e+01    0.1873015    0.1811794  51.61 0.0006331208    1.079    0.073
       362  -8.6860    120.4584    199.2688   1.0270453009e+02   1.6537682807e+01    0.1732776    0.1306916 -78.93  0.000631716    1.521    0.342
       363  -9.6401      6.8409    194.5216   1.2656058526e+02   3.2497944063e+01    0.1765507    0.1313325 -75.83 0.0008086374    1.316    0.240
       364  -8.3409     81.4626     17.5168   6.4468681734e+01   6.1425283857e+01     0.134075    0.1109707  17.53 5.834122e-05    1.051    0.048
       365  -9.7634     73.1957     16.7034   6.6873141164e+01   6.3101729627e+01    0.2097795    0.1925204 -52.16 0.0004879453    1.514    0.339
       366  -8.7820     92.0568    188.4992   1.0757152465e+02   2.3494842062e+01    0.1998913    0.1258126  41.15 0.0006193856    1.516    0.341
       367  -9.4313     55.4476    181.2217   1.1508779036e+02   3.0302352928e+01    0.2085814    0.1660796  52.36 0.0004667816    1.225    0.184
       368 -10.1230      6.9422    174.8229   1.2528934330e+02   3.6770841229e+01    0.1732177    0.1379008 -71.33  0.001116702    1.297    0.229
       369  -9.5873     17.0634    174.5183   1.2307947202e+02   3.5965289572e+01    0.1573871    0.1123258  39.61  0.000536182    1.546    0.353
       370 -10.7090      5.6186    168.0600   1.2510253914e+02   3.8390925223e+01    0.3009358    0.1704588 -55.67 0.0008970971    1.912    0.477
       371 -10.0729     14.7730    166.2131   1.2292314500e+02   3.8055035029e+01    0.1653331     0.122881 -61.97  0.001076463    1.398    0.285
       372 -11.6341     37.7458    159.7138   1.1687384366e+02   3.7379126656e+01    0.5963354     0.318222  55.69   0.00217397    1.919    0.479
       373  -8.3198     11.4535     14.9901   9.4182992820e+01   7.1646008613e+01    0.1344547   0.09769251 -67.70 0.0008062161    2.431    0.589
       374  -8.6453    179.4528     13.4927   4.2809070197e+01   3.8589760790e+01     0.198129    0.1214361  85.11 0.0002164006    1.642    0.391
       375 -12.1513     30.4873    154.5232   1.1808842288e+02   3.9348797057e+01    0.5657198    0.4098717  69.85  0.002286241    1.308    0.235
       376 -11.3003      2.4896    156.8663   1.2498574644e+02   4.1166153740e+01    0.7099211    0.2474023 -76.36  0.003367868    2.226    0.551
       377 -12.0468      5.3829    146.1927   1.2344745744e+02   4.3418648077e+01    0.8571755    0.3980105  63.88  0.002392294    2.297    0.565
       378 -11.2865     13.4151    143.5491   1.2121704050e+02   4.3442275234e+01    0.3621087    0.3350236 -42.98  0.002146432    1.370    0.270
       379 -11.0735     20.7795    141.0264   1.1907208645e+02   4.3447925518e+01    0.4053528    0.2147639  36.06  0.002188394    2.066    0.516
       380  -8.4599     80.4931     14.3428   6.3362384663e+01   6.1976302599e+01    0.1309936    0.1056392  26.09 0.0007881731    1.073    0.068
       381  -8.7431    155.0294     13.5241   4.6213252002e+01   4.4762708504e+01    0.2031163    0.1226657  65.49  0.000441506    1.477    0.323
       382  -9.8027     45.9843    151.3348   1.1378269662e+02   3.8490865636e+01    0.2233385    0.1633149 -79.71 0.0003186337    1.194    0.163
       383 -10.3261     24.6488    162.7372   1.2033573362e+02   3.7971114140e+01    0.2157125    0.1810836 -85.96 0.0002477147    1.088    0.081
       384  -8.5309    229.7703    147.9978   6.9607985805e+01   5.6086175137e+00    0.1860784    0.1080616 -35.23 0.0004023782    1.584    0.369
       385  -9.7267     53.9619    145.6816   1.1089998648e+02   3.8936350770e+01    0.2979137    0.1796926 -80.40 0.0005800201    1.650    0.394
       386  -9.4291     44.5169    154.4857   1.1456225971e+02   3.7894874623e+01    0.2514237     0.190218  75.86 0.0007693137    1.251    0.201
       387  -9.8301     49.7058    137.8160   1.1087995818e+02   4.1365222603e+01     0.425799    0.1198836 -69.21  0.001357588    3.733    0.732
       388  -9.3405     41.5347    139.0612   1.1330274380e+02   4.1961457631e+01    0.2485499    0.1658879  56.30 0.0009010449    1.591    0.372
       389  -9.6462    235.8410    137.0180   6.6105464156e+01   6.3240731810e+00    0.2246414     0.207864  34.81 0.0006008018    1.196    0.164
       390 -10.0641     34.5091    136.5871   1.1487804259e+02   4.3277283735e+01    0.2670418    0.2259877  48.33  0.001033246    1.309    0.236
       391 -10.0826     12.8482    131.0542   1.2006986762e+02   4.6447828621e+01    0.1861422    0.1453108 -83.14            0    1.044    0.042
       392 -10.1177     12.3157    127.0279   1.1976634853e+02   4.7444629789e+01    0.2265453    0.1728711 -70.71  0.001014794    1.080    0.074
       393 -10.7608      2.6516    133.1665   1.2296721233e+02   4.6644031304e+01    0.6045374     0.183029 -73.31  0.002634139    2.468    0.595
       394 -10.9185      7.9731    133.2418   1.2159127564e+02   4.6274011264e+01    0.3324751    0.2328625 -28.15  0.001073898    1.946    0.486
       395  -8.5079     58.6616    135.6838   1.0804416800e+02   4.0813189823e+01    0.1403937    0.1001783 -35.87 0.0006634357    1.702    0.412
       396  -8.6770     82.9686    134.3214   1.0094169563e+02   3.7734609464e+01    0.1871649    0.1792105  67.63 0.0002650234    1.088    0.081
       397 -10.4544     42.9488    131.4440   1.1180054373e+02   4.3675863098e+01     0.492598    0.1976857 -49.81  0.001699299    2.455    0.593
       398 -10.5821     20.2376    131.4577   1.1811863843e+02   4.5785447045e+01    0.3186949    0.2286884 -85.50  0.001019209    1.197    0.165
       399  -9.0039     30.0280    125.6549   1.1462895613e+02   4.6355420470e+01    0.2657881    0.1483669 -73.30 0.0007819644    1.536    0.349
       400 -10.3992     34.0723    128.7401   1.1391569380e+02   4.5230326711e+01    0.2909388    0.2518483 -20.89 0.0005367837    1.455    0.313
       401 -12.0538     28.6931    131.9507   1.1586072172e+02   4.4947028631e+01    0.2767595    0.2222256 -86.66 0.0002800007    1.098    0.089
       402  -9.0551     23.7970    133.3579   1.1738044666e+02   4.5034112748e+01     0.196011    0.1636008  65.12 0.0003479827    1.248    0.199
       403  -9.8649     61.9148    131.3165   1.0636986411e+02   4.1475172916e+01    0.2695015    0.1926792  85.65 0.0003006781    1.563    0.360
       404  -8.5328     88.4840    127.5263   9.7976934921e+01   3.8517380865e+01    0.1481059    0.1381929 -71.72 0.0001035513    1.013    0.013
       405  -9.0749    218.0002    125.4584   6.6538741032e+01   1.1934335883e+01     0.250826    0.1830151 -36.28  0.001246377    1.271    0.213
       406  -9.9828     59.8786    125.8523   1.0597538231e+02   4.3083289834e+01    0.2072767    0.1727096 -46.98 0.0002795015    1.217    0.178
       407  -9.5819     39.1359    125.4929   1.1198021329e+02   4.5527935507e+01    0.4423093    0.1630317 -46.86  0.001384164    2.923    0.658
       408  -9.8067     44.2068    120.0697   1.0960217755e+02   4.6331691225e+01    0.3419244    0.2056231   6.29  0.001598152    2.557    0.609
       409  -8.9737      8.0471    106.7196   1.1852268720e+02   5.2544795219e+01    0.1919223    0.1465883 -68.16 0.0006597738    1.034    0.032
       410 -10.5939      2.7446    116.2675   1.2122919552e+02   5.0607107415e+01    0.3292967    0.2637517  83.77  0.001206858    1.197    0.164
       411  -9.7995      7.2234     89.4554   1.1630251586e+02   5.6629218334e+01    0.5056724    0.1742546 -65.18  0.001523144    2.103    0.525
       412 -10.3381      4.2857    110.9733   1.2017795265e+02   5.1763667463e+01    0.6196663     0.171497 -75.85  0.002373818    3.152    0.683
       413 -10.6927      6.8836    123.1603   1.2082885221e+02   4.8729396276e+01    0.3052183    0.2014688  58.71  0.001541144    1.641    0.391
       414 -10.1403      2.8183    123.0127   1.2192799979e+02   4.9016774694e+01    0.2409389    0.1513195 -80.73 0.0004990219    1.266    0.210
       415  -9.6993      3.4805    102.0329   1.1930878142e+02   5.3905683006e+01    0.3780048    0.1411562 -72.22  0.001648767    2.086    0.521
       416 -10.0629      8.9214     98.9714   1.1718224174e+02   5.4315581597e+01    0.4218767    0.2231491  82.50 0.0005624978    2.360    0.576
       417 -10.1154      3.7581     98.0461   1.1869242196e+02   5.4821268924e+01    0.2499232    0.2138643 -51.92  0.001774608    1.192    0.161
       418 -10.3451     32.3646    121.2978   1.1331552877e+02   4.7202988199e+01    0.2952578    0.2218282  24.04  0.001253461    1.620    0.383
       419  -9.3398    237.1406    120.8436   6.2201631446e+01   8.8213304193e+00    0.1988552    0.1642382   1.07  0.001085279    1.347    0.258
       420  -9.1542    123.5752    120.9828   8.6619531778e+01   3.3597149506e+01    0.2266508    0.2077669  47.28 0.0003468743    1.113    0.101
       421 -10.4692      9.9439    118.2282   1.1940656156e+02   4.9700044333e+01     0.339904    0.2318063 -84.97  0.001590784    1.266    0.210
       422 -11.4156     21.4319    119.4550   1.1624935170e+02   4.8579270981e+01     0.532653    0.3703259  58.94  0.003149645    1.598    0.374
       423 -10.4721     14.0820    113.4218   1.1759694453e+02   5.0566278228e+01    0.3829539    0.2075904  20.14  0.002012425    2.330    0.571
       424 -11.0747     19.1997    109.5550   1.1551467104e+02   5.1126144337e+01     0.437981    0.3226266 -43.65  0.001860105    1.386    0.278
       425 -11.0743     54.7431    118.1316   1.0607110006e+02   4.5615664338e+01    0.2281584    0.2119015 -82.93 0.0002640876    1.083    0.077
       426  -9.4607     83.3918    117.2703   9.7213099364e+01   4.1831832228e+01    0.2543263    0.1820493 -66.08  0.001230158    1.408    0.290
       427  -8.8473     66.8006    118.3776   1.0245733714e+02   4.4010681190e+01    0.1798256    0.1393151  14.62 0.0007006313    1.600    0.375
