#   1 NUMBER                 Running object number                                     
#   2 MAG_AUTO               Kron-like elliptical aperture magnitude                    [mag]
#   3 X_IMAGE                Object position along x                                    [pixel]
#   4 Y_IMAGE                Object position along y                                    [pixel]
#   5 X_WORLD                Barycenter position along world x axis                     [deg]
#   6 Y_WORLD                Barycenter position along world y axis                     [deg]
#   7 A_WORLD                Profile RMS along major axis (world units)                 [deg]
#   8 B_WORLD                Profile RMS along minor axis (world units)                 [deg]
#   9 THETA_WORLD            Position angle (CCW/world-x)                               [deg]
#  10 FWHM_WORLD             FWHM assuming a gaussian core                              [deg]
#  11 ELONGATION             A_IMAGE/B_IMAGE                                           
#  12 ELLIPTICITY            1 - B_IMAGE/A_IMAGE                                       
         1 -15.4931    182.4316    136.8247   6.2627379584e+01   1.8052080070e+01      3.83862     2.945872 -24.71   0.01862697    1.399    0.285
         2 -14.4527    136.5583     66.5820   5.4399051258e+01   4.2070676658e+01      2.66181     1.885037  29.40   0.01264337    1.635    0.388
         3 -15.7530    154.8222    105.4061   6.1033777079e+01   3.0572264405e+01     4.981882     3.984473 -23.05   0.02405574    1.394    0.283
         4 -10.6972    100.0665     51.1649   5.9189993690e+01   5.2553870493e+01     1.121854    0.1961695 -35.96  0.002852496    6.201    0.839
         5 -10.5984     12.2220     11.8150   7.9368557448e+01   7.1554830115e+01    0.1940331     0.146246 -10.59 0.0006414949    1.048    0.046
         6  -9.1117     91.3302      8.7026   4.5899021520e+01   5.9599832419e+01     0.115057   0.09719315 -81.94 0.0003392488    1.639    0.390
         7  -9.3141    111.1046     59.8681   5.8915299705e+01   4.8847269606e+01    0.2866038    0.2028661  15.82 0.0003394013    1.736    0.424
         8  -8.6679    141.4638    250.0304   9.2551674923e+01   2.7499385192e+00    0.1573545    0.1273365 -52.99 0.0003412394    1.472    0.320
         9  -8.0039    128.6483    250.7058   9.5271772868e+01   4.5588551922e+00    0.1239951   0.09328325   6.05 0.0007031753    1.681    0.405
        10  -8.8532     88.9274    250.2795   1.0332765529e+02   1.0403267787e+01    0.1662092    0.1368416  44.48 0.0004165233    1.104    0.094
        11  -8.8406     75.9028    250.4909   1.0594876871e+02   1.2138332684e+01    0.1698544    0.1030378  39.47 0.0003665212    1.439    0.305
        12  -8.8199     70.9961    248.4986   1.0674219283e+02   1.3169533445e+01    0.1681274    0.1043137  38.66 0.0003246521    1.447    0.309
        13  -8.4918     24.8219    250.4398   1.1563016073e+02   1.8304336789e+01    0.1487125   0.09417259  43.10 0.0003624666    1.430    0.301
        14  -9.2800     21.7020    248.1309   1.1606119114e+02   1.9079440672e+01    0.1624846    0.1306339  60.85  0.000462751    1.149    0.130
        15  -8.2814     15.2640    250.7003   1.1734245774e+02   1.9249839436e+01    0.1129837   0.06001252  65.30 0.0002350968    1.516    0.340
        16  -9.4849    149.6762    246.0698   9.0325354733e+01   2.1829287305e+00    0.2626411    0.1813984 -22.19  0.001445747    1.877    0.467
        17  -8.2101    130.3424    247.3113   9.4496960689e+01   4.9048945541e+00    0.1257519   0.09502628   2.91 0.0007045848    1.699    0.412
        18 -10.2739     93.4970    246.2692   1.0199087527e+02   1.0520934379e+01    0.4458665    0.2397811  41.17  0.001597731    1.562    0.360
        19  -9.6845     81.7341    246.2502   1.0438420360e+02   1.2163029369e+01    0.1898739    0.1806235 -69.35 0.0003614059    1.280    0.219
        20  -9.1905     75.4847    245.0190   1.0552939006e+02   1.3248205640e+01     0.179985    0.1430031  52.32 0.0004547773    1.063    0.059
        21  -8.9932     78.7636    243.3991   1.0471138696e+02   1.3122298277e+01    0.1969966    0.1424282  32.27  0.000289845    1.423    0.297
        22 -10.3402     42.4276    245.1431   1.1203211964e+02   1.7371026088e+01    0.2538398    0.2344609  -7.87 0.0004816938    1.639    0.390
        23 -10.9392     33.4474    246.3960   1.1380755549e+02   1.8147661632e+01    0.2269842    0.2098164  18.82 0.0005175213    1.555    0.357
        24  -9.4286     37.4392    243.5269   1.1286836119e+02   1.8263767964e+01    0.1933304     0.166872   8.43   0.00120662    1.746    0.427
        25  -8.4820     12.8396    247.1752   1.1759028340e+02   2.0170715753e+01    0.1301935    0.1115455  86.96 0.0002517024    1.281    0.220
        26  -8.5751      7.7748    247.4487   1.1849172625e+02   2.0616108665e+01    0.1176003   0.09743747  42.00 0.0002716204    1.437    0.304
        27  -8.9174    136.0975    246.1369   9.3150576170e+01   4.2409137795e+00    0.1867481    0.1571101  14.17 0.0004972011    1.248    0.199
        28  -8.9832    119.0327    246.3499   9.6725621837e+01   6.7789142123e+00    0.1804205    0.1389057  38.22 0.0004399325    1.120    0.107
        29 -10.0313    104.3862    245.7259   9.9690105664e+01   9.0583967928e+00    0.2376433    0.1870525  31.03 0.0006952241    1.258    0.205
        30  -8.4531    102.2788    242.3374   9.9746361490e+01   1.0009339793e+01    0.1315239    0.1102226  53.44    0.0004056    1.043    0.041
        31  -9.9923     71.7253    242.9100   1.0609274811e+02   1.4162903520e+01     0.217658    0.1724635  45.19 0.0004121689    1.160    0.138
        32 -10.2795     58.0744    243.6523   1.0888351766e+02   1.5775224631e+01    0.2511344    0.2058953 -51.47   0.00114626    1.592    0.372
        33  -9.9143     56.8751    239.2924   1.0876082670e+02   1.6795918721e+01    0.2736819    0.2039384 -39.11  0.001383086    2.002    0.501
        34  -9.9130     50.2568    245.1902   1.1053232770e+02   1.6433097347e+01     0.184214    0.1526352  62.81 0.0005009308    1.074    0.069
        35 -10.3389     51.1219    239.7157   1.0993871762e+02   1.7418574803e+01    0.4061339    0.3045693 -24.36  0.002390535    2.353    0.575
        36  -9.0226     52.5559    235.4711   1.0930987420e+02   1.8105894634e+01    0.1639417    0.1499197   5.27 4.520734e-05    1.541    0.351
        37  -9.9869     49.1324    234.6883   1.0993353431e+02   1.8681572755e+01    0.3254904    0.2001722 -51.60  0.001654668    2.079    0.519
        38  -9.6612     54.5835    231.2306   1.0854055788e+02   1.8732378716e+01    0.2504072    0.2091535  33.18 0.0009444005    1.372    0.271
        39  -9.7228     57.5970    226.6177   1.0750683184e+02   1.9326037275e+01    0.2950823    0.2114053 -26.29  0.001443284    2.397    0.583
        40 -10.3364     62.8517    221.2893   1.0588490202e+02   1.9797169363e+01    0.2156953    0.2064748 -69.57 0.0003468484    1.263    0.208
        41 -10.0916     59.1554    220.6729   1.0661967314e+02   2.0403141117e+01    0.5294523    0.3156512 -33.71  0.002417004    3.147    0.682
        42  -8.4285    186.6960    245.6393   8.2729280000e+01  -3.3095485987e+00    0.1307068   0.08691671  -1.39  0.000703837    1.727    0.421
        43  -8.6371    128.4419    244.7749   9.4569683250e+01   5.6480653974e+00     0.159359    0.1195371 -36.95 0.0009314559    1.623    0.384
        44  -8.6245     66.7189    244.9258   1.0727771531e+02   1.4422516931e+01    0.1605295    0.1332532  73.51 0.0004247639    1.091    0.083
        45  -9.5972    113.0269    243.2531   9.7605709702e+01   8.2495733824e+00     0.207652    0.1849582 -36.51  0.000681143    1.361    0.265
        46  -9.3051     22.7737    242.3518   1.1553554346e+02   2.0097857294e+01    0.2590617    0.1242744 -76.96  0.001489668    1.941    0.485
        47  -9.4522     17.2369    242.6039   1.1656207853e+02   2.0619752726e+01    0.2943794     0.180693 -42.26   0.00116282    2.941    0.660
        48  -8.9625    209.7623    242.9875   7.7798449980e+01  -6.2064090275e+00    0.1493375   0.09655377 -33.24 0.0005450671    1.589    0.371
        49  -8.8241    146.4541    242.9532   9.0563350586e+01   3.2166372336e+00    0.1733161    0.1270102 -44.73  0.001011663    1.565    0.361
        50  -9.1444    133.9282    242.5522   9.3131900054e+01   5.2132942389e+00      0.18983    0.1732613 -14.70  0.000575587    1.251    0.201
        51  -8.7887     10.8649    243.1138   1.1773500904e+02   2.1155804793e+01    0.1305614    0.1142088  78.55 0.0003799938    1.270    0.213
        52  -9.1344    141.5368    241.9238   9.1450364751e+01   4.1560560335e+00    0.1703088     0.128861 -48.80  0.000432275    1.523    0.343
        53  -8.7740     98.4262    241.7462   1.0048418184e+02   1.0683036842e+01     0.153051    0.1183933 -50.53 0.0005189033    1.538    0.350
        54  -8.6188     91.2037    240.8504   1.0189154174e+02   1.1892803525e+01    0.2204702    0.1569569  14.92 0.0003850706    1.908    0.476
        55  -8.8435     87.5558    242.5028   1.0282035152e+02   1.2084325232e+01    0.1247105    0.1063732  55.60 0.0001263426    1.020    0.020
        56  -9.6476     83.5495    241.2148   1.0351490413e+02   1.2894859750e+01    0.2114448    0.1797604  33.27 0.0004129891    1.262    0.207
        57  -9.1370     63.6275    241.1918   1.0756998496e+02   1.5560290678e+01    0.2940505    0.1402503 -73.96  0.001158173    2.246    0.555
        58  -9.7807     36.9352    235.1102   1.1237927655e+02   2.0015763061e+01    0.1927033     0.147565 -82.23 0.0003302239    1.261    0.207
        59 -10.6968     36.0378    229.0877   1.1211984766e+02   2.1362638799e+01    0.2850443     0.195957  43.51 0.0003878257    1.368    0.269
        60  -9.2842     35.5385    239.2624   1.1293987997e+02   1.9329963715e+01    0.1792795    0.1451506  46.81  0.000890421    1.261    0.207
        61 -11.6284     31.3097    234.1027   1.1340291606e+02   2.0846249424e+01    0.3277851    0.2186536 -88.23 0.0005474921    1.341    0.254
        62  -9.5590     30.0370    228.1326   1.1324145661e+02   2.2220846025e+01    0.3485785    0.1954153 -50.20  0.001894296    2.431    0.589
        63 -10.1966     27.8837    223.8284   1.1336825710e+02   2.3357711346e+01    0.3750004    0.1624683 -73.25  0.001726534    2.109    0.526
        64  -9.8275     27.5191    241.9591   1.1463243929e+02   1.9671641002e+01    0.1712656    0.1678342 -89.89 0.0006441035    1.442    0.306
        65  -9.4422     31.4162    240.5360   1.1381008690e+02   1.9531787139e+01    0.2135158    0.1626522  82.98 9.401992e-05    1.134    0.118
        66  -8.4532      3.9456    242.5282   1.1892969046e+02   2.1934662066e+01    0.1380798   0.09165407  44.94 0.0003396317    1.416    0.294
        67  -8.6373    126.5159    241.4760   9.4550788044e+01   6.5442518059e+00    0.1641465    0.1217238 -39.91 5.395459e-05    1.615    0.381
        68  -9.4010    132.6977    229.2243   9.1569935765e+01   7.8940727114e+00    0.4285913    0.2504758   7.00  0.001655591    3.452    0.710
        69  -9.9247    130.4000    235.1261   9.2884932360e+01   7.1300890550e+00     0.356051    0.2483034 -14.13   0.00180967    2.150    0.535
        70  -9.1249    134.1310    232.1085   9.1665906169e+01   7.1162769879e+00    0.1984804    0.1753294  36.39 0.0003409966    1.003    0.003
        71  -8.8021    122.4232    241.4403   9.5408924874e+01   7.1742073200e+00    0.2028325    0.1504993  43.62 0.0001168654    1.170    0.145
        72  -8.7889    122.7775    237.9643   9.4889652761e+01   7.7720986955e+00    0.2119468    0.1581549 -61.61 0.0003069537    1.545    0.353
        73  -8.4504    130.5500    240.4601   9.3566980343e+01   6.1134358070e+00    0.1291603    0.1126842  33.59 9.481976e-05    1.044    0.042
        74 -10.1191     67.7785    239.0260   1.0653716301e+02   1.5456190193e+01    0.2646799    0.1841875 -86.09 0.0004769448    1.461    0.315
        75  -9.1816     75.6837    226.9688   1.0370317420e+02   1.6880059365e+01    0.1737553    0.1662807  76.83  0.000288486    1.175    0.149
        76  -9.6254     78.9246    223.2998   1.0260847741e+02   1.7210151689e+01     0.204177    0.1771038 -67.26 0.0002528543    1.252    0.201
        77  -9.0319     69.1603    233.8716   1.0577146587e+02   1.6321678709e+01    0.2070989    0.1750285  15.51 0.0004339567    1.547    0.354
        78  -9.9923     72.9879    222.3180   1.0379586566e+02   1.8234602993e+01    0.2371542    0.1912551 -60.67 0.0004008394    1.366    0.268
        79  -9.8011     75.3891    218.1236   1.0281489923e+02   1.8813075780e+01    0.2241794    0.1737048  43.59  0.000395155    1.212    0.175
        80  -9.3894     71.5051    216.8979   1.0354028450e+02   1.9609739098e+01     0.197104    0.1703337  33.72 0.0004320118    1.273    0.215
        81  -9.6177     72.5397    232.0082   1.0488425006e+02   1.6255414642e+01    0.2466795    0.2008967 -73.44 0.0007196766    1.288    0.224
        82 -10.6969     71.5527    227.4306   1.0463443209e+02   1.7341962908e+01    0.2779336    0.2423407 -48.55 0.0001377134    1.424    0.298
        83  -8.6588    155.4526    246.7383   8.9227136338e+01   1.1901700686e+00     0.160212    0.1168026 -27.76 0.0009295233    1.611    0.379
        84  -9.2662    118.1157    239.1213   9.6027665935e+01   8.2639479707e+00    0.1873342    0.1628497  18.00 0.0004503104    1.251    0.201
        85  -9.8941    104.2553    237.4863   9.8770522777e+01   1.0657908516e+01    0.3546781    0.2321118  17.38  0.001815938    2.026    0.506
        86  -9.1980    107.2658    233.6972   9.7672433376e+01   1.0954149362e+01    0.2061262    0.1942421 -14.68 0.0007621811    1.278    0.218
        87  -9.9412     77.2612    238.2191   1.0451425740e+02   1.4353393321e+01     0.202306     0.190404  35.82 0.0005252097    1.256    0.204
        88 -10.1963    203.6268    238.0544   7.8184414084e+01  -4.5999874713e+00    0.2298171    0.1566286  20.05 0.0004518626    1.297    0.229
        89  -8.7847    170.7002    238.3300   8.4849463526e+01   2.7334042827e-01    0.1218124   0.09920158  61.82  0.000530459    1.644    0.392
        90  -9.0366    111.9049    238.2838   9.7242173177e+01   9.3620306380e+00     0.175272    0.1495576  38.41 0.0004062383    1.082    0.076
        91  -9.9767     42.1204    236.3048   1.1145055209e+02   1.9178667912e+01    0.3213606    0.2517095 -47.62  0.001611755    1.754    0.430
        92  -8.6273     17.4891    233.5485   1.1600290179e+02   2.2408352467e+01    0.1471846   0.09261223 -72.23 0.0001322952    1.555    0.357
        93  -9.4066     17.3643    237.2729   1.1624080631e+02   2.1667586752e+01    0.1872443    0.1265161 -84.75 0.0009223229    1.322    0.244
        94  -8.6162     21.5022    238.4184   1.1553921332e+02   2.1014201017e+01    0.1924695    0.1308003  46.68 0.0001124821    1.336    0.251
        95  -8.8883     20.8347    235.3633   1.1548196028e+02   2.1699392587e+01    0.1880939    0.1542098 -72.64 0.0001328073    1.386    0.278
        96  -8.6279    166.6743    237.6683   8.5581270962e+01   1.0062445755e+00    0.1338822   0.09394673   0.28 0.0007050981    1.708    0.415
        97  -9.2522    156.9640    236.7647   8.7473102261e+01   2.6730712810e+00    0.1931798    0.1551303  16.74  0.000433922    1.197    0.164
        98  -9.7457    146.0903    236.0812   8.9669847581e+01   4.4981689818e+00    0.1970703     0.183407 -12.87 0.0004684195    1.170    0.145
        99  -9.3975    134.9082    236.7458   9.2142351553e+01   6.1249895632e+00    0.2029904    0.1760092 -19.58 0.0007443913    1.339    0.253
       100  -9.9757    101.9129    228.4146   9.8184033874e+01   1.2817910658e+01    0.2084115    0.1824865 -57.12 0.0001901523    1.284    0.221
       101  -9.9688     95.4661    235.8272   1.0044446232e+02   1.2273168040e+01    0.2176398    0.2064923 -68.37 0.0004302452    1.215    0.177
       102  -9.8580     99.4878    233.2505   9.9289476886e+01   1.2200272693e+01    0.2750689    0.2230115 -88.40  0.001055217    1.329    0.247
       103  -8.8011     72.3352    237.0553   1.0541866983e+02   1.5251411822e+01    0.1645711    0.1396247  80.74 0.0004650403    1.121    0.108
       104  -8.4262      8.5924    237.4634   1.1785565156e+02   2.2492515773e+01    0.1099538   0.08445242  76.22 8.928001e-05    1.062    0.058
       105  -8.8816      1.8803    237.4917   1.1905928918e+02   2.3116705030e+01     0.139319   0.09373187  44.13 0.0003567236    1.436    0.303
       106  -8.0397    189.7018    236.3068   8.0660001166e+01  -2.2810009439e+00    0.1155503   0.09972582  57.01 0.0002836669    1.591    0.372
       107  -9.2611    125.6362    234.3995   9.3809790142e+01   8.0086801884e+00    0.2259059    0.2061466 -21.58 0.0005728544    1.271    0.213
       108  -8.9356    126.7245    230.2995   9.3019216736e+01   8.6284012877e+00    0.1690049    0.1468625   3.91 0.0005345016    1.312    0.238
       109  -8.1911    120.2945    235.3199   9.5078130175e+01   8.6570638205e+00    0.1245002    0.1003909  -5.72 0.0003233049    1.611    0.379
       110 -10.2688     90.7975    234.2363   1.0125796051e+02   1.3264786882e+01    0.2326296    0.1965476 -45.11 0.0004022986    1.455    0.313
       111  -8.3712     82.2547    235.3780   1.0318573460e+02   1.4239532732e+01    0.1164024   0.09600068 -33.66 0.0006965082    1.656    0.396
       112  -9.5525    170.2080    233.6999   8.4235365236e+01   1.1370321465e+00    0.2393061    0.1539158 -16.75 0.0009765028    2.029    0.507
       113  -8.9971    162.3081    233.6211   8.5875970554e+01   2.3881644750e+00    0.2107257    0.1450538 -23.62 0.0007383435    1.735    0.424
       114  -9.3186    140.0889    233.2936   9.0551513735e+01   5.9542658145e+00    0.1920412    0.1726129 -13.17  0.000289381    1.234    0.190
       115  -9.9983     77.1739    233.2668   1.0403650273e+02   1.5369160951e+01    0.2001658    0.1917925 -82.36 0.0006321097    1.222    0.182
       116  -9.3149     79.9576    229.3689   1.0304080832e+02   1.5790175688e+01    0.1899394    0.1700914 -67.68 0.0004094176    1.251    0.201
       117  -9.0654    152.8622    232.9326   8.7769516807e+01   4.0012534546e+00    0.1954558    0.1617128   5.74 0.0003339006    1.268    0.211
       118 -10.9993    114.6309    232.3595   9.5916321699e+01   1.0101243260e+01    0.2738829    0.2189581  27.97 0.0001918825    1.255    0.203
       119  -8.5241    166.4414    232.4647   8.4829552182e+01   1.9410982881e+00    0.1326043    0.1137681  15.82 0.0003918215    1.056    0.053
       120  -9.3989    121.8489    231.2353   9.4205116347e+01   9.2078997878e+00    0.2017244     0.188155 -12.65 0.0003768599    1.234    0.190
       121  -9.9022     84.0332    231.8105   1.0243221652e+02   1.4717587276e+01    0.2248438    0.1886287  58.37 0.0003603786    1.026    0.025
       122  -8.5133     87.5255    229.5663   1.0143834624e+02   1.4684894558e+01    0.1657824    0.1194713 -52.59 0.0002845548    1.598    0.374
       123  -8.4213    194.3951    231.1975   7.8883004304e+01  -2.1609658819e+00    0.1585625    0.1223725 -46.59 0.0005062689    1.573    0.364
       124  -8.9344    187.7479    230.8383   8.0165851420e+01  -1.0929353326e+00    0.2268526      0.13004  -3.49 0.0009579021    2.837    0.647
       125  -9.6631    146.4910    230.4741   8.8766327213e+01   5.4635412062e+00    0.2430309    0.2035006  11.50 0.0001199911    1.232    0.188
       126 -10.4327    152.6704    227.4217   8.6975976890e+01   5.0407813735e+00    0.3782318    0.2866152 -26.18   0.00164749    1.513    0.339
       127  -9.5082    156.6187    223.8337   8.5565180207e+01   5.0697983587e+00    0.2741905     0.203522 -26.40  0.001152162    1.532    0.347
       128  -9.2115     66.8162    230.6341   1.0595092628e+02   1.7299284836e+01    0.1853145    0.1588549 -71.91 0.0004607605    1.267    0.211
       129 -10.5885    176.5702    227.5640   8.1930228976e+01   1.1997398472e+00    0.3174932     0.171175 -33.96  0.001513871    2.091    0.522
       130 -11.4575    139.5748    200.2994   8.5520182514e+01   1.2623265621e+01     1.159274     0.445276 -47.00  0.004331806    2.736    0.634
       131 -13.2252    138.2802    187.5574   8.3585152835e+01   1.5609364608e+01     4.310513     1.740397 -33.80   0.01160948    5.337    0.813
       132 -12.5295     93.6296    141.6256   8.6359533233e+01   3.4377534058e+01     1.802118     1.188551  32.78   0.00515065    1.608    0.378
       133 -13.4101    139.9656    215.6815   8.7944119389e+01   9.3812224705e+00      2.46959     1.700296 -31.64   0.01254639    1.749    0.428
       134 -13.2241    117.7379    136.3538   7.8408168957e+01   3.1378926165e+01     2.091127     1.809955 -68.89    0.0105517    1.228    0.186
       135 -12.4058    161.7235    205.6436   8.1415793111e+01   7.7115865527e+00     1.796835     1.108113   4.21  0.007376683    2.640    0.621
       136 -12.5300    159.3494    193.1079   7.9690840712e+01   1.0659999891e+01     1.381386     1.180277 -65.00  0.007504799    1.376    0.273
       137 -12.6673    157.6992    176.4509   7.6866981086e+01   1.4486760744e+01     1.726398     1.226423   0.05  0.007699417    1.932    0.482
       138  -8.7206    113.4272    248.7774   9.8172310158e+01   7.1669538127e+00    0.1472337    0.1194093 -44.01 0.0004245382    1.499    0.333
       139  -9.1725    113.6026    223.1860   9.4935983563e+01   1.2101853158e+01    0.3283405    0.1900081 -59.12  0.001252421    1.901    0.474
       140 -10.0086    115.9655    219.8661   9.3954079502e+01   1.2414844497e+01    0.3705761    0.2892091  75.82  0.001591079    1.473    0.321
       141 -10.6551    120.0108    215.9253   9.2482346213e+01   1.2589741776e+01    0.4708906    0.2466107 -56.13  0.001634344    2.068    0.516
       142  -9.7128    119.7935    211.1586   9.1832031284e+01   1.3628263748e+01    0.2409348     0.190541  29.60 0.0003663371    1.256    0.204
       143  -9.8415    123.9244    220.1064   9.2204294612e+01   1.1100205989e+01    0.2536859    0.2166344 -26.56 0.0004260756    1.377    0.274
       144  -9.3479    126.5231    216.5309   9.1097783628e+01   1.1413086657e+01    0.2173598    0.1980857   7.51 0.0001370266    1.192    0.161
       145  -8.4557     61.7581    227.9230   1.0675482681e+02   1.8522492463e+01     0.147017   0.09843357 -72.34 0.0002798266    1.499    0.333
       146  -8.5666    229.2056    227.4247   7.1518550054e+01  -6.5917195226e+00    0.1506757    0.1086465  33.72 0.0002983741    1.479    0.324
       147  -9.1012    210.3768    226.8366   7.4988592338e+01  -3.8372500854e+00    0.1756618    0.1064766 -25.32 0.0003556265    1.674    0.402
       148  -8.9096    158.8242    228.8190   8.5873207181e+01   3.7980032205e+00    0.1952793    0.1628675   8.80 0.0004003679    1.200    0.166
       149  -9.4450     46.5252    225.5861   1.0971879213e+02   2.0895240595e+01    0.2648522    0.1739864 -42.29  0.001044801    2.243    0.554
       150  -9.6301     42.0678    225.7087   1.1064385239e+02   2.1390056335e+01    0.2339633    0.1727449  72.58 0.0005008397    1.147    0.128
       151  -9.1156     19.8184    227.2362   1.1517789409e+02   2.3474340017e+01    0.1692374    0.1229174  71.31 0.0004457716    1.087    0.080
       152  -9.6999      9.7633    225.7744   1.1701457046e+02   2.4760050500e+01    0.2897579    0.2322544  67.14  0.002136447    1.113    0.102
       153  -9.4489     14.9007    223.0718   1.1587297240e+02   2.4833739401e+01    0.1687042    0.1513128  77.35  0.001266345    1.240    0.194
       154  -9.2884      1.9328    221.7957   1.1827752484e+02   2.6303141802e+01    0.2249596    0.1320735 -79.49  0.001056487    1.469    0.319
       155  -9.5979      1.2441    218.3678   1.1822887566e+02   2.7081495862e+01    0.3965609   0.08201228 -73.44   0.00159127    3.725    0.732
       156  -9.2793      6.7467    220.1800   1.1727651483e+02   2.6209726558e+01    0.2773623    0.1241739  63.20  0.001034524    1.975    0.494
       157  -9.7799      5.2741    216.7037   1.1736553145e+02   2.7078039947e+01    0.4110384    0.1668685  80.06  0.001999058    2.433    0.589
       158  -9.5867    238.8111    226.0143   6.9520870009e+01  -7.6756125703e+00    0.1574497    0.1362171  38.49 0.0007177823    1.609    0.379
       159  -9.3978    162.0517    225.3461   8.4637777046e+01   3.9118345974e+00     0.264052     0.202717 -71.42  0.001430551    1.856    0.461
       160 -10.3805    126.6382    224.8152   9.2273203561e+01   9.7193860127e+00    0.2495053    0.2325516 -34.89 0.0005632929    1.203    0.169
       161 -10.1330     65.6885    225.4114   1.0568284812e+02   1.8545443111e+01    0.2056313    0.1899891  66.16 0.0003078923    1.143    0.125
       162  -8.8254    190.4151    224.8154   7.8618922630e+01  -4.9665582822e-01    0.1786063    0.1156553 -26.89 0.0005465612    1.635    0.389
       163  -9.2100    167.3687    224.9620   8.3443081540e+01   3.1255420678e+00     0.209303    0.1655606  38.16 0.0003796642    1.207    0.171
       164 -10.4244     99.5064    223.6966   9.8129148923e+01   1.4151180248e+01    0.2768593     0.238142 -17.84  0.001234798    1.513    0.339
       165  -8.8175     95.5760    223.5112   9.8975138042e+01   1.4775007148e+01    0.1832841    0.1241503  24.84 0.0001119256    1.674    0.402
       166  -9.4180    109.0110    219.3929   9.5451263403e+01   1.3601581357e+01    0.2213685    0.1904932 -50.82 0.0002718061    1.293    0.227
       167 -10.1482    104.9702    223.1336   9.6846888541e+01   1.3442900077e+01    0.2476881    0.2277568  58.89 0.0003695945    1.037    0.036
       168  -9.6000    104.8643    205.6027   9.4485999196e+01   1.7223103679e+01    0.2334992    0.1927728 -51.52 0.0003965964    1.306    0.234
       169  -8.9471    102.2927    209.2861   9.5604715062e+01   1.6812205385e+01    0.1977885    0.1874987  13.00 0.0001822946    1.195    0.163
       170  -9.6012     89.0554    210.2955   9.8796895450e+01   1.8589697477e+01    0.2341033    0.2133154 -86.32 0.0002184367    1.100    0.091
       171  -9.8666    106.0536    210.2182   9.4864120570e+01   1.6022593156e+01    0.2319381    0.2100315 -34.64  0.000331881    1.278    0.218
       172  -9.3102    104.4681    218.5409   9.6359617872e+01   1.4481977328e+01    0.2382853    0.1887082 -63.61 0.0006065663    1.351    0.260
       173  -9.4255    106.5482    215.5584   9.5488783195e+01   1.4794470872e+01    0.2302162     0.188103  31.13 0.0005681301    1.233    0.189
       174  -9.9914    102.7509    214.5730   9.6220058731e+01   1.5592307321e+01    0.2711343    0.2639103 -53.51 0.0007903542    1.158    0.136
       175 -10.7410     98.6786    211.6083   9.6755020390e+01   1.6858839933e+01     0.328625    0.2630554 -70.72  0.000750007    1.305    0.234
       176 -10.9384     92.9423    211.5446   9.8064379300e+01   1.7737919547e+01    0.5258136    0.2663092 -49.61  0.001356005    2.218    0.549
       177  -9.5723     36.8267    217.3029   1.1105297072e+02   2.3792289096e+01     0.294589    0.1773302 -79.23 0.0003689296    1.527    0.345
       178  -9.1090     37.4161    221.7300   1.1128215796e+02   2.2768464388e+01    0.2129221    0.1588099 -52.70 0.0004471113    1.667    0.400
       179 -10.8207     44.8417    218.9473   1.0950850338e+02   2.2520915079e+01    0.4469047    0.2938772  20.65  0.001606385    2.026    0.506
       180  -9.9686     65.8800    207.2114   1.0374000924e+02   2.2519089517e+01    0.4915518    0.2022851  52.00  0.001679813    2.500    0.600
       181 -11.0377     56.5304    210.4492   1.0618658997e+02   2.2987700912e+01    0.4952004    0.3785012  73.31  0.002487099    1.183    0.155
       182 -10.1255     61.2631    214.2216   1.0552180222e+02   2.1547828593e+01    0.2983262    0.2229395 -52.03 0.0003907799    1.562    0.360
       183  -9.1812     64.8931    211.4973   1.0443021500e+02   2.1683950218e+01    0.2049273     0.165819  58.98 0.0004269938    1.105    0.095
       184 -11.1394     42.9356    213.9244   1.0947889117e+02   2.3843488239e+01    0.5424046    0.4113234 -79.29  0.002073474    1.232    0.188
       185  -9.6114     46.8427    212.8753   1.0854428318e+02   2.3621046124e+01    0.2313987    0.1702915  66.59  0.000243297    1.196    0.164
       186 -10.2296     61.1793    203.7078   1.0442792559e+02   2.3928754611e+01    0.3908065    0.2691253  -3.18  0.001658563    2.558    0.609
       187 -10.1780     55.6824    203.9990   1.0571463971e+02   2.4555195574e+01    0.2565501    0.2226325 -89.13 0.0004707467    1.077    0.071
       188  -9.3497     56.9041    199.8786   1.0499461702e+02   2.5352432983e+01    0.1913791    0.1696811  83.05 0.0002936953    1.042    0.041
       189 -11.0020     54.1220    216.8963   1.0734341560e+02   2.1855536406e+01    0.5100021    0.3827414 -35.23  0.002334608    1.935    0.483
       190 -10.1188     51.9008    212.4782   1.0740636334e+02   2.3104191917e+01    0.2246419    0.2094551 -78.90 0.0004581832    1.218    0.179
       191  -8.4161    179.3371    221.2604   8.0306496180e+01   1.8651444499e+00    0.1355981   0.09573875   5.49 0.0004990195    1.581    0.368
       192  -9.5497    174.9698    221.0059   8.1181806306e+01   2.6126613826e+00    0.2089044    0.1500718  -1.89 0.0005002308    1.610    0.379
       193  -8.7115    166.6629    220.6486   8.2889238795e+01   4.0249876674e+00    0.1958151    0.1442147  -1.53  0.000486204    1.581    0.367
       194  -9.5343    163.5213    218.4843   8.3207911502e+01   4.9407890322e+00    0.4239678     0.235806 -15.32  0.001541421    3.685    0.729
       195  -9.1087     68.0062    220.0803   1.0464603475e+02   1.9384575156e+01    0.1840474    0.1633907  67.56  0.000322361    1.055    0.052
       196  -9.8114     81.7473    218.7090   1.0147057966e+02   1.7800048428e+01    0.2189403    0.1892974  66.24 0.0004138983    1.031    0.030
       197 -10.4825     84.7446    214.2608   1.0027307859e+02   1.8341948040e+01    0.2254509    0.2138266  18.28 0.0002777759    1.249    0.199
       198  -8.9270     79.9588    214.7605   1.0141244955e+02   1.8913026277e+01    0.1784783    0.1759969 -35.04 0.0003087038    1.235    0.191
       199  -8.9044     16.4191    219.2679   1.1533995669e+02   2.5492381548e+01    0.1524893   0.09166669  85.64 0.0003430964    1.420    0.296
       200  -8.4437    195.0022    218.0832   7.6526556873e+01  -6.8083566423e-02    0.1573932    0.1367813  -0.44 0.0004193956    1.035    0.034
       201  -8.5878    183.9606    218.5064   7.8871915527e+01   1.6108997482e+00    0.1863438    0.1080272  12.33 0.0006098457    2.324    0.570
       202  -9.0217    157.0087    217.9540   8.4535999775e+01   6.1146130996e+00    0.2009286    0.1818741  14.53 0.0003664381    1.044    0.043
       203  -9.7722    179.2032    216.2379   7.9477926461e+01   2.7849322771e+00    0.3814313    0.2167053  11.38  0.001583227    2.626    0.619
       204  -8.8875    169.7353    217.2817   8.1669415339e+01   4.1430389660e+00    0.1803416    0.1452383  -1.54 0.0004106995    1.299    0.230
       205  -9.7131     65.9304    215.9388   1.0466992074e+02   2.0562864213e+01    0.1872124    0.1661877  72.69 0.0003185094    1.048    0.046
       206  -9.5364     69.1363    212.7122   1.0361128586e+02   2.0851738435e+01    0.2034922    0.1954392 -35.16 0.0004453156    1.308    0.236
       207  -9.6168     13.1325    215.4587   1.1575082887e+02   2.6623386112e+01    0.1901179    0.1494456 -68.38 0.0004620683    1.385    0.278
       208  -8.6489    200.4010    214.7347   7.4843347974e+01  -3.4215504110e-01    0.1836746    0.1152826 -27.46 0.0009394658    1.632    0.387
       209 -13.2025    188.4595    192.9215   7.3267927623e+01   5.5672149010e+00     1.902055     1.341259  42.58  0.005343053    1.484    0.326
       210  -9.6076    110.4139    190.9797   9.0928971156e+01   1.9633499049e+01    0.2416045    0.2232483  31.15 0.0004314949    1.113    0.101
       211  -9.2592    109.9771    208.7793   9.3750562872e+01   1.5716884696e+01    0.2114258    0.1878992 -43.44 0.0004805889    1.255    0.203
       212  -9.5145    119.5310    194.4996   8.9289910523e+01   1.7314189330e+01    0.2319676    0.2305082  13.94 9.697225e-05    1.062    0.058
       213  -9.1181    118.7459    206.9393   9.1439867786e+01   1.4702762914e+01    0.2359673     0.187183 -44.03 0.0004174941    1.386    0.278
       214 -10.0204    120.8425    203.0033   9.0342139002e+01   1.5212519383e+01    0.2533446    0.2158977  28.17  0.000262219    1.182    0.154
       215  -9.1050    113.8605    187.1811   8.9457725170e+01   1.9935557139e+01    0.2385655    0.2025935  18.66 0.0002609585    1.301    0.232
       216  -9.2922    116.5083    201.5323   9.1134096807e+01   1.6250564460e+01    0.2260215    0.1643929  41.48 0.0002917562    1.291    0.225
       217  -9.2321    119.5508    198.9006   8.9997851125e+01   1.6329215530e+01    0.2326785    0.1952434 -37.37 0.0003879628    1.323    0.244
       218  -9.6342    102.1560    197.0631   9.3879199432e+01   1.9572266285e+01    0.2525906    0.1932007  44.01 0.0003012579    1.240    0.193
       219 -10.0560    124.8678    210.9407   9.0634213158e+01   1.2846722907e+01    0.2411565    0.2276271  -9.23  0.000438671    1.164    0.141
       220 -10.6459    111.5725    213.1747   9.4011214998e+01   1.4515949585e+01    0.2767713    0.2478866 -37.59  0.000345494    1.274    0.215
       221 -10.8550    114.9480    207.5093   9.2409219363e+01   1.5196303917e+01    0.5642568    0.2658377 -57.84   0.00239664    2.275    0.560
       222 -10.6016    103.2512    189.2308   9.2409317093e+01   2.1205611267e+01    0.5459163    0.2271353 -47.14  0.002051374    2.656    0.624
       223  -9.8704    109.3518    187.0255   9.0545910079e+01   2.0723504910e+01    0.7596829    0.2956998  50.15  0.002568626    3.111    0.679
       224  -9.5714    122.9448    207.0437   9.0480219057e+01   1.3991209134e+01    0.3134847    0.1932378  33.57     0.001139    1.567    0.362
       225  -9.8300    126.8146    206.1790   8.9447452737e+01   1.3534998181e+01    0.2311506    0.2247277 -22.21 0.0004013949    1.105    0.095
       226  -9.8603    109.6887    196.0137   9.1903510364e+01   1.8602202534e+01    0.3118002    0.2494233  66.60 0.0003334687    1.327    0.247
       227 -10.7812    109.7407    203.1899   9.2985631041e+01   1.6983088903e+01    0.3157629    0.2638077  54.06 0.0006151713    1.145    0.126
       228 -10.4897    105.9417    198.5195   9.3188383244e+01   1.8638904668e+01    0.3017414    0.2237351 -53.06   0.00032998    1.412    0.292
       229  -8.8905    193.3320    214.2902   7.6199240241e+01   8.5191698153e-01    0.1386168   0.09595867   0.91 0.0005067761    1.628    0.386
       230  -9.1685    187.0345    214.1106   7.7467040798e+01   1.8953018059e+00    0.2079353    0.1753978   7.46 0.0003576784    1.082    0.076
       231  -8.9104    184.5762    210.9224   7.7416216740e+01   2.8691287041e+00    0.2207591     0.171051   5.13 0.0006382247    1.310    0.237
       232  -9.2107     29.0230    214.0193   1.1242161977e+02   2.5353656155e+01    0.1762379    0.1481533  80.66 0.0003073246    1.074    0.069
       233 -10.4158    170.3820    210.8951   8.0436469921e+01   5.2300193992e+00     0.385501    0.2523149 -15.17  0.001585065    2.019    0.505
       234  -9.2449    167.5896    208.2448   8.0580775290e+01   6.2057871492e+00    0.2165213    0.1970982 -20.46 0.0002908836    1.115    0.103
       235  -9.4852     74.3638    213.1565   1.0248678174e+02   2.0044729539e+01    0.1978835    0.1701951  35.26 0.0004314415    1.248    0.199
       236 -12.9844     30.0421    201.9990   1.1124864832e+02   2.7932048902e+01     1.640589     1.218423 -18.39  0.009497615    2.197    0.545
       237 -12.7661     63.6761    161.8150   9.8390901026e+01   3.3719605372e+01     1.475491      1.12082  35.65  0.007950244    1.400    0.286
       238 -12.6939      7.6124    197.9029   1.1574885698e+02   3.0981724486e+01     1.708356    0.8867951 -86.11  0.009560663    1.632    0.387
       239 -10.7116     66.3106    193.0958   1.0198996403e+02   2.5730992520e+01    0.2299416      0.21786  87.50 0.0003430605    1.108    0.098
       240 -10.9243     55.3684    169.1872   1.0165511261e+02   3.2926574449e+01    0.2841298     0.248992   2.59 0.0006076384    1.434    0.303
       241 -13.7467     28.0285    126.8029   1.0332949185e+02   4.6364598669e+01     3.146913      1.69864  63.72    0.0140133    2.579    0.612
       242 -12.0425     49.5976    201.3678   1.0682768060e+02   2.5899082375e+01    0.9170037    0.5320351 -52.80  0.004733081    1.912    0.477
       243 -11.3032     78.7553    143.8632   9.1094998851e+01   3.6145645398e+01    0.7900421    0.3968755 -33.80  0.002384065    3.049    0.672
       244 -12.1407     63.4543    188.7032   1.0213864993e+02   2.7149516240e+01     1.631492    0.5012187 -58.34   0.00607087    2.930    0.659
       245 -11.4716     63.2616    173.5352   1.0019860905e+02   3.0859304803e+01    0.6452954     0.526872 -44.66  0.001463433    1.362    0.266
       246 -12.3129     18.0665    190.4813   1.1295015345e+02   3.1746256949e+01     1.183621    0.5548674  47.44  0.006137387    2.010    0.502
       247 -12.1561     30.3521    188.9244   1.1003295261e+02   3.0924488991e+01     1.116513    0.4783913 -61.63  0.005285789    2.113    0.527
       248 -11.8639     27.2023    177.6029   1.0970348506e+02   3.3925184609e+01     1.140347    0.3928235 -57.32  0.003954198    2.646    0.622
       249 -11.5302     22.9426    171.0435   1.1009801090e+02   3.5901236080e+01    0.4942712    0.3575663  84.31   0.00259305    1.236    0.191
       250 -13.5082     47.6474    181.8588   1.0518657828e+02   3.0737504575e+01     1.757114     1.355863  82.73   0.01026479    1.203    0.169
       251 -13.2682      9.5301    133.5723   1.0966751612e+02   4.6089964697e+01     1.830539    0.8000825 -56.33  0.007065277    1.884    0.469
       252 -13.2192     12.9274    176.3326   1.1297044483e+02   3.5506560922e+01      1.35121     1.070588 -55.20  0.008830361    1.387    0.279
       253 -13.0269     12.7936    144.6683   1.0999971330e+02   4.3155071753e+01     2.062832    0.7062879 -47.69  0.008328682    3.080    0.675
       254 -11.5238     20.3475    142.2179   1.0764773726e+02   4.3180826959e+01     0.570233    0.3465559 -21.17  0.002030983    2.371    0.578
       255 -11.7316     35.2271    173.6194   1.0733224159e+02   3.4091480430e+01    0.9751728    0.3916499 -86.97  0.003557951    3.347    0.701
       256 -13.7879     37.4795    161.3592   1.0533977796e+02   3.6874121449e+01     1.823766     1.537995  78.36   0.01117452    1.129    0.114
       257 -12.0685     47.1387    147.6088   1.0083352055e+02   3.9286035553e+01     1.526795    0.4133813 -69.85  0.004533052    4.220    0.763
       258 -12.8736     56.1540    148.4584   9.8403381865e+01   3.8026233065e+01     1.474341    0.9933886  47.15  0.007505973    1.583    0.368
       259 -11.9841     75.8650    150.5411   9.3153168936e+01   3.4887108004e+01    0.9936733    0.5814966  22.26  0.004310973    2.114    0.527
       260 -12.3879     62.0749    139.7157   9.5212333461e+01   3.9495296564e+01     1.007917      0.73809  70.57  0.004146853    1.612    0.379
       261 -13.0410     69.6419    136.9355   9.2452723020e+01   3.9189775312e+01      1.72307     1.552249  -4.50  0.009675103    1.263    0.208
       262 -13.0738     63.5814    128.2242   9.2604501534e+01   4.2187495529e+01     1.456553     1.295835   4.57   0.00825778    1.269    0.212
       263  -9.2514    180.7020    211.1074   7.8265427708e+01   3.4733560375e+00    0.1911114    0.1639891 -12.36 0.0005412067    1.134    0.118
       264  -9.6508     36.4102    210.2585   1.1056258265e+02   2.5391485587e+01    0.2710353    0.2113345  -8.04  0.001360284    2.052    0.513
       265  -9.8956    193.7437    209.6383   7.5282087892e+01   1.6047302826e+00    0.2857116    0.1944827  -1.06  0.001008857    1.725    0.420
       266 -10.8498     89.4792    190.6512   9.6019162145e+01   2.3022274616e+01       1.0114    0.4274003 -43.12  0.003622694    3.254    0.693
       267  -9.8874     82.7472    201.4376   9.9127127250e+01   2.1508244852e+01     0.221428    0.2135053 -61.91 0.0003322456    1.169    0.144
       268 -10.4851     79.9433    196.8520   9.9194703781e+01   2.2971064907e+01    0.4716698    0.2361349 -51.35  0.001419154    2.133    0.531
       269 -10.8797     80.1402    190.8147   9.8335155920e+01   2.4360648986e+01    0.4973282    0.3188783  64.21  0.001524142    1.728    0.421
       270  -9.7411     81.3725    176.1663   9.5899581580e+01   2.7708921926e+01    0.3565073    0.2780721  21.93  0.001576036    1.489    0.328
       271 -10.6985     95.2938    162.8605   9.0005537256e+01   2.8838189829e+01     0.514779     0.461805  89.76  0.002798666    1.131    0.116
       272 -10.4755    100.3630    162.7281   8.8621638068e+01   2.8040661842e+01    0.2660491    0.2593058 -19.78 0.0003337596    1.102    0.093
       273 -10.0234     68.9687    182.1049   9.9918125339e+01   2.8007698041e+01    0.2393279    0.1993054 -55.63 0.0003261684    1.247    0.198
       274 -11.0175     83.6229    168.8113   9.4146896296e+01   2.9183591157e+01    0.3420925      0.30661 -58.01 0.0002131066    1.115    0.103
       275 -10.4906     89.0570    167.0164   9.2403782648e+01   2.8799417908e+01    0.2544028    0.2427519 -10.88  0.000308717    1.182    0.154
       276  -9.6642     88.9471    163.0287   9.1744610733e+01   2.9802822794e+01    0.2811437    0.2391762   3.84 0.0002966321    1.427    0.299
       277 -10.2105     85.4418    160.2322   9.2205609779e+01   3.1038046253e+01    0.3880783    0.2797965 -34.27 0.0003772231    1.649    0.394
       278  -9.8007     80.7997    184.8758   9.7337496779e+01   2.5681622280e+01    0.3575566    0.2573586 -63.06 0.0003584909    1.356    0.262
       279 -10.0171     83.7713    180.3001   9.5913215314e+01   2.6349648447e+01    0.4341953    0.2561792 -33.02  0.001224538    2.552    0.608
       280 -10.6105     90.0036    173.6097   9.3255594219e+01   2.7034112325e+01    0.6674399    0.3849786 -27.12   0.00205855    3.144    0.682
       281 -11.6154     76.7392    170.8105   9.6282603457e+01   2.9695953525e+01    0.5886297    0.4555387  49.01  0.001280148    1.296    0.228
       282 -10.4858     72.7143    187.0686   9.9654090644e+01   2.6299751083e+01    0.3105548    0.2260813 -63.08 0.0003268551    1.335    0.251
       283  -9.8677     80.0880    164.1862   9.4330865429e+01   3.0854533782e+01    0.2509489    0.2330997  30.25  0.000714118    1.173    0.147
       284 -10.2305     74.9726    164.0327   9.5684436627e+01   3.1630458460e+01    0.3029874    0.2614953  17.86 0.0003081001    1.344    0.256
       285  -9.9633     84.2673    206.3796   9.9405728431e+01   2.0164346902e+01    0.2263285    0.2064572  68.38  0.001385035    1.020    0.020
       286 -10.9860     88.4303    202.6371   9.7943032751e+01   2.0402826192e+01    0.6189994    0.2647493 -62.57  0.002225377    2.395    0.582
       287 -10.1886     75.1503    182.1974   9.8375168773e+01   2.7134043736e+01     0.302781    0.2440731  14.61 0.0004572541    1.534    0.348
       288 -11.0723     72.7024    178.1273   9.8418193126e+01   2.8465423386e+01    0.8646841    0.4157421  40.44  0.003758341    2.027    0.507
       289  -8.9883    225.1019    208.5240   6.8907023963e+01  -3.0755397994e+00    0.2016568    0.1461831 -28.48 0.0006203011    1.266    0.210
       290  -8.3700    188.3889    209.2612   7.6321881499e+01   2.5444494343e+00    0.1426994   0.09770608   5.45 0.0006974689    1.694    0.410
       291  -8.9111     72.6910    209.0664   1.0239763456e+02   2.1186851378e+01    0.1763203     0.154673 -82.64 0.0003573337    1.121    0.108
       292  -8.9374    176.6716    207.6200   7.8504693618e+01   4.7925655102e+00    0.2058134     0.150021  -3.08 0.0007182058    1.591    0.371
       293  -9.5666    183.5418    205.9350   7.6738209934e+01   3.9556254502e+00    0.3126838    0.2060976   9.15  0.001493698    1.849    0.459
       294  -9.9312    181.6984    202.0740   7.6424438805e+01   4.9888646103e+00    0.5556374    0.1873464 -39.85  0.001644312    3.174    0.685
       295  -9.2156     43.9431    207.0786   1.0864578482e+02   2.5257897281e+01    0.1829982    0.1593086  82.82 0.0002979049    1.070    0.065
       296 -14.1453    194.7864    160.2404   6.5274289007e+01   1.0823963376e+01     2.549996     1.432602 -27.06   0.01047451    2.135    0.532
       297  -9.8595    175.6721    203.1544   7.7916021990e+01   5.8093146651e+00    0.3774079    0.2185319 -26.95  0.001477243    2.126    0.530
       298  -9.6462     39.0397    205.6623   1.0959508402e+02   2.6133407583e+01    0.2082659    0.1587142 -72.98 0.0003605897    1.257    0.204
       299  -9.6389     70.7920    204.8083   1.0233873307e+02   2.2409601254e+01    0.2064158    0.1924924  81.39 0.0004251281    1.092    0.084
       300 -10.8416     77.6121    207.4431   1.0107797749e+02   2.0872102919e+01    0.5937142    0.3740627 -69.26  0.001523585    1.602    0.376
       301  -9.1613    189.5051    203.5941   7.5056835514e+01   3.3922148527e+00    0.2686523    0.1698418 -11.70  0.001142629    2.093    0.522
       302 -11.0768     97.4146    202.4746   9.5796571780e+01   1.9082616498e+01    0.2689445    0.2429265  42.96  0.001586626    1.096    0.088
       303 -10.0225     94.7537    193.8085   9.5189878490e+01   2.1478626402e+01    0.2331163    0.2206101 -65.81 0.0004871237    1.110    0.099
       304  -9.3634     97.6795    198.0091   9.5095260605e+01   2.0057132176e+01    0.2576383    0.1848196 -71.56 0.0003420692    1.472    0.321
       305  -8.4852     98.4169    194.5127   9.4403142450e+01   2.0746512447e+01    0.1932289    0.1370104  22.86 0.0001385012    1.636    0.389
       306 -10.7289     67.7502    200.9571   1.0259376471e+02   2.3702661376e+01    0.2539866    0.2342133 -58.01 0.0003156152    1.232    0.188
       307  -8.4095    202.3168    201.2849   7.1996776210e+01   1.6975480703e+00    0.1389722    0.0977312  -0.99 0.0003156342    1.585    0.369
       308  -9.4891    186.4985    199.3129   7.4893372118e+01   4.6936556747e+00     0.261935    0.2004994 -17.22 0.0007476776    1.351    0.260
       309  -9.2732     92.9544    198.5597   9.6307633052e+01   2.0656354420e+01    0.2096536    0.1833917 -56.35 0.0004267863    1.213    0.176
       310 -10.1682     73.8489    198.8288   1.0090075072e+02   2.3367860261e+01    0.2350469    0.1960032  67.60 0.0002793894    1.113    0.101
       311  -8.8556    210.2491    198.2305   6.9838525049e+01   9.5278732725e-01    0.1610213     0.156728  18.69 0.0003500477    1.277    0.217
       312 -10.0909    124.0278    197.4648   8.8700656032e+01   1.5895392586e+01    0.2459916    0.2067467 -50.67 0.0003553732    1.249    0.199
       313  -9.8462    114.1550    197.8828   9.1123462173e+01   1.7449587093e+01    0.2379854    0.2121715 -16.94 0.0003329942    1.310    0.237
       314  -9.1144    231.7647    197.1106   6.5537160885e+01  -2.2025499586e+00    0.2485287    0.1515824   4.92  0.001207298    2.072    0.517
       315  -9.5820    223.8162    196.0604   6.6812035097e+01  -8.1638428427e-01    0.3549258    0.2219235  19.43  0.001820327    1.737    0.424
       316  -9.4556     12.7214    195.9850   1.1453303466e+02   3.0968106842e+01    0.1809036    0.1519275  69.76 0.0003872744    1.125    0.111
       317  -9.3501    202.5717    194.5693   7.0670323129e+01   2.8635074364e+00    0.4022751    0.2209105  16.64  0.001652087    2.579    0.612
       318  -9.6778     74.0718    194.0181   1.0023724195e+02   2.4461458123e+01    0.1994186    0.1838796  78.29 0.0003670411    1.036    0.035
       319  -9.6954    130.9202    189.0129   8.5611895201e+01   1.6586660788e+01    0.2332416    0.2033232  31.74            0    1.126    0.112
       320 -10.1862    124.9789    192.2347   8.7600460211e+01   1.6896299243e+01    0.2774803    0.2243912 -26.54 0.0003296967    1.448    0.309
       321  -9.4802    126.3672    188.1806   8.6567107545e+01   1.7567902305e+01    0.2696366    0.2380805  44.32 0.0003812856    1.095    0.087
       322 -10.3111    129.3308    185.0936   8.5300092215e+01   1.7746661819e+01    0.5185403    0.2536947 -46.76  0.001905866    2.120    0.528
       323 -10.1962    115.3103    191.9929   8.9899795950e+01   1.8588882631e+01    0.2609109    0.2306215 -16.77 0.0004672389    1.318    0.241
       324  -9.4642    224.3100    173.9960   6.2375438672e+01   2.9503976514e+00    0.4338385    0.1389716 -34.43  0.001331232    3.402    0.706
       325  -9.4023    226.4736    178.0161   6.2785602568e+01   1.8809714283e+00     0.233752    0.1657701   3.54 0.0007820881    1.604    0.377
       326  -9.4633    224.1606    181.8213   6.3973023806e+01   1.5878453312e+00    0.2967205    0.1728989 -32.59 0.0009839672    1.587    0.370
       327 -11.1264    222.8126    187.4999   6.5345367937e+01   8.1173414122e-01    0.6829926    0.2833231 -34.94  0.002627963    2.328    0.570
       328 -11.4150    218.8590    183.6126   6.5327843019e+01   2.1371475092e+00    0.7226334    0.3389098 -40.07  0.003200239    1.990    0.497
       329  -8.8006    210.4833    192.1103   6.8617859667e+01   1.9981463717e+00    0.1951063    0.1253829 -35.87 0.0003576934    1.473    0.321
       330  -9.8019    215.6732    190.4167   6.7276514004e+01   1.4514687179e+00    0.2135195    0.1839462 -12.08 0.0005923304    1.016    0.016
       331  -8.2828    232.4097    190.2900   6.4113284316e+01  -1.1664991795e+00    0.1406285   0.09146594  -0.35 0.0002359867    1.821    0.451
       332 -10.6617    210.2356    180.6209   6.6399074802e+01   4.1237119898e+00    0.4693419    0.2945656 -48.52  0.002278908    1.734    0.423
       333  -9.2515    206.4759    185.0430   6.8026173441e+01   3.9500137242e+00     0.314544    0.1710378 -24.98  0.001007329    2.190    0.543
       334  -9.0417    205.5451    188.9610   6.8984388215e+01   3.3881948834e+00    0.2183797    0.1752161  -2.83 0.0003799562    1.228    0.186
       335  -9.4849    202.4742    187.5428   6.9323771877e+01   4.1695818822e+00    0.2465199    0.1985834  59.74 0.0008575366    1.689    0.408
       336  -8.7339    237.3651    187.3352   6.2650149192e+01  -1.4266274524e+00    0.2044506    0.1359028  -4.75 0.0008996746    1.694    0.410
       337  -8.7458    210.6032    187.2383   6.7642651139e+01   2.8540132421e+00    0.1790778     0.120165 -28.39  0.000225292    1.431    0.301
       338 -10.8599    120.3173    186.1184   8.7686881923e+01   1.9082764409e+01     0.334628    0.2584977  40.40  0.001196541    1.252    0.201
       339 -13.5022     19.1295    155.4693   1.0947583584e+02   4.0020364486e+01     2.460226     1.188403 -31.03    0.0101546    3.550    0.718
       340  -8.5432    243.4822    186.0339   6.1323742728e+01  -2.1275873407e+00    0.1975236   0.09641538 -20.77 0.0008099751    2.696    0.629
       341 -10.2937     85.9492    185.3140   9.6112339228e+01   2.4819010636e+01    0.2377543    0.2024406 -53.29  0.000303744    1.230    0.187
       342 -10.7732     89.7108    181.0813   9.4522373172e+01   2.5266811067e+01    0.2714571    0.2443231  -3.94 0.0003252296    1.340    0.254
       343  -8.6449    229.4940    185.0492   6.3624863653e+01   1.7472630037e-01     0.200014    0.1178103 -34.66  0.001007548    1.531    0.347
       344  -9.9603    134.6225    181.8581   8.3421411100e+01   1.7535439819e+01     0.268098    0.2309892 -31.20 0.0005040145    1.239    0.193
       345  -9.5185    199.0170    180.7213   6.8669315917e+01   6.0503997285e+00    0.2816853    0.1861967 -37.85 0.0008791392    1.449    0.310
       346  -8.8076    235.5906    179.9500   6.1520492422e+01   9.0354956859e-02    0.1847257    0.1002155 -19.21 0.0003698342    2.315    0.568
       347 -10.0824    205.2751    167.1728   6.4620847973e+01   7.5236784888e+00    0.3659314    0.2187197 -33.55  0.001313733    1.623    0.384
       348  -9.0491    205.3752    176.2578   6.6478898340e+01   5.7783305498e+00     0.237304    0.1636404  23.80 0.0005778112    1.562    0.360
       349 -10.6388    202.5450    173.4109   6.6463505931e+01   6.8202984015e+00    0.5180388    0.3436002  26.44  0.002522063    1.635    0.389
       350  -9.5414    124.9323    170.5199   8.3687253995e+01   2.1892235452e+01    0.2637027    0.2130817 -58.23 0.0003857095    1.265    0.209
       351  -9.2776    123.9949    166.4819   8.3141903506e+01   2.3012538654e+01    0.2206344    0.1990985 -50.90  0.000321329    1.110    0.099
       352 -10.5000    122.0601    178.8880   8.5973805071e+01   2.0449334887e+01    0.4139622    0.3239913   3.64 0.0006114922    1.627    0.385
       353  -9.9407    124.4165    174.8286   8.4634940353e+01   2.0977123782e+01     0.311005    0.2441988 -17.78 0.0005629241    1.589    0.371
       354  -9.8787    230.6150    176.1503   6.1656510728e+01   1.5360336638e+00     0.417553    0.2103557 -50.21  0.001803722    2.407    0.585
       355  -9.5212    218.5828    177.6136   6.4180635559e+01   3.2584007394e+00    0.3344432     0.207668  10.40 0.0008913227    2.215    0.549
       356  -9.3169    129.8999    177.6924   8.3803954964e+01   1.9332191654e+01    0.2357392     0.196292 -36.34 0.0003967175    1.273    0.214
       357  -9.1433    134.8469    176.6074   8.2378673379e+01   1.8684859732e+01    0.2314425    0.1968488 -34.86 0.0004741838    1.234    0.190
       358  -9.7889    117.7230    175.4112   8.6431851575e+01   2.2022039280e+01    0.2513482    0.2355828 -29.25 0.0002845469    1.137    0.120
       359 -10.8126    119.0115    169.5947   8.5020415998e+01   2.3170586313e+01    0.3646328    0.2877433 -70.75  0.000593784    1.386    0.279
       360  -8.6862    109.8276    177.4001   8.8792281500e+01   2.2907389438e+01    0.2003628    0.1812631  29.66 0.0001960027    1.146    0.128
       361  -9.6094    113.0920    174.6675   8.7474776415e+01   2.3000234631e+01    0.2358097    0.2295106  77.86 0.0004048545    1.008    0.008
       362 -10.2285    112.1741    169.7244   8.6807230843e+01   2.4338277283e+01    0.4962621     0.242413 -55.83  0.001963367    2.056    0.514
       363  -9.5345    115.4672    166.0303   8.5256154539e+01   2.4648283720e+01    0.2381111    0.2084847  13.63 0.0003998818    1.272    0.214
       364  -8.8169     94.5314    176.9545   9.2631557032e+01   2.5514252120e+01    0.2140189    0.1980178 -16.04 0.0003711627    1.250    0.200
       365  -9.2859    103.0120    177.2472   9.0504542173e+01   2.4078854832e+01    0.2447732    0.2094649  51.20 0.0003139042    1.151    0.131
       366 -10.0402     98.7817    175.1323   9.1232708032e+01   2.5276536953e+01    0.3147126    0.2223585  41.60  0.001507446    1.398    0.285
       367  -8.3165    209.6845    174.2716   6.5219762859e+01   5.3963421944e+00    0.1274545    0.1140239 -88.39 0.0002232663    1.558    0.358
       368 -10.4888    107.1175    172.0227   8.8535288398e+01   2.4650230579e+01    0.3079689    0.2462838 -47.80 0.0003971173    1.278    0.217
       369  -9.4886     56.8572    174.0673   1.0191896584e+02   3.1538801887e+01    0.2004846    0.1788739 -80.81 0.0003768973    1.039    0.037
       370 -10.1508    129.6355    172.9942   8.2978695188e+01   2.0463475477e+01    0.2640648    0.2165202  34.27 0.0002023356    1.218    0.179
       371  -8.1780    241.7108    172.6801   5.9008478368e+01   3.7108951062e-01    0.1345198   0.09218387 -10.25 0.0007007176    1.600    0.375
       372  -9.0514    233.5009    172.0603   6.0317727929e+01   1.7828172180e+00     0.195878     0.118316 -35.99 0.0003495051    1.466    0.318
       373  -8.9437    218.8186    172.1699   6.3030411598e+01   4.2062158896e+00    0.1909433    0.1482193  -8.53  0.000386811    1.322    0.243
       374 -10.2361    142.9861    169.8536   7.9057620177e+01   1.8711443644e+01    0.2979357    0.2531505 -11.79  0.001508636    1.326    0.246
       375  -9.3376    138.1565    169.8358   8.0241102227e+01   1.9620653184e+01    0.3228614    0.2442065 -10.59  0.001454855    1.727    0.421
       376  -9.1714    134.9633    166.8841   8.0443989510e+01   2.0895875497e+01    0.2205781    0.2133049 -12.38 0.0003108851    1.053    0.050
       377  -9.3864    133.8646    170.8612   8.1508939888e+01   2.0181775195e+01    0.2205638    0.1973611 -16.56 0.0004143194    1.214    0.176
       378 -10.1023     95.6629    170.7319   9.1293967270e+01   2.6846827357e+01    0.2502741    0.2411144 -51.62  0.000567116    1.088    0.081
       379  -8.8629    230.4857    170.4601   6.0532592219e+01   2.5555400171e+00    0.1381554    0.1168367 -16.75 0.0008086307    1.051    0.049
       380 -10.5415    101.3959    169.3898   8.9555959884e+01   2.6242051449e+01    0.2635277    0.2468072 -27.20 0.0006563679    1.171    0.146
       381 -10.6461    229.3446    165.5891   5.9742972937e+01   3.6096541577e+00    0.4756793    0.2558488 -22.50  0.001591825    2.310    0.567
       382  -9.3920    234.1093    162.1221   5.8188151389e+01   3.4277744810e+00    0.2411449    0.1667413 -16.85 0.0004958425    1.542    0.352
       383 -10.5460    151.9955    167.2058   7.6336285164e+01   1.7594674903e+01    0.5401559    0.2183285 -48.18  0.001549204    2.481    0.597
       384  -8.3031    212.5748    168.4305   6.3452571928e+01   5.9809234836e+00     0.141798    0.1245372 -15.58 0.0001233299    1.039    0.037
       385  -9.6519    147.9901    167.0267   7.7264197382e+01   1.8400537764e+01    0.2250698    0.2119648  -6.77            0    1.079    0.073
       386 -10.4185    128.9988    166.1208   8.1794472489e+01   2.2181184976e+01    0.2625902    0.2252876 -43.62 0.0003019975    1.178    0.151
       387  -8.5623    128.7492    162.2857   8.1086163856e+01   2.3127484104e+01    0.2074377    0.1785208 -16.14   0.00103764    1.316    0.240
       388  -9.8477    106.9007    166.2511   8.7539508291e+01   2.6081383011e+01    0.2512907    0.2075779 -47.13 0.0002435764    1.229    0.186
       389  -8.4215    217.3166    166.2860   6.2101024615e+01   5.5465272351e+00    0.1410121    0.1030397  -3.57 0.0003202958    1.587    0.370
       390  -9.7702    164.9891    166.3526   7.3103285284e+01   1.5282120871e+01    0.2722791     0.212112 -32.50    0.0003472    1.306    0.234
       391  -9.5011    246.9370    166.9240   5.6977692557e+01   5.3129406886e-01    0.3546525    0.2305733  41.75  0.001114917    1.786    0.440
       392 -10.0907    146.7187    162.0917   7.6546254694e+01   1.9757859871e+01    0.2647586    0.2373498  23.84 0.0003230471    1.136    0.120
       393 -10.0130    119.6901    162.9968   8.3566722679e+01   2.4620208114e+01    0.2556787    0.2206258  32.96 0.0001837663    1.182    0.154
       394  -9.9536    111.2538    162.5005   8.5681711508e+01   2.6239134657e+01     0.259502    0.2353558 -30.11  0.000367886    1.183    0.155
       395  -9.9113    204.3387    179.8684   6.7418756515e+01   5.2802236243e+00    0.2552784    0.2083355 -35.36 0.0005967501    1.179    0.152
       396  -9.3281    132.8611    161.8577   7.9951086354e+01   2.2457993688e+01    0.2183859    0.2000489 -15.83 0.0003107302    1.163    0.140
       397  -8.9663    107.0152    161.7013   8.6652357816e+01   2.7167975788e+01    0.1994613    0.1912176  40.77 0.0003149682    1.065    0.061
       398  -9.6746    124.4421    160.2657   8.1784477142e+01   2.4403188128e+01    0.2435774    0.2272366  13.68 0.0003344615    1.130    0.115
       399  -9.0724    213.0114    159.6934   6.1534444212e+01   7.5457729887e+00    0.3051977    0.1847081 -63.75  0.001203748    2.887    0.654
       400 -10.8574     79.5412    157.6616   9.3376307488e+01   3.2564349204e+01    0.2941937    0.2531126 -36.48 0.0005634307    1.275    0.216
       401  -9.3992     75.5685    155.5202   9.4107481784e+01   3.3677489193e+01    0.2557426    0.2077988 -42.42  0.000425762    1.301    0.231
       402  -9.1202    119.5755    158.4631   8.2688394472e+01   2.5726010925e+01    0.2282522    0.1959419  20.07 5.876641e-05    1.268    0.211
       403  -9.5056    122.2315    155.7898   8.1441569605e+01   2.5878170154e+01    0.2377167    0.2169927 -23.31 0.0004220358    1.167    0.143
       404 -10.4132    122.9262    148.8795   7.9793980062e+01   2.7400286047e+01     0.281232     0.242311 -22.87 0.0003531856    1.277    0.217
       405 -10.2516    111.4327    152.7486   8.3693295337e+01   2.8575900118e+01    0.3407304    0.2728754  15.33   0.00088057    1.464    0.317
       406 -10.3402    114.3072    157.1338   8.3813262301e+01   2.6997969815e+01    0.2790955    0.2564871 -24.54 0.0004693208    1.166    0.142
       407 -10.3947    116.9686    152.0235   8.2052983867e+01   2.7751432562e+01     0.548264    0.3556305 -17.33  0.001687144    2.532    0.605
       408  -9.6782    108.8063    157.2321   8.5304347563e+01   2.7947176149e+01    0.2641459    0.2416934 -19.39 0.0003434279    1.200    0.166
       409  -9.9306    106.8996    150.5242   8.4471487513e+01   2.9920775579e+01    0.2646424    0.2246827 -37.98 0.0003229402    1.223    0.182
       410  -9.5583    104.7001    157.9061   8.6542151539e+01   2.8492397085e+01    0.2809721    0.2647841 -78.69 0.0003903364    1.053    0.050
       411 -10.3844     99.9535    156.9434   8.7643122283e+01   2.9532014477e+01    0.2997839    0.2451953 -41.06 0.0003740196    1.276    0.216
       412 -10.3245    103.0741    153.5341   8.6126336764e+01   2.9844142570e+01     0.322058    0.2581301 -45.55 0.0004642121    1.252    0.201
       413 -10.6020     91.0538    157.0329   9.0094180595e+01   3.0960788766e+01    0.3372616    0.2906761 -60.80 0.0004463568    1.117    0.105
       414 -10.1068     95.8406    153.9623   8.8198198614e+01   3.0950590198e+01    0.2781489    0.2543477   5.03 0.0003091127    1.230    0.187
       415  -9.8993     97.8987    150.0299   8.6858642917e+01   3.1584272478e+01    0.2363464    0.2258947 -57.53 0.0003340907    1.026    0.025
       416  -9.1036    237.8137    156.2774   5.6347040915e+01   3.8395227580e+00    0.2261452    0.1647309 -28.78 0.0007789066    1.223    0.182
       417 -10.6891    227.8079    154.9769   5.7811699763e+01   5.7837418842e+00    0.3817628    0.2125237 -29.28  0.001286191    1.821    0.451
       418  -9.4186    217.6069    155.0086   5.9671182876e+01   7.5939062604e+00    0.2072616    0.1933705 -64.28 0.0006494102    1.267    0.211
       419 -10.2660     84.6264    153.9679   9.1310305344e+01   3.2727080010e+01    0.2456648    0.2280488  40.85 0.0003395631    1.129    0.114
       420 -10.4815     84.9205    148.5125   9.0212299084e+01   3.4048066832e+01    0.3258536    0.2489745 -46.34 0.0006086746    1.305    0.234
       421  -9.8977    208.5417    152.1882   6.0781438450e+01   9.8026319959e+00    0.3262382    0.2350422 -71.31  0.001208641    2.126    0.530
       422 -11.1345    214.4704    146.7655   5.8476733527e+01   9.7254810520e+00    0.3913446    0.3475359 -15.23   0.00134758    1.100    0.091
       423  -9.3025    223.8546    149.9822   5.7457841033e+01   7.3985496777e+00    0.2100019    0.1717982 -12.47  0.000298268    1.257    0.204
       424  -9.4637    127.0997    155.6160   8.0132715403e+01   2.5011007502e+01    0.2927096    0.2208391 -51.70 0.0004018159    1.317    0.241
       425 -10.2626    111.4284    146.7066   8.2432549845e+01   3.0047219604e+01    0.3044454    0.2646105 -54.32 0.0003230299    1.126    0.112
       426  -9.2169    113.2665    143.0078   8.1130093141e+01   3.0610861190e+01     0.215374    0.1899757 -46.53 0.0003192155    1.113    0.101
       427  -9.3102    233.4723    147.0000   5.5147231006e+01   6.2316356858e+00     0.279756    0.0794915  45.79 0.0009417585    3.992    0.749
       428  -9.5445    226.8019    146.1906   5.6125430390e+01   7.5637166216e+00      0.19135     0.150879 -13.41 0.0003830145    1.349    0.259
       429  -8.8903    206.3011    145.7167   5.9795675634e+01   1.1480840086e+01    0.1993518    0.1624597 -11.72 0.0001854774    1.324    0.245
       430  -9.7383    208.6889    142.9325   5.8721386427e+01   1.1558986071e+01    0.2533488    0.2107708  29.92 0.0003972203    1.299    0.230
       431  -9.7505     98.7856    145.3375   8.5660468438e+01   3.2596288387e+01    0.2585829    0.2182259 -39.45 0.0003180506    1.216    0.178
       432 -10.0316    221.8918    144.8315   5.6702160978e+01   8.7085871212e+00    0.2877551    0.1672141 -45.62  0.001338458    1.627    0.385
       433  -8.5080    247.7896    143.0215   5.1981920100e+01   4.4802415999e+00    0.1812667   0.09266603 -39.21 0.0003035333    1.658    0.397
       434  -9.5835    195.3535    142.8770   6.1326995086e+01   1.4189239378e+01    0.3037038    0.2082819  38.25  0.001140731    1.556    0.357
       435 -10.3785    230.5791    141.1556   5.4395935041e+01   7.7992321196e+00    0.3334933    0.2239362  14.00  0.001573261    2.158    0.537
       436  -9.8781    214.5777    141.0158   5.7195842866e+01   1.0795385505e+01    0.2105233    0.1903935  37.46  0.001200052    1.206    0.171
       437  -8.9910    246.2807    137.3511   5.1041919425e+01   5.7145399605e+00    0.1348097   0.09646851 -13.51 0.0004655902    1.650    0.394
       438  -9.6938     78.4867    136.5409   8.9743057917e+01   3.8022548243e+01    0.2617465    0.2274422 -37.43  0.001402819    1.182    0.154
       439  -9.2762    219.9491    136.3474   5.5196363567e+01   1.0650718336e+01    0.1836873    0.1755147  -4.94 0.0004072773    1.098    0.090
       440  -8.6698    242.3049    134.6687   5.1100801409e+01   6.8693616546e+00    0.1341978   0.09929307 -63.17 0.0007037412    1.658    0.397
       441 -10.8104     97.3338    131.9782   8.3209890340e+01   3.6134341751e+01    0.4204295    0.2663633 -53.29  0.001504625    1.514    0.339
       442 -13.3091    141.0004     90.6445   6.0352581286e+01   3.6647427199e+01     2.019853     1.068481 -35.26  0.008005032    2.020    0.505
       443 -10.4549    104.0420    130.0239   8.0815256736e+01   3.5433188017e+01    0.2784582    0.2605931 -71.12 0.0003381289    1.097    0.088
       444  -9.5391    102.1212    126.6181   8.0581177130e+01   3.6599603978e+01    0.2635053    0.2091161 -26.65 0.0001630793    1.400    0.286
       445  -9.5177     87.9036    130.6802   8.5709844536e+01   3.8022494570e+01    0.2340511    0.1930013 -41.50 0.0003199691    1.197    0.165
       446 -10.4254     96.7103    123.3313   8.1407157740e+01   3.8344601930e+01     0.275629    0.2498733 -23.58 0.0002931909    1.142    0.124
       447 -10.0976     86.7327    116.0972   8.2726939785e+01   4.1766990823e+01    0.5850247     0.239928  30.50  0.001698001    2.838    0.648
       448 -11.0692     89.9830    121.2500   8.2948356219e+01   3.9989617897e+01    0.9520768     0.377501  45.15  0.003270264    2.866    0.651
       449 -10.4590     97.3077    117.7840   7.9893376033e+01   3.9569576809e+01    0.2967859     0.258795   1.71 0.0004656286    1.268    0.211
       450 -10.2921     92.9360    115.1444   8.0575948683e+01   4.0956218012e+01     0.353685    0.2610514 -51.88 0.0004872558    1.303    0.233
       451 -10.1536     77.0042    123.0209   8.7352167032e+01   4.1602273186e+01    0.6268789    0.3181728 -28.59  0.002101978    3.419    0.708
       452  -9.8034     82.2285    122.7918   8.5682948522e+01   4.0862135080e+01    0.4209642    0.2779278 -50.98 0.0009564968    1.412    0.292
       453 -10.7948     81.0869    130.0737   8.7627377662e+01   3.9242880997e+01    0.3158148    0.2505471 -46.44 0.0003950727    1.205    0.170
       454  -9.4963     81.7376    126.6448   8.6689558058e+01   3.9991261641e+01    0.2268745    0.2015799   3.35 0.0003627109    1.249    0.199
       455 -10.2814     92.8396    129.0609   8.3880663394e+01   3.7610385555e+01    0.2692701    0.2266181 -41.10 0.0003206531    1.169    0.145
       456 -10.0646    205.8273    134.9127   5.7467613577e+01   1.3670693573e+01    0.2445229    0.2219216  77.09 0.0007100487    1.294    0.227
       457 -10.2694    206.4887    129.0089   5.5998827489e+01   1.4678224229e+01    0.2012972    0.1962276  28.81 0.0003280626    1.106    0.096
       458  -9.3239     50.0381    128.5051   9.6844995578e+01   4.3766234494e+01    0.2559977    0.1667804 -47.86 0.0004248644    1.435    0.303
       459 -13.0894    124.9157     84.0468   6.2622677432e+01   4.1494454954e+01     1.698789     1.500215  34.82  0.008996664    1.126    0.112
       460 -10.4569    211.8826    126.8945   5.4525545405e+01   1.3998827951e+01    0.2176827    0.1857929 -17.69 0.0003708256    1.236    0.191
       461  -9.9298     87.1919    126.0278   8.4893945598e+01   3.9281986354e+01    0.2294649    0.2142721  20.12 0.0003630341    1.136    0.120
       462 -10.2618     33.5809    117.7850   1.0014145376e+02   4.8103428638e+01    0.3980145    0.2192794 -70.48 0.0003401198    1.700    0.412
       463  -9.0493     37.1686    114.8412   9.8458644455e+01   4.8492626687e+01    0.2076131    0.1725339 -52.42 0.0002902432    1.058    0.055
       464 -10.3479     37.7136    122.3178   9.9605659486e+01   4.6597859573e+01    0.3798073    0.2128088 -36.23  0.001772814    2.012    0.503
       465 -10.1743     39.2593    118.2700   9.8402640417e+01   4.7447735775e+01    0.2750078    0.2009475 -55.36 0.0004408698    1.180    0.152
       466  -9.2504    108.7963    247.7256   9.9005454318e+01   8.0408400263e+00    0.1894415    0.1642248 -42.24 0.0008962257    1.413    0.292
       467  -9.2014      2.9076    123.3355   1.1039730512e+02   4.8972546727e+01    0.1651859    0.1394173 -60.33 0.0004773729    1.116    0.104
       468 -13.9341    143.1802    135.1905   7.1403156102e+01   2.6597486774e+01       2.6219     1.974342 -54.31  0.008561797    1.364    0.267
       469 -13.2611    134.5192    148.6665   7.6712419961e+01   2.5224426095e+01      2.64587     1.223533 -61.23  0.008590003    3.086    0.676
       470  -9.7125     62.7660     95.6185   8.5544703572e+01   5.0168655139e+01    0.2335309     0.194102 -35.14 0.0003606372    1.110    0.099
       471  -9.9283     71.7876    105.0561   8.4844133960e+01   4.6706778706e+01    0.2580395    0.2399816 -20.30 0.0002780234    1.067    0.063
       472 -10.7406     65.4753    103.3794   8.6547468526e+01   4.7993325781e+01    0.4612726    0.3500743  76.09  0.001219619    1.847    0.459
       473 -10.4386     41.0996    104.3384   9.5096717938e+01   5.0655716473e+01    0.2895384    0.2252245 -52.41  0.001284783    1.108    0.098
       474 -10.8572     57.3920    100.7361   8.8671693785e+01   4.9674919477e+01    0.5139387    0.4485296   5.16  0.001515707    1.228    0.186
       475 -10.3113     74.7533    117.7342   8.6878170355e+01   4.3230257604e+01    0.2799772    0.2342513 -46.90  0.000359985    1.111    0.100
       476  -9.6213     64.8810    117.6869   9.0021251493e+01   4.4626517066e+01    0.4516086     0.235507 -37.74  0.001349819    2.163    0.538
       477  -9.7946     69.0942    116.4348   8.8392832727e+01   4.4357921674e+01    0.2753486    0.2222002 -40.48 0.0003690746    1.187    0.158
       478  -9.1419     72.7971    114.1319   8.6679207650e+01   4.4390862025e+01    0.2201098     0.164277 -24.56 0.0003084003    1.514    0.340
       479 -10.0997     62.0979    112.8843   8.9875591948e+01   4.6166156719e+01    0.2895052    0.2276704 -36.46  0.000462309    1.248    0.199
       480 -10.4471     44.4287    107.8676   9.4691940855e+01   4.9463566159e+01    0.3179598    0.2019443 -42.58 0.0004679575    1.467    0.319
       481 -10.4687     49.5324    105.1311   9.2376349800e+01   4.9565646687e+01    0.3720023     0.259722  16.22 0.0008509116    1.643    0.391
       482 -10.6194     69.6763    110.3286   8.6807948451e+01   4.5754733334e+01    0.4466722    0.3111369 -74.16  0.001166765    1.737    0.424
       483  -9.9249     65.4865    109.4763   8.7988705033e+01   4.6539709958e+01    0.2550105    0.2290607 -76.00 0.0005283215    1.202    0.168
       484  -9.0351     48.6501    115.0194   9.4736687926e+01   4.7265542017e+01    0.1960941    0.1567298 -56.06 0.0003548939    1.102    0.093
       485  -8.6798     48.5505    111.5676   9.4071320686e+01   4.8120243736e+01    0.1990132    0.1631869  74.88 0.0001410836    1.465    0.317
       486  -9.6225     52.9915    116.3014   9.3577535932e+01   4.6455891964e+01    0.2303136    0.1826537 -56.91 0.0003725932    1.125    0.111
       487  -9.3684     52.2961    112.6936   9.3062995060e+01   4.7420240741e+01    0.2529252    0.1873286 -57.46 0.0007808097    1.207    0.171
       488 -10.2542     17.0158    117.0606   1.0529013025e+02   4.9607789968e+01    0.1926733    0.1595953 -62.29 0.0003534663    1.020    0.019
       489  -8.3993     99.4118    248.4698   1.0101392669e+02   9.2623878613e+00    0.1221798    0.1062937  48.04 0.0002083386    1.058    0.055
       490 -10.2954     28.5159    114.5595   1.0122440363e+02   4.9335544265e+01    0.2488376    0.1945217 -48.19 0.0002428606    1.157    0.136
       491  -9.5777     32.6825    112.1404   9.9440627461e+01   4.9565771775e+01    0.2326505    0.1879472 -33.30 0.0004187477    1.262    0.208
       492  -8.9564      1.4667    115.0298   1.0983825760e+02   5.1040697541e+01    0.1843003   0.09859891 -70.05 0.0003426266    1.470    0.320
       493 -10.3507     43.2358    113.2347   9.6164631342e+01   4.8283238622e+01     0.245767    0.2067382 -43.77 0.0002855424    1.107    0.097
       494  -9.6546     77.9632    113.0986   8.4778497652e+01   4.3871722747e+01    0.2182836    0.1968567 -34.37 0.0003458034    1.070    0.066
       495 -12.5580     42.1292    131.8018   9.9829671689e+01   4.3794431312e+01     1.779109    0.7968924 -39.90  0.007101852    2.681    0.627
       496 -10.5476     14.1787    112.1745   1.0546938911e+02   5.0982573519e+01    0.3146218     0.158369 -59.44  0.001137389    1.556    0.357
       497 -10.0234     24.5078    105.5114   1.0098382869e+02   5.1849445115e+01    0.3834624    0.2291851  50.97  0.001320928    2.156    0.536
       498  -9.2186     22.8726    101.1759   1.0076288334e+02   5.3009427156e+01    0.4991566    0.2138679 -17.36  0.001756988    4.485    0.777
       499  -9.8144     18.0696    108.7056   1.0367006376e+02   5.1555287401e+01    0.2577869     0.173805  21.33  0.001103618    1.755    0.430
       500 -10.5834     24.7553    110.3642   1.0174279259e+02   5.0660467911e+01    0.3006699    0.2293389 -10.67 0.0002362194    1.543    0.352
       501 -11.2438    211.3806    111.4500   5.1064927973e+01   1.6989455523e+01    0.3258709    0.2460466  30.33  0.001651432    1.629    0.386
       502  -9.5287     81.9239    111.9631   8.3241082588e+01   4.3528737999e+01    0.2161049    0.2016308 -38.20 0.0002820216    1.011    0.010
       503 -10.1340     56.6361    111.8767   9.1454604306e+01   4.7101136720e+01    0.2398709    0.2242198 -32.78  0.000287724    1.074    0.069
       504  -9.6642     54.2220    107.5216   9.1310103086e+01   4.8446721317e+01    0.2533045    0.2070009 -39.05 0.0003320719    1.146    0.128
       505  -9.7522     89.9791    110.3279   8.0291852507e+01   4.2597755490e+01    0.3206486    0.2419431 -17.54 0.0009542472    1.581    0.368
       506  -8.9318     90.7388    106.7077   7.9128005107e+01   4.3313406273e+01    0.2354963    0.1922268 -25.38 0.0001889235    1.283    0.220
       507  -9.7620     38.8905    110.3408   9.7045807869e+01   4.9425208729e+01    0.2458655    0.1833929 -53.62 0.0004023561    1.151    0.131
       508  -9.1388     35.5658    108.4587   9.7798429440e+01   5.0197851117e+01    0.1973563    0.1817354 -53.10 7.504111e-05    1.071    0.066
       509  -9.0343     74.4019    110.1343   8.5219401411e+01   4.5117145763e+01    0.2044161    0.1740316 -52.11 0.0004600277    1.105    0.095
       510 -11.2894     96.3773    106.8879   7.7416875887e+01   4.2285948516e+01    0.5615152    0.3343902 -22.93   0.00213263    2.522    0.603
       511 -10.0982    100.2349    100.0911   7.4404919212e+01   4.3122716016e+01    0.4112501    0.2863063  27.71 0.0008608695    1.565    0.361
       512  -9.0475     21.5617    107.5757   1.0232867458e+02   5.1576536114e+01     0.200734     0.151353 -71.47  2.96317e-05    1.206    0.171
       513 -10.2597     59.9126    107.0866   8.9296592123e+01   4.7847472025e+01    0.2650577    0.2325858  -1.65 0.0003567004    1.229    0.186
       514 -10.5894    249.8977    106.1197   4.3972670816e+01   1.0403365715e+01    0.2567846     0.192355 -56.08  0.001021275    1.272    0.214
       515 -10.8252    109.6962    226.3205   9.6214209321e+01   1.2065584818e+01    0.3432739     0.239119 -41.34 0.0005782929    1.749    0.428
       516 -11.5863    116.7806    120.2618   7.4816688937e+01   3.5363986749e+01    0.6383452    0.4809476  10.08 0.0003596091    1.699    0.412
       517 -11.0148     85.0463    105.0776   8.0516554081e+01   4.4646679734e+01    0.3404792    0.2956865 -66.29 0.0006013456    1.247    0.198
       518 -10.1841     85.9786     98.8157   7.8563757790e+01   4.5927707813e+01    0.3418429    0.2365256 -26.05 0.0007160357    1.640    0.390
       519  -9.3687     88.4328     94.1260   7.6479508049e+01   4.6558415958e+01    0.2288038     0.195729   9.43 0.0003970703    1.229    0.186
       520 -10.7431     77.5713    105.1950   8.2971529236e+01   4.5808207856e+01    0.3032955    0.2314393 -31.23 0.0003752635    1.337    0.252
       521  -8.9065     80.8684     99.0730   8.0304253958e+01   4.6706794248e+01    0.2005577    0.1916615 -66.08            0    1.144    0.126
       522  -9.8334     74.0118    100.9743   8.3077298028e+01   4.7332763175e+01    0.2470491    0.2063762   6.33 0.0003177768    1.298    0.229
       523  -8.6391     77.6334    100.2518   8.1684477208e+01   4.6947086865e+01    0.2139532    0.1783923 -45.97 0.0004288408    1.126    0.112
       524  -8.6619      4.5459    106.5570   1.0775993992e+02   5.2895615984e+01    0.1259013   0.09966344 -62.10 0.0001001373    1.013    0.013
       525 -10.4344     92.5501    101.9095   7.7292702841e+01   4.4100387008e+01    0.4699498    0.3445885  61.58  0.001374728    1.774    0.436
       526  -8.2995      1.2685    103.6484   1.0842014461e+02   5.3748812823e+01    0.1203601   0.08391741  78.73 0.0006991581    1.626    0.385
       527  -8.8280     32.0018     96.0313   9.6553335509e+01   5.3483523017e+01    0.1832113    0.1687328 -73.64 0.0003341553    1.180    0.153
       528  -9.6774     36.1473    102.1486   9.6355708200e+01   5.1660169076e+01    0.2229207    0.1852933 -11.89 0.0004751422    1.314    0.239
       529  -8.7723     34.6951     98.7339   9.6161003093e+01   5.2605446792e+01    0.1977595    0.1494583 -56.97 0.0002083138    1.146    0.128
       530 -13.0279    134.9125    124.4639   7.0926379271e+01   3.0743225951e+01     1.468354     1.217735  23.86  0.007154977    1.317    0.241
       531  -8.9300     46.3607    100.9205   9.2541974658e+01   5.0920517520e+01    0.1924582    0.1517394 -49.01 0.0003970111    1.106    0.096
       532  -8.8585     30.3643    100.0822   9.7953889465e+01   5.2669009300e+01    0.1839531    0.1426033 -57.01 0.0003910954    1.100    0.091
       533 -10.0962     74.8782     94.4141   8.1060099470e+01   4.8701703934e+01    0.2800056    0.2204843 -10.47  0.000491394    1.407    0.289
       534  -9.5067     67.1971     98.3118   8.4701644659e+01   4.8938598055e+01    0.2347059    0.1903737 -28.32 0.0005183171    1.214    0.177
       535  -8.8534     71.2843     97.4009   8.3072950227e+01   4.8561290188e+01    0.1887641    0.1770914  19.23 0.0003589315    1.130    0.115
       536  -8.8856     17.4792     98.0547   1.0207037545e+02   5.4132122881e+01    0.1920788    0.1062557 -63.29 0.0005557889    1.487    0.328
       537  -9.9620     13.8155     97.3786   1.0322637531e+02   5.4529512684e+01    0.3795331    0.1952174 -29.49  0.001871681    2.193    0.544
       538  -8.9333     18.4486     93.8099   1.0095387757e+02   5.5061175257e+01    0.1805105    0.1432977 -60.14  0.000360242    1.084    0.077
       539  -9.2257     15.1733     93.3670   1.0203973657e+02   5.5381486521e+01    0.2379294    0.2014788  56.44 0.0003713783    1.459    0.315
       540 -10.1233     50.6706     97.3472   9.0212639784e+01   5.1279150622e+01     0.237887    0.1968008 -37.29  0.000311228    1.101    0.092
       541  -9.6520     39.9366     97.2991   9.4000598490e+01   5.2443567238e+01    0.2383677    0.1652618 -50.03 0.0002994257    1.232    0.188
       542  -8.7937     41.3376     93.7505   9.2703349483e+01   5.3132068336e+01    0.2015846    0.1485329 -51.10 0.0003542656    1.172    0.147
       543  -9.8090      8.5589     98.5065   1.0522419254e+02   5.4576725418e+01    0.1839251    0.1084902 -79.17 9.764408e-05    1.675    0.403
       544  -9.9328    249.6172     97.2221   4.2142819355e+01   1.1924767789e+01    0.1922141    0.1117198 -32.03 0.0009549365    1.725    0.420
       545 -12.2981    242.3066     94.7910   4.2593121926e+01   1.3704175734e+01    0.6771468    0.2817665 -33.46  0.002762498    2.500    0.600
       546 -11.2480    239.4985     83.5318   4.0539227966e+01   1.6086980564e+01    0.2579006    0.1943847 -66.33  0.001487166    1.316    0.240
       547  -9.7243     45.5829     96.4310   9.1799864609e+01   5.2061963091e+01    0.2298432     0.189932 -41.62 0.0002570401    1.068    0.063
       548  -8.7589     22.5610     96.5849   1.0001751887e+02   5.4117784134e+01    0.1773931    0.1682636   1.01 5.213415e-05    1.222    0.182
       549  -9.5308     27.6112     94.7459   9.7858643858e+01   5.4156048997e+01    0.2552676    0.1572329  11.40   0.00115704    1.920    0.479
       550 -10.2955    228.0912     95.3371   4.4709735632e+01   1.6417489800e+01    0.2348847    0.1776089 -33.32  0.000521159    1.309    0.236
       551  -8.6936    100.7563     89.9601   7.1382083375e+01   4.5223785311e+01    0.2244544    0.1906781 -12.86 0.0003273369    1.239    0.193
       552  -8.8670     94.7091     91.2830   7.3659164537e+01   4.6065896925e+01    0.2388375     0.179167  30.65 0.0002094833    1.375    0.273
       553  -9.6396    105.0612     90.9484   7.0351524897e+01   4.4187419395e+01    0.4553447    0.2744718 -63.64  0.001782748    2.441    0.590
       554 -10.2893     94.3057     95.7567   7.5053723832e+01   4.5164865824e+01    0.3014741    0.2673942 -64.65 0.0006848302    1.257    0.204
       555 -10.6580    100.3490     94.0109   7.2671907851e+01   4.4434928184e+01    0.7620464     0.318579  46.99  0.002713188    2.679    0.627
       556  -9.7311      3.4412     95.4998   1.0650529778e+02   5.5548740881e+01    0.2001522    0.1366886 -73.19 9.044239e-05    1.290    0.225
       557  -9.1600      3.4934     92.0437   1.0594353387e+02   5.6346568702e+01    0.1834576   0.09890305 -65.75 0.0003265693    1.477    0.323
       558 -12.8160    107.0782    108.1810   7.4517296667e+01   4.0016233904e+01     2.558757     1.061507 -37.41   0.00842358    2.916    0.657
       559 -10.2525     80.9880     93.2441   7.8683990179e+01   4.8000157419e+01    0.2460652    0.1956142 -36.89 0.0003189582    1.190    0.160
       560  -8.5225     68.5736     94.2471   8.3173729512e+01   4.9674704491e+01    0.1918202    0.1230865 -40.67 0.0003456541    1.464    0.317
       561  -9.5562     55.5802     93.4757   8.7531539873e+01   5.1589026150e+01    0.2828841    0.2026934 -37.50  0.001404608    1.297    0.229
       562 -10.2707     60.5239     89.6282   8.4776452648e+01   5.1829917024e+01    0.4449646    0.2886731  51.43  0.001443916    2.047    0.511
       563 -12.2168    113.2087    113.6974   7.4166542565e+01   3.7576252546e+01     1.158233    0.6711937 -26.55  0.004297633    2.480    0.597
       564 -10.2869    249.1576     92.1160   4.1130086605e+01   1.2841574888e+01    0.1918411    0.1715681 -30.41 0.0005444658    1.221    0.181
       565  -9.6243     49.0551     91.5604   8.9395330039e+01   5.2804785282e+01    0.2430363    0.1693524 -43.93 0.0003625332    1.263    0.208
       566 -10.0288     35.2126     91.5356   9.4423320132e+01   5.4241547696e+01    0.2399651    0.2176371  -8.71 0.0008700362    1.177    0.150
       567  -9.6223    224.8121     91.1984   4.4259534886e+01   1.7790389526e+01    0.2488169    0.1384459 -70.19 0.0009670175    2.953    0.661
       568  -8.8344     66.4979     90.9754   8.3023369687e+01   5.0709152123e+01    0.2039461    0.1304738 -49.16 0.0003485825    1.443    0.307
       569  -8.8429     22.0275     91.2749   9.9174338818e+01   5.5396604042e+01    0.1694677     0.148478 -41.81 0.0003643246    1.080    0.074
       570  -9.2665     43.2059     89.7812   9.1091182169e+01   5.3853888648e+01    0.1852985    0.1703404 -45.31 0.0004285185    1.089    0.082
       571 -11.2257    199.1711     88.5096   4.7692475446e+01   2.3764028296e+01    0.4153586    0.2278672  41.47  0.001267485    2.231    0.552
       572  -9.6981     88.0847     88.2932   7.4932804356e+01   4.7886936270e+01    0.2426495    0.1972276 -39.17 0.0006608302    1.176    0.150
       573 -10.4167     71.4506     88.7700   8.0690784190e+01   5.0479198262e+01    0.2513186    0.2202298 -15.00 0.0004406716    1.112    0.101
       574  -9.4856     29.7039     89.4081   9.5973521191e+01   5.5221212261e+01    0.1593752     0.119749  -9.14 0.0003400001    1.462    0.316
       575  -8.2211     17.4584     89.5093   1.0049090360e+02   5.6125491506e+01    0.1295488    0.1042755 -50.69 0.0003134912    1.012    0.012
       576  -9.3146     12.0706     89.1389   1.0238240316e+02   5.6551781363e+01    0.1952429    0.1337045 -44.68 0.0003431894    1.236    0.191
       577 -10.4589    250.0185     87.4339   4.0041381382e+01   1.3432054465e+01    0.2504061    0.1711291 -27.82 0.0009869606    1.625    0.385
       578  -9.4837     83.1648     87.1218   7.6222499095e+01   4.8978742793e+01    0.4506073    0.2082882 -34.69  0.001105409    2.542    0.607
       579 -10.9073     94.8678     85.8218   7.2016098643e+01   4.7194358869e+01    0.4178415    0.2482949  37.88  0.001137017    1.713    0.416
       580  -8.6367     59.5423     83.5195   8.3472267099e+01   5.3314709632e+01    0.1405999    0.1235057 -29.06 0.0001189478    1.014    0.014
       581 -10.1556     65.0004     85.6529   8.2095477265e+01   5.2101311958e+01    0.4216841    0.3471957  66.50  0.001379907    1.649    0.394
       582  -8.6947     67.4493     82.5695   8.0346335561e+01   5.2420343764e+01    0.2058178    0.1532842 -20.25 0.0001244303    1.404    0.288
       583  -8.7483     46.9903     87.5204   8.9143205353e+01   5.3957619559e+01     0.183897    0.1333457  23.24 0.0004168336    1.503    0.335
       584  -8.6354     21.9448     86.7082   9.8271776023e+01   5.6453778931e+01    0.1677517    0.1456668 -38.82 0.0002862341    1.080    0.074
       585  -9.1836      5.9382     87.0726   1.0423910951e+02   5.7365508461e+01    0.1862078    0.1443017 -51.71 0.0003306099    1.039    0.038
       586  -9.3449     76.1443     86.0933   7.8309298685e+01   5.0342268127e+01    0.2109722    0.1931368 -18.13 0.0006374563    1.019    0.018
       587  -9.5213     35.3427     86.2301   9.3156904658e+01   5.5445225968e+01    0.2041094    0.1621625 -17.51 0.0005870427    1.280    0.219
       588  -9.5627    107.4371     85.0916   6.7914814755e+01   4.4931096143e+01    0.2291466    0.1988478  16.38 0.0004440257    1.188    0.158
       589  -9.3801     15.9646     85.0937   1.0017213124e+02   5.7235389151e+01    0.1895884     0.152326 -47.84 0.0003373944    1.021    0.020
       590 -10.9251    213.8253     84.4549   4.4351183671e+01   2.1247483162e+01    0.4106994    0.1163363  52.03  0.001374393    3.673    0.728
       591  -8.7717     80.1422     84.1368   7.6371854740e+01   5.0117498248e+01    0.1763674    0.1678896 -72.11 0.0002812648    1.235    0.190
       592  -8.9362     40.9271     83.8357   9.0476078347e+01   5.5436735051e+01     0.199458    0.1536839 -28.61 0.0003261945    1.218    0.179
       593  -9.0108     27.6412     84.0599   9.5555230792e+01   5.6613415773e+01    0.1815717    0.1593272 -14.46 0.0002819583    1.183    0.154
       594 -13.2727    133.9392    109.1096   6.7233293763e+01   3.4363390288e+01     1.790935     1.301706   9.95  0.007709727    1.912    0.477
       595 -11.4428    193.7924     77.8021   4.5952154396e+01   2.6818748584e+01     0.301117     0.263702 -87.13  0.001286189    1.150    0.131
       596 -11.4303    190.4023     76.8248   4.6282936417e+01   2.7758818183e+01    0.3251373    0.2565303   8.85  0.001164807    1.796    0.443
       597  -9.4601    102.8769     82.8009   6.8608403627e+01   4.6294796167e+01    0.2331495    0.1924408 -24.94 0.0003556971    1.225    0.184
       598  -8.9583    104.5122     78.9267   6.6929993153e+01   4.6743624711e+01     0.207351    0.1430668 -38.85 0.0003199159    1.440    0.306
       599  -9.4367     88.9951     82.4428   7.2906962157e+01   4.8958445716e+01     0.210887    0.1836911 -31.17 0.0001837156    1.096    0.088
       600 -10.3201     93.0329     78.3650   7.0349857490e+01   4.9056283694e+01    0.4769305     0.310553   0.02  0.001695742    2.340    0.573
       601  -8.6966     97.5954     81.4461   6.9838837757e+01   4.7583938743e+01    0.2158968    0.1684074 -13.11 9.605564e-05    1.429    0.300
       602  -9.3212     99.1002     78.1037   6.8342428415e+01   4.7963898489e+01    0.2351154    0.2001908 -31.31 0.0002780408    1.150    0.130
       603  -9.0115     71.4934     83.1925   7.9091373216e+01   5.1685649198e+01    0.2021996    0.1311827 -45.05 0.0005180336    1.440    0.306
       604  -9.6474    115.5596     81.5949   6.4491831085e+01   4.3966509734e+01    0.2462648    0.2329031  19.15  0.000540902    1.033    0.032
       605  -8.6736     56.4410     81.9411   8.4172572914e+01   5.4063921532e+01    0.1997001    0.1240167 -49.52  0.000302726    1.472    0.321
       606  -8.7573     51.7214     81.8979   8.5914538990e+01   5.4660684064e+01    0.1824379    0.1550803 -41.73 0.0002976496    1.073    0.068
       607  -8.6136     34.4115     82.2042   9.2544206203e+01   5.6439059312e+01    0.1669782    0.1170707 -63.96 0.0003583689    1.443    0.307
       608  -9.7954    109.7320     81.0302   6.6011331577e+01   4.5280476236e+01    0.2496295    0.2057504  28.90 0.0002045778    1.225    0.184
       609  -9.3273     15.2517     81.5241   9.9715285039e+01   5.8089104565e+01    0.3045655    0.1007122  25.74  0.001308372    3.273    0.694
       610  -9.1519      2.4827     80.8946   1.0442109971e+02   5.8932878407e+01     0.187256   0.09696352 -63.66 0.0006073851    1.533    0.348
       611 -11.1761    249.3051     78.9243   3.8350422647e+01   1.4908507919e+01    0.3277204    0.2824857   5.91  0.002032148    1.653    0.395
       612 -10.1222     61.5001    247.7037   1.0854352214e+02   1.4549252603e+01    0.2055771    0.1679684  58.86 0.0004343291    1.045    0.043
       613 -10.9508     94.9495     65.5513   6.5645477873e+01   5.1137273959e+01    0.7364422    0.4766317  16.89  0.001762177    1.979    0.495
       614 -10.0346    115.0363     59.3450   5.7649464149e+01   4.8090583825e+01    0.3471343    0.2161852 -26.17  0.001593316    1.799    0.444
       615 -11.5863    107.3928     51.4420   5.7149377648e+01   5.0988074660e+01    0.7781882    0.5671825 -72.76   0.00367477    2.219    0.549
       616 -10.4687     81.9710     78.2244   7.3975257240e+01   5.1043471230e+01    0.5522549     0.428472  44.99  0.001825728    1.425    0.298
       617  -9.8178     86.5191     68.4523   6.9348946191e+01   5.2170202749e+01    0.2360952    0.2115785  -0.42 0.0005447796    1.046    0.044
       618  -9.3966    107.2297     60.5655   6.0256183400e+01   4.9545948207e+01    0.3063585     0.189135  32.38  0.001398084    1.728    0.421
       619 -10.2362    104.7815     69.1712   6.3783969000e+01   4.8537132809e+01    0.3853528    0.2975864 -13.41   0.00132222    1.441    0.306
       620  -9.3205     90.0146     74.4965   7.0125951474e+01   5.0375210912e+01    0.3553024    0.2181783 -14.66 0.0003738882    2.398    0.583
       621 -10.6305     86.4819     72.5070   7.0666396614e+01   5.1399793752e+01    0.4543959     0.424078  50.98  0.002627838    1.243    0.195
       622  -9.8546    101.1828     66.2487   6.3929225181e+01   4.9789950465e+01    0.2890791    0.2842696  25.41 0.0007803445    1.119    0.107
       623 -10.1359    103.1330     62.7659   6.2194586626e+01   5.0012284249e+01    0.3584474    0.2880635 -39.49 0.0008843638    1.293    0.227
       624  -9.9186     75.2163     79.3161   7.6639034245e+01   5.1926660021e+01    0.2479789    0.2029994 -18.52 0.0009924639    1.202    0.168
       625  -9.1284     38.3129     79.9380   9.0483404889e+01   5.6567548305e+01    0.1970302    0.1753205  23.28 0.0003539135    1.281    0.220
       626  -8.5353     23.5595     79.9989   9.6194523491e+01   5.7849176388e+01    0.1866641    0.1067626 -57.03  6.99911e-05    1.469    0.319
       627  -9.3723     63.8299     78.9281   8.0596781380e+01   5.3716487461e+01    0.2282147    0.1645081 -34.78 0.0002850975    1.288    0.223
       628  -9.3635     65.7342     75.4361   7.8861662511e+01   5.4175025589e+01    0.2933037    0.1370724  24.41  0.001171876    2.586    0.613
       629  -8.7683     60.1688     79.5906   8.2132090102e+01   5.4080915643e+01    0.1923784    0.1360761  27.03 0.0003692298    1.487    0.327
       630  -8.6391     58.0010     76.9972   8.2186144483e+01   5.4922831418e+01    0.1892607    0.1806553 -51.43  0.000314356    1.208    0.172
       631  -9.0634     28.2556     78.8806   9.4112206657e+01   5.7722324816e+01    0.1766385    0.1562761 -51.43 0.0007025384    1.130    0.115
       632  -8.7446     69.5588     78.5109   7.8401109803e+01   5.2969334006e+01    0.1425954    0.1257549 -21.03  0.000113812    1.033    0.032
       633  -9.5891     43.7478     77.4035   8.7721177353e+01   5.6555846338e+01    0.2404692    0.1977464 -23.71 0.0007457291    1.119    0.106
       634  -8.2604     34.3473     78.2409   9.1584840972e+01   5.7324020866e+01    0.1322192    0.0862032 -24.49 0.0002928437    1.569    0.363
       635  -9.3906      7.7601     78.2917   1.0193002061e+02   5.9252157917e+01     0.174515    0.1090068 -42.34 0.0004975022    1.331    0.249
       636 -10.1051    114.4332     74.9119   6.2771555039e+01   4.5481200710e+01     0.526347    0.3703601  -9.71   0.00189033    1.877    0.467
       637 -12.1856    133.6106     52.4700   5.0746630805e+01   4.5000349166e+01    0.5341015    0.4992849  88.44  0.003043633    1.153    0.132
       638  -9.9751    112.8818     64.1573   5.9810176368e+01   4.7742724496e+01    0.2540928    0.2210229  13.31 0.0002996218    1.175    0.149
       639  -9.7501    108.0966     75.9326   6.4929727905e+01   4.6601616558e+01     0.253718     0.236281 -48.95 0.0007786861    1.159    0.137
       640 -10.1523    115.9951     68.6886   6.0384092658e+01   4.6284658913e+01    0.2839757    0.2383371   4.43 0.0003340173    1.303    0.233
       641 -10.2192    120.1154     63.8529   5.7724385582e+01   4.6230914416e+01    0.4370123    0.2984537  33.05  0.001261733    1.549    0.354
       642 -10.0131    110.2360     70.7639   6.2680395996e+01   4.7126495627e+01    0.4124309    0.3278998  -7.33  0.001182622    1.422    0.297
       643  -9.2040    109.0655     66.3434   6.1608335551e+01   4.8164828246e+01    0.2388277    0.1916849 -22.13 0.0003960192    1.296    0.228
       644 -11.3851    124.1327     58.1784   5.4864016221e+01   4.6275357968e+01    0.5315698    0.3537076  -7.15  0.002364302    2.126    0.530
       645 -14.5755    176.6651    171.4681   7.1534968929e+01   1.1973223964e+01     3.309491     2.709071 -69.65   0.01678024    1.554    0.356
       646  -8.7443     54.0719     77.1703   8.3712356762e+01   5.5393598124e+01    0.2034558    0.1579415 -23.52  0.000351977    1.225    0.184
       647  -8.5500     17.6236     77.2184   9.7877882164e+01   5.8894865582e+01    0.1787603   0.09037797 -51.04 0.0002847376    1.545    0.353
       648  -9.2350     48.5645     76.0600   8.5494858472e+01   5.6300432351e+01    0.1907822       0.1683 -16.42 0.0003603137    1.071    0.066
       649  -9.5338    102.5058     74.3161   6.6108241404e+01   4.8033201778e+01    0.2379818    0.2090021  12.41  0.000332644    1.138    0.121
       650  -9.9546     73.8353     73.1933   7.5248342335e+01   5.3398145068e+01    0.2313794    0.1968857 -24.71 0.0002683072    1.086    0.079
       651  -9.3278     10.3967     71.5190   9.9486872508e+01   6.0598443247e+01    0.1620349    0.1047089 -15.52 0.0006153755    1.637    0.389
       652  -9.3861    207.2896     73.3251   4.2702131107e+01   2.4516599289e+01    0.1313961    0.1109734  11.31 0.0003355361    1.612    0.380
       653 -10.0882     97.3329     71.7882   6.6913177708e+01   4.9524132779e+01    0.2718646     0.220962  14.43 0.0004509065    1.285    0.222
       654  -8.9105     63.9991     72.1030   7.8482459866e+01   5.5109915853e+01    0.1962444    0.1705953  85.56 0.0006029821    1.652    0.395
       655 -12.8519    123.3226    102.0405   6.8192110531e+01   3.8132652284e+01     1.505501     1.260669  -2.21  0.007428261    1.382    0.276
       656  -9.3815     79.4288     70.2838   7.2359841566e+01   5.3055679787e+01    0.2320035     0.187928 -14.32 0.0004896274    1.227    0.185
       657  -8.9784     50.3191     71.0406   8.3364111942e+01   5.7147921335e+01    0.1845789    0.1517141 -32.47 0.0004929047    1.062    0.059
       658  -8.2569     42.5573     71.5440   8.6558593190e+01   5.7937793318e+01    0.1329719    0.1131678 -30.75 0.0001165696    1.009    0.009
       659  -9.6780     36.9683     70.1920   8.8407608639e+01   5.8805758557e+01    0.2705401    0.1985571 -70.28  0.001202194    1.714    0.417
       660  -8.6870     23.4565     71.4919   9.4209008210e+01   5.9724998943e+01    0.1301186    0.1027514 -38.66 0.0001669304    1.038    0.037
       661 -10.6050     92.6656    227.9020   1.0013646778e+02   1.4288019801e+01    0.3803567    0.2655343  56.70   0.00107866    1.344    0.256
       662  -8.7138     70.5539     69.5642   7.5280151564e+01   5.4636447794e+01    0.3001668    0.1304833 -47.21  0.001222668    2.259    0.557
       663  -8.0410     55.2972     70.3083   8.1218109711e+01   5.6670532011e+01    0.1403091   0.09408202 -19.91 0.0002637057    1.592    0.372
       664 -10.4827    221.9401     69.0007   3.9617626179e+01   2.2005825988e+01    0.3212008    0.1335111  67.78  0.001270246    2.908    0.656
       665  -8.9597     74.0333     68.7121   7.3754525895e+01   5.4252010020e+01    0.1881249    0.1645967   2.77 0.0003448563    1.082    0.076
       666  -8.6077     58.5204     69.0959   7.9610946595e+01   5.6486811715e+01    0.1891958     0.122871 -43.28 0.0003134251    1.418    0.295
       667  -8.6568     64.5273     66.0424   7.6370346208e+01   5.6240057496e+01    0.1953714     0.124978 -41.22 0.0003649977    1.465    0.317
       668  -8.5414     44.5222     66.6029   8.4328993751e+01   5.8744125548e+01    0.1303483    0.1133159 -23.04 -6.484792e-05    1.035    0.034
       669  -9.1439     81.8248     65.3510   6.9922966825e+01   5.3583265198e+01    0.1900005    0.1610976  15.08 0.0003725244    1.137    0.121
       670  -8.7566     76.7582     64.8203   7.1513398493e+01   5.4548147180e+01    0.1677256     0.164279 -78.89 0.0002883987    1.286    0.223
       671  -9.0115     71.7968     64.8356   7.3295084106e+01   5.5355996141e+01    0.2007819    0.1661824 -11.04 0.0003287239    1.148    0.129
       672  -9.7971    250.0000     64.0360   3.5187714472e+01   1.7030289746e+01    0.2101133   0.06229812 -37.76 0.0008045751    2.957    0.662
       673 -11.3463     85.8586    222.7319   1.0102528806e+02   1.6353424544e+01    0.5622922    0.3184076 -34.35  0.001619576    3.163    0.684
       674  -9.3318     95.6614     58.8876   6.3192693712e+01   5.2170647956e+01    0.2745528    0.1831734  29.00 0.0003787244    1.552    0.355
       675 -10.3525     87.1382     62.9476   6.7323100971e+01   5.3073839713e+01    0.3478964    0.2667919 -54.95  0.001162077    1.597    0.374
       676  -9.8361     88.6912     58.9144   6.5443117751e+01   5.3500136641e+01    0.4100022    0.2592896  53.35  0.001934523    1.899    0.473
       677  -8.6422     24.3012     64.7131   9.2104030995e+01   6.1097577820e+01    0.1096279   0.09795365  73.51 0.0002177863    1.558    0.358
       678  -9.8103     91.8376    221.8660   9.9602848584e+01   1.5671967877e+01    0.2571455    0.2198342 -45.68 0.0003509826    1.387    0.279
       679  -8.8551     66.9416     62.3140   7.4243252369e+01   5.6592158793e+01    0.1844282    0.1562467   3.91 0.0003546894    1.111    0.100
       680  -8.4786     58.3552     62.5006   7.7568843282e+01   5.7810490154e+01    0.1351481    0.1134951 -22.54 0.0001666507    1.051    0.049
       681  -8.6088     41.3083     61.0446   8.3935225311e+01   6.0223485364e+01    0.1801604    0.1461169 -33.00 0.0006286161    1.071    0.066
       682 -11.8065    173.0054     57.2729   4.4182196991e+01   3.4962364926e+01    0.5021901    0.3361181 -11.02  0.001507326    2.223    0.550
       683 -10.2481    171.8861     49.9222   4.2379331883e+01   3.6307849185e+01    0.1993523    0.1842496  32.84            0    1.228    0.186
       684  -9.7636     79.9620     60.2396   6.8849544973e+01   5.4842286419e+01    0.4091597    0.1794262  35.47 0.0009737482    2.335    0.572
       685  -8.6311     62.1881     60.1724   7.5320486384e+01   5.7706614977e+01    0.1600837    0.1532674 -21.50 0.0002955823    1.211    0.174
       686 -10.3266     97.5761    218.4460   9.7898141122e+01   1.5548454998e+01    0.5310355    0.1926351  39.63  0.002131273    2.409    0.585
       687  -8.3059     49.3155     58.7551   7.9921676262e+01   5.9725565315e+01    0.1138644    0.1030939  54.34 0.0002653611    1.515    0.340
       688  -8.6883    104.8931     57.1811   5.9811513770e+01   5.0595438573e+01    0.1919804    0.1546211  18.44 0.0003498245    1.280    0.219
       689  -8.5203     57.3978     57.5533   7.6292328744e+01   5.8881259136e+01    0.1333785    0.1138674 -15.92 0.0001285796    1.017    0.016
       690  -9.6318    120.0518     55.3932   5.5020113271e+01   4.7626957438e+01    0.2789434    0.2048625  13.27 0.0009455523    1.677    0.404
       691  -9.5988     82.7509     55.9949   6.6425257046e+01   5.5093396307e+01    0.2316725    0.2162066 -11.18 0.0009737028    1.104    0.094
       692 -11.7779    165.9485     53.4411   4.4388973298e+01   3.7213265265e+01    0.5047246    0.3065669 -66.69   0.00106352    2.228    0.551
       693  -8.2179      2.5602    229.5073   1.1855228742e+02   2.4658234729e+01    0.1109841   0.08502765  78.09 0.0001264902    1.059    0.056
       694  -8.8492     62.7391     55.0519   7.3355122610e+01   5.8565711705e+01    0.1851232    0.1526209 -21.41 0.0003357684    1.096    0.087
       695  -9.4436     95.6748     53.7402   6.1424028815e+01   5.3025289145e+01    0.3811323    0.1240221 -32.07  0.001229504    3.783    0.736
       696  -9.0910     68.8311     53.8192   7.0619736982e+01   5.7839815958e+01    0.2901179    0.1718563  22.67  0.001395244    1.842    0.457
       697  -8.1802     43.3074     54.6909   8.1052551245e+01   6.1227472245e+01      0.11343    0.1045921  76.97 0.0002994301    1.615    0.381
       698 -10.5370    114.0094     52.9898   5.5836011803e+01   4.9328927133e+01    0.5234011    0.3073925   0.07  0.001930477    3.306    0.698
       699 -10.5562    113.3823     47.7595   5.4251718835e+01   5.0256305631e+01    0.3669023    0.2896636 -61.93  0.001941359    1.635    0.388
       700 -10.9848    115.4885     44.5257   5.2605801313e+01   5.0261122067e+01    0.5123079    0.2783133  61.29  0.002236095    2.080    0.519
       701  -8.7846     86.8676     52.5129   6.3820449586e+01   5.4922003265e+01     0.191946     0.128722  38.55 0.0002978718    1.431    0.301
       702 -10.3341    122.6325     50.7174   5.2837149756e+01   4.7767507996e+01    0.3526567    0.1860711 -44.84  0.001523045    2.139    0.532
       703 -11.3649    123.7725     45.6961   5.0914972854e+01   4.8241359904e+01    0.5985875    0.2101475 -34.23  0.002208254    2.980    0.664
       704  -8.8667    119.3215     51.2685   5.3860905739e+01   4.8424742412e+01    0.1435828    0.1035075  24.52  0.000226964    1.564    0.361
       705  -8.8627    126.2902     50.3229   5.1804728297e+01   4.6999192503e+01    0.1437123     0.106166  19.80 0.0005162306    1.608    0.378
       706  -8.2350     72.3617     50.2744   6.8053383227e+01   5.7867784829e+01    0.1402707   0.09615886   5.81 0.0005684089    1.660    0.398
       707 -10.3901    122.1636     68.6517   5.8688005620e+01   4.4952823015e+01    0.5375764    0.3538666  -3.47  0.002227836    2.376    0.579
       708  -8.6743    116.5150    226.5644   9.4745721154e+01   1.0962886955e+01    0.1897491    0.1556212  -3.51 0.0005043467    1.560    0.359
       709 -12.1220    188.7445    152.4760   6.4840715774e+01   1.3557258263e+01     1.017165    0.7914892 -14.28  0.003074767    1.444    0.307
       710  -9.0581     91.0681     51.3304   6.2036144055e+01   5.4315091724e+01    0.1871787    0.1639125  28.16 0.0004028436    1.079    0.073
       711  -9.3924     90.9739     47.0473   6.0542272380e+01   5.5005945429e+01    0.1617333    0.1444353  -7.51 0.0003879046    1.089    0.081
       712  -9.6635     84.8921     43.8169   6.1337752035e+01   5.6662648557e+01     0.219878    0.1740922 -18.89 0.0002829476    1.254    0.203
       713  -8.9563     73.7362     46.2738   6.6093801598e+01   5.8289954981e+01    0.1836692     0.138741   5.39 0.0006148733    1.333    0.250
       714 -10.5327    145.8323     43.9014   4.5463435719e+01   4.3360006182e+01    0.2086243    0.1835444  29.87 0.0004458859    1.219    0.180
       715  -9.7527    136.0906     44.5342   4.7700461100e+01   4.5566609742e+01    0.2168931    0.1303279  57.89  0.001020658    1.566    0.361
       716  -8.4133    104.2810     44.3372   5.5580593300e+01   5.2707950666e+01    0.1412994     0.101162  14.19 0.0002867192    1.620    0.383
       717  -8.2815    108.2837     43.3213   5.4111676971e+01   5.2001504899e+01    0.1404629    0.1009706  17.41 0.0003880382    1.592    0.372
       718  -9.2412     71.8265     41.8349   6.5122378872e+01   5.9313605806e+01    0.1954838    0.1552256   2.17  0.000361941    1.186    0.157
       719  -8.4183    118.3027     41.6714   5.0928516359e+01   5.0033134662e+01    0.1350696    0.1085735 -75.06 0.0003973444    1.647    0.393
       720  -8.6555     90.4827     41.4706   5.8673869332e+01   5.5933393755e+01     0.136191    0.1206638  18.36  0.000228645    1.001    0.001
       721 -10.1310    140.3455     39.9587   4.5374668486e+01   4.5184749582e+01    0.3061947    0.1405899  38.64  0.001172676    2.720    0.632
       722 -10.4200    132.9652     40.0120   4.6955853949e+01   4.6906264558e+01    0.2740035    0.1824952  42.32 0.0003692546    1.466    0.318
       723  -9.9595    119.9959    224.2307   9.3660056282e+01   1.0887949165e+01    0.2376615    0.2062984 -18.44 0.0002869418    1.388    0.280
       724  -9.9373    126.9988     39.0221   4.7971498024e+01   4.8416044444e+01    0.1643629    0.1490812  47.52 0.0009691964    1.009    0.009
       725 -10.2542    108.4986     38.6367   5.2422234764e+01   5.2601182503e+01    0.2815583    0.2329702 -22.70 0.0007471024    1.279    0.218
       726  -8.9710     96.9504     38.8717   5.5753742464e+01   5.5002595649e+01    0.2044754    0.1602716  21.35  0.000274412    1.249    0.199
       727  -8.4982     85.3151     39.3280   5.9532468589e+01   5.7242160952e+01    0.1407297   0.09562479  12.33 0.0005141067    1.674    0.403
       728  -9.3910    190.0399     37.2876   3.6319035779e+01   3.3734184273e+01    0.1861897    0.1630077 -88.25  0.000744494    1.021    0.021
       729 -10.8562    150.1148     35.3013   4.2065646591e+01   4.3464974725e+01    0.3892846    0.1796238 -42.79  0.001675486    2.331    0.571
       730  -9.1003    103.7988     37.0464   5.3138646681e+01   5.3820774209e+01    0.1813383     0.162129  18.89            0    1.059    0.055
       731 -10.2277    112.8102     34.7518   4.9947649792e+01   5.2166143388e+01    0.2324075     0.209843  85.80 0.0001846409    1.310    0.237
       732  -9.1509     96.2747     35.6563   5.4778391798e+01   5.5576370598e+01    0.1249074    0.1065013 -68.96 0.0003025083    1.621    0.383
       733  -9.7798    100.0222     33.4985   5.2912631929e+01   5.5080624157e+01    0.1971238    0.1724156  -9.24 0.0006855665    1.177    0.150
       734  -8.4642    145.2513     32.3312   4.2077310418e+01   4.4985890783e+01    0.1316857   0.09955561  27.23 0.0002659445    1.554    0.357
       735  -9.5119     77.0728     29.6991   5.8560706386e+01   6.0105409682e+01    0.1839632    0.1447318  28.24 0.0004218078    1.120    0.107
       736  -9.4075    118.1989     29.5838   4.6859971211e+01   5.1597114990e+01     0.201956    0.1062891  45.75  0.000939254    1.720    0.419
       737  -9.4698    105.2448     32.9183   5.1270003060e+01   5.4045784033e+01    0.1890443    0.1814653  83.43 0.0005503189    1.234    0.190
       738  -8.4763    105.4646     26.3992   4.8868857112e+01   5.4784485500e+01    0.1340937    0.1132611  36.74 0.0002507847    1.047    0.045
       739  -8.6110    110.2741     24.3201   4.6920660038e+01   5.3968945474e+01    0.1340686   0.09153571  26.39 0.0004601501    1.571    0.364
       740  -8.3204    123.6927     23.2416   4.3494094030e+01   5.1065919690e+01    0.1235055   0.09868943 -88.20 0.0002093187    1.496    0.331
       741  -9.0052     90.9937     22.7625   5.1465738556e+01   5.8241799156e+01    0.1766029   0.09769302  50.01  0.000883326    1.625    0.385
       742  -9.1063     87.6766     18.7087   5.0851246966e+01   5.9360671061e+01     0.134474   0.08432993  26.42 0.0004083543    1.612    0.379
       743  -8.2534    127.7281     17.2889   4.0704754887e+01   5.0756406784e+01     0.122032   0.09691656 -74.63 0.0003218584    1.509    0.337
       744  -9.4309     68.4917     17.4401   5.6483287049e+01   6.3157520575e+01     0.126866    0.1025551  19.78 0.0001179426    1.025    0.024
       745  -8.8690     73.4611     16.5413   5.4405465082e+01   6.2350801514e+01    0.1270584    0.1038518  22.40 6.238917e-05    1.017    0.017
       746 -10.1115    224.3601    246.8333   7.5669287462e+01  -8.7230572590e+00    0.2069246    0.1325114 -20.84 0.0005431624    1.484    0.326
       747 -10.8246    227.3768    243.7417   7.4608625037e+01  -8.6898603923e+00    0.2842712    0.1522629  31.00   0.00109801    1.698    0.411
