#   1 NUMBER                 Running object number                                     
#   2 MAG_AUTO               Kron-like elliptical aperture magnitude                    [mag]
#   3 X_IMAGE                Object position along x                                    [pixel]
#   4 Y_IMAGE                Object position along y                                    [pixel]
#   5 X_WORLD                Barycenter position along world x axis                     [deg]
#   6 Y_WORLD                Barycenter position along world y axis                     [deg]
#   7 A_WORLD                Profile RMS along major axis (world units)                 [deg]
#   8 B_WORLD                Profile RMS along minor axis (world units)                 [deg]
#   9 THETA_WORLD            Position angle (CCW/world-x)                               [deg]
#  10 FWHM_WORLD             FWHM assuming a gaussian core                              [deg]
#  11 ELONGATION             A_IMAGE/B_IMAGE                                           
#  12 ELLIPTICITY            1 - B_IMAGE/A_IMAGE                                       
         1 -14.1140     72.6144    148.0244   5.0420135723e+01   3.5625118210e+01     3.746448     1.880435  79.79  0.002803791    4.998    0.800
         2 -13.3945    223.0201     47.2348   3.5538694224e+02   2.5891056128e+01    0.7381776    0.7112994 -17.78  0.001903621    1.403    0.287
         3 -11.7163    249.2832     24.1325   3.4891141344e+02   2.4023752365e+01    0.5410177    0.3102683 -24.84  0.003152728    2.014    0.503
         4  -9.7749    227.3678      9.6183   3.4704009744e+02   2.9446721617e+01    0.1969681    0.1593227 -59.91 0.0007352848    1.136    0.120
         5  -9.7379      2.2671      1.9805   4.1444645565e+01   7.9541396027e+01    0.1679531    0.1395464 -20.22 0.0005873875    1.099    0.090
         6 -10.0366    103.0660    238.0172   5.4299738111e+01   1.1455110649e+01    0.2923618    0.1782272 -40.07  0.001137726    1.940    0.485
         7 -10.0074     74.9154    248.7930   6.1599888843e+01   1.2717912251e+01    0.4208176    0.1625282 -51.47  0.001981889    3.130    0.681
         8 -14.0704     54.5273    236.2194   6.5296353827e+01   1.7303233939e+01     4.920002     1.328786 -60.72   0.01994984    3.846    0.740
         9 -13.5985     43.7329    242.5941   6.8203761922e+01   1.7174946964e+01     1.372649    0.8945115  29.09  0.001064249    1.287    0.223
        10 -14.3213     54.5008    217.3967   6.3867540204e+01   2.1192141289e+01     2.364406     1.581322 -27.61  0.005742634    2.093    0.522
        11 -14.5066     29.8086    181.3233   6.7602379004e+01   3.2244833601e+01     2.808131     1.538879   4.13    0.0120972    2.514    0.602
        12 -15.9836     41.1289    173.0275   6.3532656555e+01   3.3170523104e+01     11.99407     5.859233  70.80   0.04715272    2.557    0.609
        13 -10.1927     72.6694    233.1284   6.0800298407e+01   1.5911074709e+01    0.2377857    0.1970395  41.16 0.0006465034    1.063    0.059
        14 -10.2622    163.7247    223.2912   3.9526674191e+01   6.6562570718e+00    0.4038534    0.1114615 -51.03  0.001461414    4.778    0.791
        15  -9.5674     72.4783    224.9467   6.0110132976e+01   1.7563193035e+01    0.2372729    0.1663368  29.95 0.0004901599    1.219    0.179
        16  -9.8051    174.9785    223.2896   3.7338989784e+01   5.3277942024e+00    0.1681028    0.1316529   4.53 0.0005673117    1.060    0.057
        17 -13.8586     18.8052    237.1452   7.3619784318e+01   2.0639257743e+01    0.9668736    0.5045778  68.96 0.0005652223    1.874    0.466
        18 -10.8825    103.7127    203.6088   5.0074250839e+01   1.8041563303e+01    0.2537383    0.2142165  39.93 0.0006001344    1.131    0.116
        19  -9.5615    210.7861    198.9480   2.7152333118e+01   4.8234359749e+00    0.2009858    0.1457802   6.17 0.0005289143    1.286    0.222
        20  -9.8092    192.0190    192.8796   2.9395000751e+01   8.0364465630e+00    0.4629176     0.265028 -65.24  0.001511747    7.005    0.857
        21  -9.3345     72.7464    190.4797   5.6418217472e+01   2.5067093044e+01    0.2326732    0.1761236  41.01 0.0006259531    1.199    0.166
        22 -11.1107    125.0264    189.0000   4.2774584794e+01   1.8074497274e+01    0.3545437    0.1939428  21.28  0.001580564    2.014    0.503
        23  -9.8252     94.5684    183.4465   4.9611652935e+01   2.3717550893e+01    0.3210318    0.2212309  58.03  0.001033923    1.656    0.396
        24  -8.7606     70.7585    183.4106   5.6104920820e+01   2.6999920753e+01    0.1763962    0.1326148  17.80 0.0002456256    1.398    0.285
        25  -9.8091    116.6677    181.6720   4.3642240840e+01   2.0859787830e+01     0.146262    0.1055518 -13.98 0.0007051649    1.716    0.417
        26  -9.2241     83.2223    180.3026   5.2234428135e+01   2.6055361244e+01    0.2525931    0.1888148 -83.45 0.0003076534    1.545    0.353
        27 -14.9134     12.5165    245.3334   7.5330264128e+01   1.9576668401e+01     1.262368     1.078216 -60.94  0.009211722    1.515    0.340
        28  -9.7130    105.0813    172.6261   4.5144033979e+01   2.4635607197e+01    0.3721439    0.2252787 -77.89  0.001542558    2.450    0.592
        29 -10.9172    176.1159    170.5036   2.8431996913e+01   1.4031414733e+01    0.4557511    0.2591096 -25.17  0.002178375    2.019    0.505
        30 -10.3471    180.8562    168.2607   2.7108111247e+01   1.3728542985e+01     0.296312    0.1823217 -45.23 0.0008930965    1.578    0.366
        31  -9.8663    178.6932    163.8611   2.6692353246e+01   1.4838527367e+01    0.3647046    0.2726891  36.82   0.00190635    1.445    0.308
        32 -12.0891     81.7815    144.8489   4.6992120352e+01   3.5040443447e+01     2.289888     1.183502 -27.95  0.007086826    3.975    0.748
        33 -11.7023     58.8862    160.6935   5.6654647635e+01   3.4235577428e+01    0.4990146    0.3446004 -49.51   0.00240437    1.555    0.357
        34 -11.5826     64.0296    156.9746   5.4528483293e+01   3.4518607659e+01    0.6626292    0.4015275 -39.36 0.0008694365    2.013    0.503
        35  -9.6524    125.2523    248.6200   5.0649394167e+01   7.0826728604e+00    0.2042157    0.1454345 -42.02 0.0007790446    1.606    0.377
        36 -10.7390    133.7720    145.9738   3.2809485218e+01   2.5859124471e+01      1.10297    0.2567272 -53.88  0.002614637    6.194    0.839
        37  -9.2145    110.6285    167.0836   4.2740988104e+01   2.5036972994e+01    0.2182419    0.1798843 -80.59 0.0005771703    1.432    0.302
        38 -10.5063    108.9164    145.2869   3.9117326713e+01   3.0403961508e+01    0.2902086    0.2787971  65.32 0.0005985159    1.062    0.059
        39 -10.4028     37.2866    143.0441   6.1420323447e+01   4.1536250817e+01    0.4791385    0.2689719  63.42  0.001031598    1.994    0.498
        40 -15.0879      5.9290    230.2671   7.6319754250e+01   2.3158881537e+01     1.238472     0.665498 -80.35  0.007051873    1.979    0.495
        41 -16.3806      5.7115    215.6073   7.5884106951e+01   2.6308522391e+01     4.492792     2.160092  28.33   0.02016482    1.787    0.441
        42 -11.7215     84.6755    131.8762   4.3561720570e+01   3.7880749801e+01    0.3482658    0.2998374 -69.13 0.0004408853    1.173    0.148
        43 -10.9419     73.7056    135.2914   4.7788692756e+01   3.8777427923e+01    0.4313334     0.267235  46.34  0.001869749    1.625    0.385
        44  -8.3525    124.4541    132.4782   3.2235040273e+01   3.0555470054e+01    0.1484641    0.1438616 -76.10  6.71266e-05    1.052    0.050
        45 -10.0455    105.8062    130.5149   3.6873231468e+01   3.4485086040e+01     0.392931    0.3400484 -53.86  0.001148414    1.147    0.128
        46  -9.3265    108.5559    126.0534   3.5081927289e+01   3.5037275847e+01    0.2831143     0.217207  17.68 0.0009873641    1.583    0.368
        47 -10.9224     43.8271    131.0008   5.7420042279e+01   4.4081108353e+01    0.3594614    0.2110229 -69.43  0.001305968    1.653    0.395
        48 -10.7989     24.5796    128.6202   6.4217340926e+01   4.6779854363e+01     0.417682     0.290632  84.45  0.002038157    1.438    0.305
        49  -9.4680    136.0000    129.4574   2.8678469269e+01   2.9036368920e+01    0.3332996   0.08172464 -47.43 0.0009350445    3.937    0.746
        50  -9.0996    129.8173    126.1555   2.9434359561e+01   3.0943252842e+01    0.2219589    0.1985168 -86.88 0.0005862111    1.237    0.191
        51  -8.7252    120.5379    126.5543   3.1911599839e+01   3.2641214904e+01    0.1488753    0.1461224 -64.16 0.0001016978    1.005    0.005
        52 -10.0280     86.7936    120.8700   4.0497072589e+01   4.0304466306e+01    0.3635489    0.2677403  84.86 0.0005084418    1.728    0.421
        53 -13.3260     60.7645    145.0174   5.3753617060e+01   3.8106147420e+01    0.9830585    0.6433964  15.79  0.001187943    1.791    0.442
        54 -10.6827     95.2762    121.1846   3.7889893387e+01   3.8690783499e+01    0.3555173    0.2780915  20.35 0.0006704581    1.485    0.326
        55  -9.3873    115.2010    121.5768   3.2181283589e+01   3.4812738817e+01    0.2138817     0.147956  28.10 0.0006046302    1.681    0.405
        56 -10.8017     27.6924    118.5963   6.1701101669e+01   4.9261233789e+01    0.3176037    0.2496866  83.06  0.001105444    1.267    0.211
        57  -9.4735    125.0579    119.5469   2.9078009179e+01   3.3337577517e+01    0.2980888    0.2100959 -68.13  0.001339322    1.699    0.411
        58  -8.7925     76.3067    120.6672   4.3933658499e+01   4.2165189535e+01    0.1624999    0.1182767  72.33 0.0007039887    1.666    0.400
        59 -10.8367    245.2738    115.1328   7.1129475747e+00   1.2816351583e+01    0.3656669    0.2402083 -83.30  0.002023631    2.950    0.661
        60  -9.2515    105.8748    116.0236   3.3475730179e+01   3.7924482721e+01    0.2223647    0.2169137 -70.59 0.0003559387    1.011    0.011
        61 -10.9542     22.5521    114.2682   6.3162518024e+01   5.0937691383e+01    0.4380743    0.2333109  89.06  0.001793726    2.085    0.520
        62  -9.4293    122.4063    115.2328   2.8712550917e+01   3.4827075698e+01    0.2096584    0.1420032 -59.32 0.0003336153    1.572    0.364
        63  -8.4413    101.2550    114.6120   3.4495950882e+01   3.9155869064e+01    0.1590226    0.1202016 -87.82 0.0006962968    1.679    0.404
        64 -10.7811     98.1503    133.4358   3.9745221100e+01   3.5158269574e+01    0.6057324    0.4022665  -0.28  0.002352716    2.544    0.607
        65 -14.7511     10.2062    206.2952   7.4405332674e+01   2.8026711635e+01     1.103869    0.7018566   6.89  0.002935863    1.920    0.479
        66 -10.6205     34.2659    106.7308   5.7110231922e+01   5.1849688401e+01    0.3677118    0.2019042  56.50  0.001484228    2.148    0.534
        67 -10.4308    115.7104    107.1249   2.8446257176e+01   3.8001550071e+01    0.3347446    0.2577377 -25.09 0.0009073035    1.584    0.369
        68 -11.8993     23.4026    104.6651   6.1392140343e+01   5.3511732539e+01    0.5515407    0.4102874  55.84  0.002295915    1.403    0.287
        69 -11.0654     53.0422    104.4776   4.8933577502e+01   5.0064437619e+01    0.5294378    0.2681698 -75.45  0.001915892    2.522    0.603
        70  -8.7097    134.3458    104.6725   2.3055370633e+01   3.4649685753e+01    0.1568018    0.1171343 -84.90 0.0007050268    1.750    0.428
        71 -10.2372    112.7715    102.5920   2.8061050106e+01   3.9623678520e+01    0.2818466    0.2405961 -60.51 0.0004092339    1.166    0.142
        72 -11.2299     15.2642     99.3583   6.4178801751e+01   5.5648180815e+01    0.3691829    0.2876538  64.41  0.001152041    1.334    0.251
        73 -10.6525     54.5102     96.2057   4.6394962539e+01   5.2021560542e+01    0.2866246    0.2187617  31.62  0.001095948    1.341    0.254
        74  -9.0742     45.5425     95.7406   5.0052232440e+01   5.3427213048e+01    0.2558382    0.1671613  52.27 0.0004682426    1.687    0.407
        75  -8.2980    106.7243     95.2703   2.7772578232e+01   4.2523521777e+01    0.1490011    0.1191847  88.49 0.0002230296    1.484    0.326
        76 -11.1643    246.0079     90.4989   2.2613674758e+00   1.6187120941e+01    0.2767673    0.2069573 -12.35  0.001830415    1.723    0.420
        77  -9.1474     74.9505     88.9732   3.6420491550e+01   5.0368299653e+01     0.228161    0.2207347  88.94 0.0003116888    1.024    0.023
        78  -9.9111     42.2210     88.9398   4.9894051385e+01   5.5657170641e+01     0.251432    0.2143836  29.81 0.0005635718    1.205    0.170
        79 -10.4647     41.0190     83.3877   4.9049043477e+01   5.7254121577e+01    0.5110784    0.2308139  52.67   0.00174501    3.126    0.680
        80  -8.5405     97.5190     84.5708   2.7413063433e+01   4.6838889287e+01    0.1536956    0.1457474  85.24 0.0001189743    1.041    0.039
        81 -10.2109    240.4834     83.0076   1.3115233194e+00   1.8082924141e+01     0.187486    0.0913512 -37.30 0.0009553844    1.591    0.371
        82  -9.3881     86.1845     73.9739   2.7747456102e+01   5.1541759657e+01    0.2346356    0.2003937  89.50 0.0006739915    1.308    0.235
        83  -9.0405     30.7819     72.5869   5.1211293326e+01   6.1282243545e+01    0.1986618    0.1289742  37.69 0.0006706991    1.586    0.369
        84  -9.7253     81.5585     69.9546   2.8006679137e+01   5.3370426772e+01    0.2330957     0.196561  49.60 0.0004357136    1.170    0.145
        85  -9.7369     59.5722     69.7391   3.6575061184e+01   5.7696519816e+01    0.2028173    0.1442621 -64.16 0.0005963047    1.562    0.360
        86 -10.7517     19.0729     66.3483   5.5902547590e+01   6.4075939203e+01    0.3797857    0.2230532  41.89  0.001558125    1.855    0.461
        87 -11.9697    199.8026     62.4503   1.0825744229e+00   2.8274758334e+01    0.4409476    0.3691386  58.06  0.001153545    1.435    0.303
        88 -12.9694    210.9742     55.6138   3.5832507279e+02   2.7050028388e+01     0.857363    0.7458116 -48.64  0.003333462    1.141    0.124
        89  -9.8885     67.3740    241.2016   6.2698654309e+01   1.4948282568e+01    0.2808704    0.1877757 -66.13  0.001025531    1.780    0.438
        90  -9.0214     79.1524     57.1309   2.4256198282e+01   5.6486629532e+01    0.2027814    0.1743862  85.27 0.0005067754    1.302    0.232
        91 -10.7064     65.2633     58.3789   3.0089864277e+01   5.9107857667e+01    0.4061818    0.2709487  70.42  0.001311453    2.195    0.544
        92 -11.2149     11.6689     48.9818   5.5656139536e+01   6.8967499183e+01     0.412812    0.2362736  81.84  0.001734947    2.843    0.648
        93 -11.3604     18.7459     45.8493   4.9953919492e+01   6.9041081362e+01    0.4097972     0.250789  28.71  0.001189944    1.639    0.390
        94 -10.1301      2.2970     39.0349   5.9296981965e+01   7.1962958425e+01    0.1842837    0.1583078 -56.10  0.001134659    1.120    0.107
        95 -11.0994    249.6086     28.8121   3.4980880286e+02   2.3446165568e+01    0.3829556     0.182066 -33.19  0.002000581    1.796    0.443
        96  -8.4161    198.2987    240.6824   3.5569128650e+01   3.2148346311e-01   0.09137221   0.08303536  23.77  0.000430325    1.615    0.381
        97  -9.5550      2.0000     31.9413   5.7251350986e+01   7.3594660403e+01     0.205674   0.06805018 -65.72 0.0007991596    2.920    0.658
        98  -9.0270     20.2954     26.6801   4.0655960005e+01   7.2924260865e+01    0.1221205    0.1030552  66.48 0.0002015476    1.613    0.380
        99 -12.8002    127.3232    230.0654   4.8023406391e+01   9.9458712956e+00     1.202621    0.4088765  30.24  0.005167753    2.474    0.596
       100 -10.3151      2.2251     22.8014   5.3513266945e+01   7.5560347147e+01    0.2683087    0.1454018 -65.39  0.001292872    1.985    0.496
       101  -9.5525     60.6901     21.3685   1.5311273054e+01   6.6479574073e+01    0.2225054    0.2151731  82.47 0.0006809105    1.117    0.105
       102  -8.4771    189.3130     15.3190   3.5055774008e+02   3.6450218618e+01    0.1093304   0.09347441  40.55 0.0005002343    1.648    0.393
       103  -9.3666     33.3135     15.3560   2.5279607789e+01   7.2859663579e+01     0.135825    0.0951197   7.67 0.0007044466    1.739    0.425
       104  -8.9274    108.4515    239.9405   5.3309377538e+01   1.0480570151e+01    0.1628499    0.1228361 -56.85  0.001032949    1.606    0.377
