#   1 NUMBER                 Running object number                                     
#   2 MAG_AUTO               Kron-like elliptical aperture magnitude                    [mag]
#   3 X_IMAGE                Object position along x                                    [pixel]
#   4 Y_IMAGE                Object position along y                                    [pixel]
#   5 X_WORLD                Barycenter position along world x axis                     [deg]
#   6 Y_WORLD                Barycenter position along world y axis                     [deg]
#   7 A_WORLD                Profile RMS along major axis (world units)                 [deg]
#   8 B_WORLD                Profile RMS along minor axis (world units)                 [deg]
#   9 THETA_WORLD            Position angle (CCW/world-x)                               [deg]
#  10 FWHM_WORLD             FWHM assuming a gaussian core                              [deg]
#  11 ELONGATION             A_IMAGE/B_IMAGE                                           
#  12 ELLIPTICITY            1 - B_IMAGE/A_IMAGE                                       
         1 -13.8979    216.3779      8.8649   3.8283918978e+01   3.0035845650e+01     2.012525     1.078016  48.15  0.009688076    2.311    0.567
         2 -12.8128    195.9683     34.3524   4.7110205147e+01   3.2009769117e+01    0.6333361    0.5973641 -19.27  0.001198457    1.220    0.180
         3 -13.0853    175.9870     53.7030   5.5714719990e+01   3.4333178822e+01     1.743918     1.094254  22.27  0.005231139    2.573    0.611
         4 -13.5237    191.0344     39.9170   4.9331819076e+01   3.2508607437e+01      1.13588    0.9891084 -24.26  0.003926854    1.277    0.217
         5 -10.3408    189.4775     14.8218   4.2604131197e+01   3.5956264713e+01    0.2482815    0.1792053  75.04 0.0007289882    1.260    0.206
         6 -10.1025     68.0025      2.0000   6.2634098106e+01   6.5595098339e+01    0.2030147   0.06315463  51.56  5.16557e-07    3.012    0.668
         7  -5.6986     42.8715    206.0722   1.2040229123e+02   2.6371100525e+01    0.2783282    0.1829712 -38.91  0.001304617    2.658    0.624
         8 -12.6957    247.2520    246.5890   8.5712331568e+01  -1.1295451096e+01    0.7679076    0.5258737 -24.31  0.005364326    1.516    0.340
         9 -10.9870     33.2383    206.8039   1.2237577924e+02   2.7311083344e+01     0.308379    0.1501586  69.72  0.001643109    1.942    0.485
        10  -8.7039     93.4908    205.5098   1.0976129369e+02   1.9634752141e+01    0.1890542    0.1227879  29.75 0.0009791706    1.781    0.439
        11 -10.0618     96.4351    202.2624   1.0871947255e+02   1.9856300321e+01    0.3075835    0.1725392 -57.49 0.0009281872    1.901    0.474
        12 -10.6772     66.2101    204.6380   1.1546821122e+02   2.3742556646e+01    0.2463484    0.1711269 -55.80 0.0001847195    1.681    0.405
        13 -10.9491    193.0384    195.0637   8.6846607281e+01   4.3157406794e+00     0.933664    0.4819429 -62.03  0.002915827    5.555    0.820
        14 -10.5806     56.0067    201.4798   1.1729928331e+02   2.5744920773e+01    0.2992832    0.1816783 -37.31  0.001428073    3.102    0.678
        15 -12.0222     58.4699    195.4183   1.1618021975e+02   2.6739814838e+01    0.5808881    0.2609226 -51.62  0.001348319    2.770    0.639
        16 -10.3512    203.9629    200.6920   8.5723084145e+01   1.4587765670e+00    0.1977675    0.1597107  28.55  0.001167125    1.120    0.107
        17  -8.8299     70.6034    200.1517   1.1406507980e+02   2.4100291604e+01    0.1545228    0.1117481 -63.33 0.0007215846    1.458    0.314
        18  -9.7822     36.1501    197.9361   1.2110895239e+02   2.8863667767e+01     0.141129    0.1130025  67.71 0.0003167542    1.095    0.087
        19 -10.6211    142.8445    197.2951   9.7818958704e+01   1.3031783694e+01    0.2334697    0.1646634  54.60  0.001203457    1.424    0.298
        20  -9.6329     81.9175    194.9058   1.1099125102e+02   2.3623845361e+01    0.1999758    0.1690381  68.24 0.0005621545    1.022    0.021
        21 -11.4590    149.5188    188.0375   9.4779845552e+01   1.3645510343e+01    0.4684938    0.3524821  89.35  0.001907961    1.851    0.460
        22 -10.8382     95.1035    187.8899   1.0710172728e+02   2.3150841946e+01    0.4937929    0.4175353  85.51  0.001973495    1.126    0.112
        23  -9.5977      1.0706    187.3545   1.2745334568e+02   3.4517926363e+01    0.1043009   0.04329484 -75.81 0.0001630029    1.939    0.484
        24 -11.7356    143.7540    178.9142   9.4438679420e+01   1.6584570733e+01    0.7500878     0.287423 -47.39   0.00276205    2.768    0.639
        25 -11.2761     99.3541    180.8792   1.0510121587e+02   2.4026374596e+01    0.4078564    0.3318805 -39.16  0.001971144    1.514    0.339
        26 -10.1682    188.5457    176.6326   8.4206310361e+01   8.4175018767e+00    0.3762656    0.3332803 -49.35  0.001597172    1.272    0.214
        27  -9.0561     59.2860    176.7572   1.1395662887e+02   3.0821019246e+01    0.1585548    0.1386911 -61.46 0.0004176283    1.286    0.222
        28  -9.8519     75.1048    249.9895   1.1782306222e+02   1.3789663257e+01    0.2471432    0.1031126 -59.08  0.001298202    2.826    0.646
        29  -9.2056     84.0443    173.5869   1.0766679674e+02   2.8092395033e+01    0.2100539    0.1709165 -74.83 0.0002960387    1.174    0.148
        30 -19.5377     20.4420    145.1131   1.1984532320e+02   4.2429850016e+01     19.36212     4.790483 -75.59   0.06677716    3.830    0.739
        31 -10.8159    139.2099    171.5218   9.4116568942e+01   1.9010332699e+01    0.3976892    0.2588331  49.69  0.001855666    1.512    0.339
        32  -8.7992    194.4947    171.9500   8.2029601293e+01   8.1314930487e+00      0.20995    0.1388955 -38.23 0.0006568998    1.534    0.348
        33 -10.7439     56.4411    218.1008   1.1870348326e+02   2.2239967201e+01    0.2966132    0.1461996  76.07  0.001121863    2.276    0.561
        34 -10.1222    149.6889    177.4330   9.2815833614e+01   1.5764174847e+01    0.2590904    0.2260442 -75.92 0.0006411271    1.302    0.232
        35  -9.8595    240.4837    169.4530   7.2804405261e+01   1.2082450566e-01    0.1337689    0.1158453  -8.22  9.15201e-05    1.021    0.020
        36 -10.2307    230.8195    168.3364   7.4284340074e+01   1.9854232549e+00    0.3960567    0.1443246 -49.49  0.001176193    5.090    0.804
        37  -9.3218     48.8087    218.0967   1.2019381374e+02   2.3190360778e+01    0.2267818     0.149754  61.67  0.001444209    1.232    0.189
        38  -9.2378    187.5220    162.5355   8.1503233875e+01   1.1266094285e+01    0.2615055    0.1370208 -52.34 0.0008240947    2.343    0.573
        39 -11.6220     96.0463    151.2813   1.0101751248e+02   3.1445524191e+01    0.5990025    0.4940647 -18.60  0.003099916    1.609    0.378
        40  -9.4894    112.9443    150.9203   9.6575739443e+01   2.8581540262e+01    0.2427273    0.1780542  80.08 0.0007572967    1.688    0.408
        41  -9.7841    187.2122    152.0266   7.9278320150e+01   1.3361050334e+01    0.2388876    0.2019244  -1.02  0.001228704    1.280    0.219
        42  -9.5582    174.8150    149.1343   8.1304991342e+01   1.6530014851e+01    0.2304885    0.2126891 -87.93 0.0007429282    1.246    0.198
        43  -9.6194    108.8818    147.0762   9.6865041105e+01   3.0222423909e+01    0.2286675    0.1891951  78.15 0.0003207558    1.303    0.233
        44 -10.8258    133.7959    145.4781   9.0157539444e+01   2.5841486496e+01      1.26236    0.3107873 -54.51  0.002938052    5.873    0.830
        45 -11.0127    107.6814    137.6786   9.5253325404e+01   3.2670505782e+01    0.5424982    0.3953705 -43.92  0.002606561    1.423    0.297
        46 -10.8648    105.5319    130.8777   9.4368424806e+01   3.4682252721e+01    0.4823427    0.4243504  10.15   0.00251843    1.346    0.257
        47 -11.6691     95.7206    137.0974   9.8375769619e+01   3.4909957166e+01    0.2934168    0.2674353 -62.52 0.0003759146    1.059    0.056
        48 -10.3175    135.7013    128.3901   8.5766039175e+01   2.9329274884e+01    0.4449826    0.1407251 -49.00  0.001331925    3.212    0.689
        49  -9.1390    160.9998    128.0012   7.9475694442e+01   2.3934672759e+01     0.257272    0.2002743 -85.79  0.001145326    1.728    0.421
        50 -10.4528    102.3839    124.5836   9.3832959346e+01   3.6753700019e+01    0.2841468    0.2425461 -24.22 0.0004458458    1.350    0.259
        51 -10.1506    120.0572    123.2994   8.8652249711e+01   3.3700060248e+01    0.2754396      0.21345 -35.56  0.001087516    1.381    0.276
        52 -11.1119     50.4350    224.7180   1.2039759458e+02   2.1675578065e+01    0.2140916    0.1320638  73.67 0.0006478894    1.420    0.296
        53 -10.4889    114.7060    128.9309   9.1427094815e+01   3.3430093607e+01    0.3513891      0.30719 -19.37 0.0007681036    1.324    0.245
        54  -9.4320    110.0037    118.0828   9.0155821365e+01   3.6878342211e+01    0.2230441    0.2145957 -78.66 0.0002953904    1.038    0.037
        55 -10.0706    231.2323    113.7013   6.2036620393e+01   1.1195730066e+01    0.2645909    0.2633606 -31.06 0.0007533613    1.103    0.094
        56  -9.2599    167.5058    112.1783   7.3958669391e+01   2.5769491027e+01    0.3361679    0.2455654 -83.74  0.001213668    2.000    0.500
        57  -9.8692    134.7561    112.1809   8.1931257334e+01   3.3164583716e+01    0.3860874    0.1315926 -43.68  0.001193274    2.922    0.658
        58  -9.6121    205.6019    110.1014   6.5613379428e+01   1.7396779563e+01    0.2765531    0.2206252  41.12 0.0006888116    1.333    0.250
        59 -11.2677    118.9172    110.8376   8.5839676799e+01   3.6796498941e+01    0.6256731    0.4248377  68.30   0.00248917    2.024    0.506
        60 -10.9232     55.0712    222.6007   1.1934362974e+02   2.1515432949e+01    0.1681823    0.1211184  63.33 0.0004429794    1.105    0.095
        61  -9.5652     56.7901    210.1521   1.1793962049e+02   2.3819518074e+01    0.2566212    0.1315366 -65.55  0.001379012    1.940    0.485
        62  -8.3544    184.6502     76.7114   6.0714002143e+01   2.8400790881e+01    0.1554331    0.1187671  23.59 0.0003529098    1.664    0.399
        63  -8.9331     68.6760     71.8778   9.0578355861e+01   5.4395522606e+01     0.192541      0.15914 -44.43 0.0003280125    1.124    0.110
        64  -9.8411    184.7327    212.5328   9.1606221501e+01   2.8649231806e+00    0.2315064    0.1846552 -36.15  0.001235254    1.392    0.282
        65  -9.5330     43.7680    210.0442   1.2054309620e+02   2.5438381139e+01    0.2133294    0.1240432  73.88 0.0002323606    1.558    0.358
        66 -10.2058     71.8672    245.1676   1.1802196567e+02   1.5074600997e+01    0.1985677    0.1471043 -70.66  0.001374282    1.528    0.346
        67  -8.5876    167.8379    230.7806   9.7835868604e+01   2.7851156927e+00    0.1593051    0.1367663  55.23 0.0006493151    1.282    0.220
        68  -9.5992     58.6195    229.0353   1.1918514669e+02   1.9808389636e+01    0.1503314    0.1130597  84.44 0.0003891955    1.189    0.159
