#   1 NUMBER                 Running object number                                     
#   2 MAG_AUTO               Kron-like elliptical aperture magnitude                    [mag]
#   3 X_IMAGE                Object position along x                                    [pixel]
#   4 Y_IMAGE                Object position along y                                    [pixel]
#   5 X_WORLD                Barycenter position along world x axis                     [deg]
#   6 Y_WORLD                Barycenter position along world y axis                     [deg]
#   7 A_WORLD                Profile RMS along major axis (world units)                 [deg]
#   8 B_WORLD                Profile RMS along minor axis (world units)                 [deg]
#   9 THETA_WORLD            Position angle (CCW/world-x)                               [deg]
#  10 FWHM_WORLD             FWHM assuming a gaussian core                              [deg]
#  11 ELONGATION             A_IMAGE/B_IMAGE                                           
#  12 ELLIPTICITY            1 - B_IMAGE/A_IMAGE                                       
         1  -9.8925    119.0621     19.9077   5.8146008314e+01   5.3520385804e+01    0.5492648    0.2341992 -24.73  0.002002967    2.432    0.589
         2  -9.8133    142.6117     18.2736   5.2613958911e+01   4.7481987143e+01    0.4614529    0.3679469  32.57   0.00227926    1.333    0.250
         3  -9.3133    238.1436     16.1900   4.0429129911e+01   2.2238097120e+01    0.3537183    0.2147106  37.18  0.001690293    1.983    0.496
         4  -9.3614    171.5691     13.2189   4.6222616322e+01   4.0023660104e+01    0.3030211    0.2413045  48.63  0.001173845    1.277    0.217
         5  -9.6117      5.8934      9.3267   1.0222091264e+02   7.4990017348e+01    0.3213969    0.2387116 -37.62  0.002196256    1.280    0.219
         6 -10.6940    165.1170      5.9455   4.4383232526e+01   4.2547959204e+01    0.6466875    0.5633097 -81.42  0.003419911    1.165    0.141
         7  -9.9224     79.3584      5.0665   6.1716749108e+01   6.4953570329e+01    0.3248031    0.2453996 -17.14  0.001383861    1.280    0.219
         8  -9.3339    235.7818      2.0424   3.6687318399e+01   2.4072918064e+01    0.3840496    0.2109514 -83.51  0.001781414    2.061    0.515
         9  -8.5301    180.0691    244.2975   9.6163028248e+01   7.0109523872e+00    0.1512037   0.09038061  39.95  0.001130439    1.152    0.132
        10  -9.4858    185.6770    249.7606   9.5898731459e+01   5.7412032103e+00    0.1728868    0.1361621  41.66  0.001520026    1.266    0.210
        11 -13.5266     44.3832    241.8787   1.1764361796e+02   2.4718318141e+01     1.278785    0.8171391  68.27  0.002394431    1.265    0.210
        12 -12.2876     30.9700    216.8833   1.1883768768e+02   2.9795133406e+01     1.135283    0.4358001  54.28  0.007392338    1.752    0.429
        13 -12.6556     33.8757    206.3076   1.1786293311e+02   3.1173689016e+01      1.51362    0.4275559  61.45  0.007456254    3.163    0.684
        14  -9.8836    149.2000    238.5876   1.0039952801e+02   1.1901585821e+01    0.3888046    0.2408375  51.25  0.002872344    1.362    0.266
        15  -8.5113    204.3907    235.2010   9.1448011996e+01   4.4526143627e+00     0.106643   0.09686083 -29.48 0.0009453396    1.644    0.392
        16  -8.6431     88.5049    235.4943   1.1008300630e+02   2.0441107101e+01    0.1030237   0.07020063  51.80 0.0008106509    1.001    0.001
        17  -9.0435     26.1743    234.3122   1.2028332962e+02   2.7667568356e+01    0.1539769    0.1430167 -69.04  0.001491534    1.821    0.451
        18 -10.1277     97.8768    230.8576   1.0817629960e+02   1.9857771770e+01    0.1842621    0.1710329   6.82  0.001603714    1.679    0.404
        19  -8.9330    210.8974    230.7941   8.9932650541e+01   3.9249958735e+00    0.1660341    0.1411105  31.85  0.001433642    1.320    0.243
        20  -8.9368     94.4737    238.4617   1.0930383553e+02   1.9292286858e+01    0.1033382   0.06890708  51.68 0.0002129949    1.035    0.034
        21 -10.7318     65.1806    229.9101   1.1363467666e+02   2.4065139629e+01    0.2562068     0.142294 -89.83  0.001854872    2.022    0.505
        22 -10.5619     90.4462    228.6272   1.0926751427e+02   2.1125899911e+01    0.2708683    0.2148294  -2.66  0.001724249    2.538    0.606
        23  -9.7312    113.1483    227.7285   1.0533698029e+02   1.8227207119e+01    0.1787005    0.1124404 -32.45  0.001087163    3.364    0.703
        24 -11.8810     72.6977    221.3859   1.1181733893e+02   2.4394889391e+01    0.4337077    0.1896951  42.17  0.002730872    1.685    0.406
        25 -11.1484     79.6805    221.5622   1.1061230534e+02   2.3499007193e+01    0.3236142    0.1871268  64.95  0.002280769    1.540    0.351
        26  -9.3085    203.4651    225.2515   9.0355410234e+01   5.4804305505e+00    0.2295597    0.1674697  43.20  0.001782583    1.299    0.230
        27  -9.7526    181.1462    222.7656   9.3537796831e+01   8.9927913939e+00    0.2522116    0.1691374  -5.89   0.00172236    2.154    0.536
        28 -10.6208    220.4339    220.6745   8.7193628253e+01   3.4496199992e+00    0.7491176    0.2577395  29.06    0.0033887    3.496    0.714
        29 -10.6749    213.7341    219.0260   8.7978244187e+01   4.5616252276e+00    0.4121049    0.1374971  44.18  0.002144458    2.364    0.577
        30 -11.6392    207.7583    212.7449   8.8041718758e+01   6.0281549155e+00    0.6804468    0.3784592  46.94  0.004380631    1.638    0.390
        31 -10.3659    146.4929    220.9672   9.9028063913e+01   1.4332723700e+01    0.3244693    0.1857245  27.51  0.001985824    2.002    0.501
        32 -10.7825    191.2628    218.0669   9.1338525279e+01   7.9711345363e+00    0.4044279    0.3569275  27.71  0.003153643    1.246    0.197
        33 -10.2698    115.9356    219.4848   1.0411627255e+02   1.8938211569e+01    0.2497458    0.1345919 -89.32  0.001293533    3.759    0.734
        34 -11.4091     87.8526    218.0851   1.0892152244e+02   2.2955259434e+01    0.5064521    0.2196216  55.97  0.002982336    1.960    0.490
        35 -11.5891    126.1149    215.9375   1.0199729069e+02   1.7959468012e+01    0.4598461    0.1857786  48.54  0.002534706    1.921    0.479
        36 -11.9299    134.8932    211.7684   1.0002312646e+02   1.7221865487e+01    0.6267654    0.2451092  49.23   0.00328676    2.098    0.523
        37 -10.5769    142.5193    210.4730   9.8544902696e+01   1.6245123895e+01    0.3047951    0.1567515  32.80   0.00173973    1.934    0.483
        38 -11.0816     64.8420    216.8560   1.1290258110e+02   2.6026734226e+01     0.256826    0.1390535  49.72  0.001798682    1.299    0.230
        39  -9.0677     92.8120    242.7108   1.0987066030e+02   1.8953818676e+01    0.1553966   0.09937121  37.08 0.0007729247    1.450    0.311
        40 -10.0662     52.2731    215.5350   1.1504593714e+02   2.7699969610e+01    0.1879147    0.1488261  43.63  0.001555562    1.383    0.277
        41 -10.1361    112.3091    214.3491   1.0427040765e+02   2.0157497057e+01    0.1666662    0.1058664 -54.83 0.0006584179    2.097    0.523
        42 -11.8087     76.2460    208.9951   1.1031098145e+02   2.5819923789e+01    0.5320061    0.3330692  48.76  0.003808594    1.183    0.155
        43 -10.4816     82.3192    208.6017   1.0917184517e+02   2.5096703249e+01    0.3364928     0.264809  43.69  0.002616084    1.279    0.218
        44 -10.5216     67.3104    211.9770   1.1214335295e+02   2.6474537481e+01    0.2482569    0.1170194  68.22  0.001480746    2.167    0.538
        45  -9.7348    153.4840    209.4110   9.6518347943e+01   1.4707038789e+01    0.2271012    0.1857413  64.08  0.001151508    1.377    0.274
        46 -11.3825     50.7174    209.3150   1.1497342980e+02   2.8851745921e+01    0.3109131    0.1902956  26.21  0.002034617    2.275    0.560
        47  -8.3684    248.4070    240.8021   8.5850131722e+01  -1.8736294257e+00    0.1202739   0.07267454   3.35 0.0005501613    1.620    0.383
        48 -11.0004    198.7589    207.1111   8.8680306788e+01   7.9555006291e+00    0.5707478    0.2333558  42.43  0.003141388    1.869    0.465
        49 -10.3420     98.9927    209.0255   1.0616879477e+02   2.2789792114e+01    0.2636487    0.1352752  37.07  0.001585367    1.754    0.430
        50  -8.8296    110.3056    208.3307   1.0405168050e+02   2.1300218910e+01   0.09891122   0.08054551  20.39 0.0003136004    1.658    0.397
        51  -8.7959    246.5926    205.3340   8.1187273465e+01   9.9982671409e-01    0.1723032   0.09173288 -27.21  0.001140903    2.158    0.537
        52 -10.4159    186.7275    204.8486   9.0319091419e+01   1.0067304028e+01    0.3313569    0.1771116  25.75  0.001876501    2.050    0.512
        53 -10.3235     55.2961    203.4276   1.1378133255e+02   2.9269476863e+01    0.1785514     0.128303  42.66  0.001352226    1.342    0.255
        54 -10.3852    126.2572    204.0469   1.0071717325e+02   1.9572765596e+01    0.2183801    0.1603456  38.17 0.0009990372    1.233    0.189
        55  -9.2329    156.5218    201.0441   9.4953050859e+01   1.5294973894e+01    0.1373632    0.1157312 -44.71 0.0005367732    1.547    0.353
        56 -10.3157    232.5515    199.0945   8.2286040903e+01   3.5782598986e+00    0.3455545    0.1831185  39.47   0.00220184    1.494    0.331
        57  -9.5388    249.8596    197.8554   7.9578742925e+01   1.1418841305e+00    0.2663511    0.1561809   2.54  0.001776132    1.706    0.414
        58  -9.8885    218.2971    197.4871   8.4205624739e+01   5.8998025837e+00     0.259113    0.1376414  22.22  0.001493534    1.962    0.490
        59  -9.2993    152.3396    197.8978   9.5289090298e+01   1.6370320249e+01    0.1857811    0.1084339 -57.77  0.001092261    2.451    0.592
        60  -9.8586     41.7996    197.7827   1.1596734094e+02   3.1732573150e+01    0.1541014   0.08629064  60.41 0.0005946053    1.329    0.247
        61 -10.9216    200.3680    194.1567   8.6551223707e+01   9.0731278057e+00    0.4083806    0.2828486 -33.87   0.00278387    1.789    0.441
        62 -10.2814    229.3931    190.0148   8.1344688901e+01   4.8969802818e+00     0.276405    0.1650507  -3.37  0.001349402    1.906    0.475
        63  -8.5031     28.3690    182.8026   1.1775820594e+02   3.5743891202e+01    0.1357236   0.08311135 -74.70 0.0009497253    1.714    0.417
        64  -8.8712    177.3783    181.6591   8.8546857645e+01   1.4358681746e+01    0.1761385    0.1374349  66.46  0.001124572    1.638    0.389
        65  -9.5178    201.5071    181.3058   8.4366423165e+01   1.0315355687e+01    0.2135097   0.08858889  44.09  0.001026919    1.979    0.495
        66  -8.2725    172.3233    195.3366   9.1434194843e+01   1.3479001235e+01     0.116605   0.07821692  19.85 0.0007050875    1.715    0.417
        67  -8.7549    216.6508    169.2955   7.9875418516e+01   9.0968868604e+00    0.1070687   0.09312265  68.52 0.0007033021    1.678    0.404
        68  -9.8654    124.7559    166.9205   9.6351774586e+01   2.5533397864e+01    0.2828227    0.2721078 -41.13  0.001424276    1.303    0.232
        69  -8.6004    198.4077    159.8083   8.1215363811e+01   1.3433041438e+01    0.1668946    0.1135796 -13.03 0.0009523662    1.728    0.421
        70 -10.6655     80.9962    144.7439   1.0289271918e+02   3.6564039661e+01    0.3830874    0.2821495 -84.03  0.001625036    1.344    0.256
        71  -8.3160     20.0185    135.5154   1.1679926636e+02   4.5709574314e+01    0.1658725   0.05753872  52.92 0.0005775401    2.399    0.583
        72  -9.4158    240.1968    130.8940   6.8844540554e+01   9.1560159549e+00    0.3326081    0.1936669   7.63  0.001682015    2.026    0.506
        73 -11.2289     57.0786    128.5352   1.0670752451e+02   4.3196682061e+01    0.5713496    0.4006062 -59.76  0.003389084    1.536    0.349
        74 -11.5769    116.5893    121.4061   9.0490443662e+01   3.5299933428e+01    0.7111065    0.6160408 -54.05  0.004201309    1.244    0.196
        75 -10.4396      2.4850    109.8615   1.1972513159e+02   5.2565763585e+01    0.6082413    0.1636091 -70.33  0.002756013    2.934    0.659
        76 -11.0866    240.6858     88.8063   5.9261320188e+01   1.3824119272e+01    0.8624933    0.2212255 -34.73  0.002994313    3.430    0.708
        77 -11.8953    245.5756    107.2471   6.2929276619e+01   1.0754882893e+01    0.9228835    0.6699063   1.29  0.005390379    1.316    0.240
        78 -11.0443    245.1202    100.0962   6.1350150244e+01   1.1641992009e+01    0.6420282    0.3437312  38.51  0.003177035    1.888    0.470
        79  -9.7197    228.5242    110.5916   6.6130347317e+01   1.3747737116e+01    0.3931562     0.242799 -13.91  0.002007728    1.671    0.402
        80 -10.0491    160.5565    100.1055   7.5648311882e+01   3.0113959913e+01    0.4759265    0.4217258 -28.53  0.002487689    1.189    0.159
        81  -9.5201     48.2581     99.4451   1.0510354316e+02   5.0712307695e+01    0.2974122     0.206397 -62.32  0.001739978    1.373    0.272
        82 -10.3479     37.9921     98.4911   1.0810759242e+02   5.2079071651e+01    0.3462487    0.3045135  62.44   0.00172411    1.175    0.149
        83 -10.4435     14.1435     96.0311   1.1521117542e+02   5.4798051735e+01    0.5380439    0.2761849 -65.51  0.003051643    1.723    0.419
        84  -8.1871    135.2851     97.3447   8.0568828082e+01   3.6210070147e+01    0.1433939     0.116591   3.77 0.0004032894    1.645    0.392
        85  -9.8784    211.0013     89.7249   6.3772475124e+01   2.0155816802e+01    0.4181389    0.3056811 -23.03  0.002189273    1.337    0.252
        86 -10.0076    210.5347     85.0073   6.2629699080e+01   2.0890426523e+01    0.4900963    0.3649356 -11.05  0.002543794    1.382    0.276
        87  -8.9334     42.9739     89.2720   1.0511300377e+02   5.3650041479e+01    0.1777562    0.1542515  77.44 0.0007213507    1.089    0.081
        88  -8.4577     27.9983     89.2337   1.0999838892e+02   5.5186671692e+01    0.1887429    0.1136046  79.52  0.001040482    1.621    0.383
        89 -10.2617     84.4496     82.7384   9.0526776712e+01   4.9243440777e+01    0.5148337    0.4171172  10.64  0.002730838    1.747    0.427
        90  -8.9370    129.2007     83.2596   7.8287634358e+01   4.0233547779e+01    0.3092067    0.2036577 -53.22  0.001418006    1.605    0.377
        91 -11.3598      5.0886     67.3591   1.1526094731e+02   6.1955118639e+01    0.8349029    0.4325134  76.56  0.004561281    1.893    0.472
        92  -9.4835    213.5475     70.4868   5.8310266642e+01   2.2090819040e+01    0.4061474    0.2813978  19.35  0.001949541    1.685    0.407
        93 -10.5370    139.7567     64.3417   7.0047747062e+01   4.1267505486e+01    0.6533798    0.5424975 -76.62  0.003264162    1.378    0.275
        94 -10.1120     87.0213     64.2256   8.4528237703e+01   5.2783744664e+01    0.4486161    0.4070351  68.56  0.002579525    1.135    0.119
        95  -9.6273    250.5371     61.1497   5.1193155549e+01   1.4828176795e+01    0.4087945    0.1105876 -25.33  0.001432766    3.096    0.677
        96  -8.1727    115.4636     62.4907   7.5541573051e+01   4.7293873236e+01    0.1495807    0.1415596 -73.93  0.000451249    1.052    0.049
        97  -8.7520    184.2114     61.2016   6.0232120938e+01   3.0571903350e+01      0.26575     0.148651  23.93 0.0009502654    2.793    0.642
        98  -9.9278     20.9171     55.5256   1.0705703584e+02   6.3605700875e+01    0.4175216    0.2197338 -52.15  0.002240544    1.746    0.427
        99  -8.3760    242.0000     56.0003   5.0806337783e+01   1.7251200656e+01    0.2328965   0.07112207 -23.59 0.0008045915    2.957    0.662
       100  -9.7039     95.7617     53.9438   7.8353808889e+01   5.3186634258e+01    0.4073561    0.3434283  19.73  0.002154103    1.430    0.301
       101  -9.8641    234.6551     46.5156   4.9085352150e+01   1.9968766719e+01    0.3437153    0.1874484  -5.29  0.001460896    2.196    0.545
       102  -8.9218    183.4108     66.8040   6.2039542335e+01   2.9964821148e+01    0.2140072    0.1445827 -14.46 0.0009532914    1.673    0.402
       103  -9.2661     13.7571     49.1308   1.0888849790e+02   6.5615155874e+01    0.2191475    0.1705429 -80.61  0.001371801    1.095    0.087
       104  -9.6829    199.8944     48.1970   5.3877658739e+01   2.8308918721e+01    0.4062241    0.2961583  42.18   0.00198284    1.438    0.304
       105  -9.9279    199.6350     43.1279   5.2375808085e+01   2.9006555786e+01    0.5281029    0.4559192 -78.86   0.00280604    1.263    0.208
       106 -10.8738     81.9708     43.6415   7.9087337701e+01   5.7954454589e+01    0.6747587    0.4189663 -37.11  0.003185118    1.615    0.381
       107 -10.5118     50.1805     42.4331   9.0919157411e+01   6.3428798240e+01     0.505486    0.3725023 -35.92  0.002848111    1.434    0.302
       108  -9.6641    140.8358     38.6601   6.0888180520e+01   4.5199297953e+01    0.4157341    0.3449305 -59.49  0.002070294    1.292    0.226
       109 -10.2766     41.1920     34.8430   9.2201180293e+01   6.6230388652e+01    0.7293618     0.266585 -59.16  0.002910364    2.639    0.621
       110  -9.1429    172.3426     36.7553   5.4366024777e+01   3.7049835826e+01    0.3114465    0.2841514 -46.63  0.001643666    1.093    0.085
       111  -9.6957    109.6048     24.7398   6.2626159297e+01   5.5199816244e+01    0.5029519    0.2956781  12.55  0.001824806    2.993    0.666
       112  -9.0785    181.3326     25.1365   4.9083114016e+01   3.6029050471e+01    0.2767491    0.2030784  55.42  0.001142275    1.363    0.266
       113  -9.8168     62.7776     19.1704   7.5609955747e+01   6.6076263237e+01    0.3292442    0.2344868 -69.29  0.001635973    2.045    0.511
       114  -9.6557    143.8704    243.6780   1.0173437753e+02   1.2079861058e+01    0.3026903    0.1656943  54.64  0.002083221    1.714    0.417
       115 -10.3883    109.5736    246.2601   1.0742319393e+02   1.6370554185e+01    0.3485471    0.2937123  25.59  0.003066426    1.573    0.364
       116  -9.3086    203.1062     18.4324   4.4280246866e+01   3.0878822383e+01     0.350026    0.2242099  38.75  0.001595433    1.765    0.434
       117 -11.8307    126.3808    226.7287   1.0300710025e+02   1.6517244461e+01    0.5447695    0.3687226 -72.63  0.004003318    2.084    0.520
       118 -10.7448    134.1635    225.3492   1.0156100002e+02   1.5584834161e+01    0.3815566    0.1790704  28.40  0.001917344    3.052    0.672
       119 -10.1039    124.6477    242.6625   1.0471576446e+02   1.4809175260e+01    0.4171485     0.282417 -13.78    0.0025598    3.778    0.735
       120 -10.0904    132.0887    238.4733   1.0314711952e+02   1.4290036468e+01    0.3761392    0.1377175  36.83  0.001590794    2.313    0.568
       121  -9.8033    137.8047    236.9807   1.0208190724e+02   1.3673748549e+01    0.2462955    0.1292896  34.91   0.00161801    1.640    0.390
