#   1 NUMBER                 Running object number                                     
#   2 MAG_AUTO               Kron-like elliptical aperture magnitude                    [mag]
#   3 X_IMAGE                Object position along x                                    [pixel]
#   4 Y_IMAGE                Object position along y                                    [pixel]
#   5 X_WORLD                Barycenter position along world x axis                     [deg]
#   6 Y_WORLD                Barycenter position along world y axis                     [deg]
#   7 A_WORLD                Profile RMS along major axis (world units)                 [deg]
#   8 B_WORLD                Profile RMS along minor axis (world units)                 [deg]
#   9 THETA_WORLD            Position angle (CCW/world-x)                               [deg]
#  10 FWHM_WORLD             FWHM assuming a gaussian core                              [deg]
#  11 ELONGATION             A_IMAGE/B_IMAGE                                           
#  12 ELLIPTICITY            1 - B_IMAGE/A_IMAGE                                       
         1 -13.1475     69.0833    144.3757   8.3027255793e+01   3.7516831904e+01     2.249094    0.9782638  66.61  0.003021007    5.164    0.806
         2 -13.1616    207.5399     47.5588   2.5191922872e+01   2.7190676854e+01     1.197709     1.058858  57.45  0.003674378    1.153    0.132
         3 -12.6077    246.4292     14.0059   1.2229406561e+01   2.1909121172e+01    0.8809055    0.6655392 -45.63  0.005278687    1.232    0.188
         4 -13.3562    219.7004     37.8517   2.0912942847e+01   2.5435352977e+01     1.075848    0.8264167  38.83  0.002566647    1.559    0.359
         5 -10.2874     11.5011     12.4207   7.1035264509e+01   7.1337681495e+01    0.2371557   0.08452971 -48.55  0.001224808    2.220    0.549
         6 -10.1224      2.0000     10.4558   7.5262398884e+01   7.2247772710e+01     0.236713   0.04754585 -54.40 0.0009384236    3.965    0.748
         7  -8.9574    140.3033    221.3334   7.8277127285e+01   9.9682987195e+00    0.1201767   0.09748642  12.62 0.0001946906    1.659    0.397
         8  -9.6424     75.4303    247.2673   9.2927245948e+01   1.5606992257e+01    0.3753981    0.1137013 -64.42  0.001808883    3.576    0.720
         9  -9.8264     71.8556    244.2603   9.3306250036e+01   1.6600051574e+01    0.3207725    0.1770253 -85.60  0.001318063    1.907    0.476
        10 -12.3579     21.0746    195.3686   9.8881159750e+01   3.1839521238e+01    0.4226619    0.2395844  77.80  0.002716582    1.429    0.300
        11 -15.7908     34.1954    189.2048   9.5927305228e+01   3.1745376287e+01     10.12044     4.038951  78.60   0.03914716    3.124    0.680
        12  -9.3088     84.9331    201.0316   8.6860337551e+01   2.2792925078e+01    0.1926268    0.1499335  71.60 0.0003217594    1.085    0.078
        13  -8.6194     70.9725    200.3278   8.9609488483e+01   2.4931154814e+01    0.1683993    0.1292531  64.86 0.0003963078    1.076    0.070
        14 -10.1606    192.6979    194.4739   6.3563520434e+01   4.8904858386e+00    0.6156657    0.3367666 -64.79  0.002041377    5.089    0.804
        15 -13.2861     45.9991    180.7992   9.2805511313e+01   3.2200398604e+01     1.026117    0.6604642  67.94  0.003940594    1.368    0.269
        16  -9.4323     55.0978    190.2910   9.1831955722e+01   2.9090640214e+01    0.2243422    0.1442465  88.81 0.0004364517    1.391    0.281
        17 -14.0395     10.2819    188.6431   1.0046828581e+02   3.4216138326e+01     1.093762    0.6818211  75.83  0.003367297    1.225    0.184
        18 -10.0199     99.2064    180.9449   8.1287478950e+01   2.4757350986e+01    0.2704806    0.2280228  44.10 0.0007099366    1.241    0.194
        19  -8.9116    181.6175    180.2125   6.3154657508e+01   9.4957810480e+00    0.1916766    0.1348105 -28.96 0.0009473544    1.649    0.393
        20  -9.4899    120.7953    180.1176   7.6352787251e+01   2.1246311607e+01    0.2147213     0.174034  73.05 0.0005920236    1.216    0.178
        21 -10.6000    104.2988    171.9932   7.8812379690e+01   2.5850102173e+01    0.5620481    0.2003228  38.84   0.00210256    2.796    0.642
        22 -10.1097     69.5759    171.1768   8.6626452761e+01   3.1332142261e+01    0.3310481    0.2307703  31.83  0.001864446    1.720    0.419
        23 -11.3586     74.8348    166.3038   8.4793000615e+01   3.1689484031e+01     1.591822    0.6359833  46.63  0.005789656    2.376    0.579
        24 -12.9030     58.9511    127.7976   8.3036701872e+01   4.2712200315e+01     1.404474    0.7215858 -80.84  0.004066972    2.359    0.576
        25 -11.4440     61.9915    167.5001   8.7891086944e+01   3.3158676378e+01    0.4226472    0.2994954 -30.48  0.002237221    2.379    0.580
        26 -11.2047     66.9755    163.2355   8.6210570870e+01   3.3462636999e+01    0.2819659    0.2118998 -58.03  0.001662442    1.400    0.286
        27 -12.8857     64.0632    150.3046   8.5153054148e+01   3.6804147297e+01     0.644548    0.4869299  42.83  0.001154736    1.410    0.291
        28  -9.4498    110.5857    167.2599   7.6598469585e+01   2.5808106187e+01    0.3031938     0.214048 -84.63  0.001017038    1.614    0.381
        29 -15.3221      7.0705    209.3840   1.0216862159e+02   3.0435181427e+01     1.475516     1.126741  80.38   0.01197841    1.160    0.138
        30 -14.5427      5.7868    249.1246   1.0407976845e+02   2.3470733254e+01    0.5216269    0.2656363  43.03  0.002533567    1.833    0.454
        31 -10.2855    245.9927    162.9993   4.7216267407e+01  -2.5165548285e-01    0.2316385    0.1533752   7.99  0.001149878    1.757    0.431
        32 -16.4234      9.4740    237.4843   1.0306388877e+02   2.5086377294e+01     2.279313     1.115434  40.57   0.01563437    2.003    0.501
        33 -11.4626     37.0083    160.6914   9.2776489894e+01   3.7595339120e+01    0.3825037    0.2520728  86.64  0.001580731    1.316    0.240
        34 -11.0072     33.4901    157.4709   9.3242367576e+01   3.8673696922e+01    0.2278065    0.1925509  71.17 0.0006226737    1.158    0.137
        35 -10.6470    133.8107    145.6794   6.6991390151e+01   2.6212893349e+01     1.262127    0.3206443 -55.52  0.002992847    6.044    0.835
        36 -11.7359     84.0938    149.3181   8.0039955028e+01   3.4214089551e+01    0.5849868    0.4685408 -20.87  0.001782484    1.826    0.452
        37  -9.0000    174.8342    149.1434   5.8200838964e+01   1.6801585579e+01    0.2274752    0.2098803  83.19 0.0005769454    1.207    0.172
        38 -11.2179    135.3353    205.5391   7.7084099202e+01   1.3641144832e+01    0.4364656    0.2444522  31.82  0.002045532    2.045    0.511
        39  -9.8103     28.9819    142.7805   9.2751048255e+01   4.2419190314e+01    0.2517851     0.192907 -37.87  0.001313699    1.736    0.424
        40  -8.6736    179.5285    141.4658   5.5433600755e+01   1.7287687978e+01    0.1523036    0.1472318  61.27 0.0008079327    1.073    0.068
        41 -10.2384     99.6043    136.2848   7.3725233339e+01   3.4749194027e+01    0.5396312    0.3549063 -18.12  0.002144137    2.974    0.664
        42 -11.5736     86.2420    135.4712   7.7079679151e+01   3.7117210495e+01    0.2836277    0.2525539 -64.68 0.0004956975    1.091    0.083
        43 -10.1069     49.7569    134.2420   8.6470690941e+01   4.2275274346e+01    0.2068515    0.1889074 -85.60 0.0003509219    1.113    0.101
        44 -10.3723    108.6674    204.3221   8.2397794750e+01   1.8431334035e+01    0.2615344    0.1662891  68.81  0.001384583    1.654    0.395
        45  -9.3361    105.4835    130.0011   7.0894035350e+01   3.5183280670e+01    0.3050409    0.2202784 -58.73  0.001133937    1.348    0.258
        46  -9.3149    109.0524    128.1961   6.9559504689e+01   3.4955326797e+01    0.3531949    0.2525055   8.49  0.001149292    2.227    0.551
        47  -9.9361     44.2412    129.6647   8.7256600310e+01   4.3942810984e+01     0.223455     0.171509  77.68 0.0009952431    1.282    0.220
        48  -9.0550    136.0000    129.0436   6.2770452226e+01   2.9447811098e+01    0.2570812   0.08754538 -47.77 0.0008058177    2.966    0.663
        49 -10.2480     96.3062    123.8903   7.2069706851e+01   3.8203556659e+01    0.2783266    0.2450146  -3.61  0.000774208    1.421    0.296
        50 -10.8495    231.6832    170.3407   5.1314581665e+01   1.2998610882e+00    0.2347756    0.2184848 -89.78  0.001392406    1.503    0.335
        51 -10.3282    136.1240    116.9826   5.9820159998e+01   3.2086985955e+01    0.4815395    0.3013795 -56.56  0.001546532    1.746    0.427
        52  -8.9375    106.3491    117.4287   6.7869754335e+01   3.7937525855e+01    0.1805391    0.1420358  53.24 0.0009000908    1.322    0.244
        53 -11.0438    230.4839    166.5136   5.0734903461e+01   2.1264655694e+00    0.4382825    0.2351674  53.14   0.00192045    2.247    0.555
        54  -9.5738    205.3482    110.4184   4.2472535959e+01   1.7256580573e+01    0.3022636      0.25319  42.68 0.0008775624    1.209    0.173
        55 -12.2484     76.2016    155.5452   8.2950901656e+01   3.3939674732e+01     1.182808    0.5473166  65.80  0.004317342    3.468    0.712
        56  -9.1881    134.2313    104.0360   5.6943446288e+01   3.5320410206e+01    0.3171046    0.1435749 -45.82  0.001141645    2.202    0.546
        57  -9.6512     31.8285    108.7958   8.7569183936e+01   4.9985572640e+01    0.2315012    0.1533214  55.71  0.001345723    1.736    0.424
        58  -8.6603     59.8617     99.8421   7.7513314932e+01   4.9156776544e+01    0.1776063    0.1494917 -89.39 0.0004776376    1.278    0.218
        59  -8.5501     48.3137     92.6792   7.9613620422e+01   5.2120853235e+01    0.1284499   0.09572237  80.50 0.0003545855    1.654    0.395
        60  -8.6252    161.4852     85.4620   4.4920556095e+01   3.2722875392e+01    0.1570595    0.1550029  70.35 0.0002231305    1.019    0.018
        61  -8.8871     88.3349     83.5554   6.4481312300e+01   4.8731155406e+01    0.1719855    0.1407143  22.80 0.0004634323    1.347    0.258
        62 -12.5335    197.1851     54.5533   2.8772440493e+01   2.8841986838e+01    0.9651326    0.7840347  24.42 0.0009651817    1.480    0.324
        63  -9.8254    112.8035    242.0644   8.5897413803e+01   1.1008594815e+01    0.3428876    0.1609376  51.74  0.001837608    1.714    0.417
        64 -11.4111     12.7719     59.9166   8.4864351405e+01   6.2208922314e+01    0.3290357    0.2440875  25.25 0.0009172288    1.692    0.409
        65  -8.8955     79.9556     59.0208   5.9652630700e+01   5.5157512644e+01    0.2001685    0.1713043 -85.71 0.0006114101    1.651    0.394
        66 -11.2665    103.1566    198.6648   8.2817272621e+01   2.0445708241e+01    0.4847808     0.339017 -71.06   0.00105308    1.498    0.332
        67 -10.2091      2.4901     21.5114   7.8983642733e+01   7.0288793035e+01    0.2318556   0.08248802 -56.06  0.001211587    2.168    0.539
        68  -8.7867     60.3356     21.0218   5.2223734231e+01   6.4664532913e+01    0.1753094    0.1397386 -16.49 0.0004408984    1.090    0.083
        69  -8.9359    119.0144    238.4671   8.4386906755e+01   1.0623428332e+01    0.1676443    0.1426329  72.44 0.0004689124    1.170    0.145
        70  -9.1739    189.5022     15.0254   1.8539875331e+01   3.6021216590e+01     0.200626     0.140999 -27.66 0.0005785621    1.557    0.358
        71 -12.0865    143.5843    228.4181   7.8574686848e+01   8.2246637650e+00    0.7360257    0.2506117  45.71  0.003116123    2.376    0.579
        72 -11.8711    128.0030    230.8609   8.1846669215e+01   1.0432228899e+01     0.426495    0.3546363  75.24  0.002389055    1.222    0.182
