#   1 NUMBER                 Running object number                                     
#   2 MAG_AUTO               Kron-like elliptical aperture magnitude                    [mag]
#   3 X_IMAGE                Object position along x                                    [pixel]
#   4 Y_IMAGE                Object position along y                                    [pixel]
#   5 X_WORLD                Barycenter position along world x axis                     [deg]
#   6 Y_WORLD                Barycenter position along world y axis                     [deg]
#   7 A_WORLD                Profile RMS along major axis (world units)                 [deg]
#   8 B_WORLD                Profile RMS along minor axis (world units)                 [deg]
#   9 THETA_WORLD            Position angle (CCW/world-x)                               [deg]
#  10 FWHM_WORLD             FWHM assuming a gaussian core                              [deg]
#  11 ELONGATION             A_IMAGE/B_IMAGE                                           
#  12 ELLIPTICITY            1 - B_IMAGE/A_IMAGE                                       
         1 -14.2320     72.9852     73.3836   4.9864480046e+01   5.3908099606e+01     2.664549     1.318046 -47.51   0.01087703    1.965    0.491
         2 -14.4577    237.3989     48.3684   7.8705718526e+00   2.0742029615e+01      1.75662    0.9694816 -71.09  0.008780763    2.201    0.546
         3 -14.2413    136.7663     33.1278   1.6956875931e+01   4.6484610221e+01     1.495476    0.8397597 -88.66  0.005789156    2.661    0.624
         4 -12.7768     41.2937     14.4635   3.9227414740e+01   7.0308187346e+01     0.527125      0.47709 -75.17  0.003318281    1.696    0.410
         5 -13.5190     46.9734     30.7541   4.4681393206e+01   6.6775480953e+01     1.233181    0.7296734 -36.73  0.006257888    1.639    0.390
         6 -13.2798     38.5923     21.1818   4.4320660911e+01   6.9691453271e+01    0.7411951    0.5706465 -51.65  0.003422199    1.642    0.391
         7 -14.9784    116.0723      8.0705   1.1614907142e+01   5.4554452980e+01     1.982616      1.18963  76.81  0.009593248    1.666    0.400
         8 -13.0617    186.2929      8.2417   2.6466441566e+00   3.6792017353e+01    0.9283249    0.4821647  89.15  0.004106775    1.932    0.482
         9 -11.7503    216.7173     12.0775   1.1833081585e+00   2.9373886185e+01    0.6244866    0.1995247 -49.86  0.002608612    2.704    0.630
        10 -11.4683    242.1915      5.0807   3.5802488812e+02   2.4749737539e+01    0.2946755    0.1532986 -74.41  0.001661653    1.839    0.456
        11 -12.1478     36.9890      2.6732   3.4459142935e+01   7.2613598824e+01    0.6136674    0.1761399  41.07  0.002391882    3.213    0.689
        12 -11.6358    209.8138      1.9665   3.5924549985e+02   3.1926282204e+01    0.4448269    0.1702109  79.03   0.00197494    2.510    0.602
        13 -10.4776     24.6435      1.6962   4.1209431725e+01   7.4668294017e+01    0.1287453   0.08118492   4.08 0.0007039595    1.716    0.417
        14 -11.2775     81.6016    206.2559   7.2638605290e+01   2.1226834863e+01    0.4032567    0.1860213  43.06  0.001896065    1.832    0.454
        15 -12.0293    249.2538    247.8410   4.5103913451e+01  -7.9047870686e+00    0.3966751    0.2021533 -15.45  0.002578967    1.809    0.447
        16 -11.9691    208.9941    249.7551   5.2062787351e+01  -3.5569246511e+00    0.3012781    0.1406141  37.55  0.001721049    2.066    0.516
        17 -12.5102    172.5887    249.3268   5.8633572370e+01   1.1007224817e+00    0.3327887    0.2080678  33.05  0.001484531    1.312    0.238
        18 -12.8635    151.8534    250.2036   6.2723632861e+01   3.7381772799e+00    0.6266962    0.1363959  34.55  0.002335646    3.568    0.720
        19 -14.4803     90.6935    247.8194   7.4734222197e+01   1.2275724267e+01     1.157036    0.4156313  39.56  0.004971199    2.051    0.512
        20 -15.5038    100.9350    234.6341   7.1344874972e+01   1.3174948589e+01     1.859691     1.022676  53.53  0.007426029    1.859    0.462
        21 -14.7708    124.8802    224.9480   6.5119546883e+01   1.1487246105e+01     1.071446     0.578222  46.47  0.005533755    1.761    0.432
        22 -15.7817    110.4048    218.0416   6.7426053485e+01   1.4830187985e+01     4.124786     1.639792  43.80   0.01396754    2.213    0.548
        23 -14.3221     12.1450    157.1082   8.5745496666e+01   4.0297833083e+01     3.237978    0.8318914  57.41   0.01013295    4.932    0.797
        24 -13.8233      5.2010    223.1628   9.0730127515e+01   2.6393676582e+01     1.708319    0.4547857  77.22  0.006376159    4.756    0.790
        25 -13.7903     30.1975    239.1745   8.6399180747e+01   2.0935493818e+01     1.002754    0.4068888  69.14  0.004320151    2.593    0.614
        26 -14.3028     33.6341    230.8902   8.5268133459e+01   2.2130340496e+01    0.9812263    0.3132106  47.19  0.004603315    2.283    0.562
        27 -14.3616     34.0814    218.8087   8.4474093989e+01   2.4450846525e+01    0.9650882    0.7696719  83.13  0.005329527    1.211    0.174
        28 -15.1305     19.2199    191.2552   8.6171399079e+01   3.1768419729e+01     2.286637    0.8936883  74.76  0.009830054    2.852    0.649
        29 -15.3577     16.5992    173.1565   8.5673071008e+01   3.6118506485e+01     2.709023    0.6391078  55.87   0.00853126    4.922    0.797
        30 -12.6588      5.3009    244.9785   9.1434292763e+01   2.2300690344e+01    0.6062307    0.2115981 -87.47  0.003222127    2.893    0.654
        31 -11.7486     84.1442    201.2798   7.1478478897e+01   2.1903728369e+01    0.3342264    0.2465641  70.80  0.001789313    1.445    0.308
        32 -12.3213    122.3845    198.7229   6.2123049533e+01   1.6691393860e+01    0.3884722    0.3142115  84.15  0.001949957    1.582    0.368
        33 -13.4399    136.0137    195.1998   5.8460236836e+01   1.5190125066e+01    0.7353998    0.5643629  47.50  0.003916156    1.303    0.232
        34 -12.2759    155.6169    190.7687   5.3359004018e+01   1.2799909622e+01    0.4459285    0.3001024 -49.34  0.002297085    1.694    0.410
        35 -12.9437    151.5718    186.0069   5.3432330818e+01   1.4351707793e+01    0.6751397    0.4224208  -9.67   0.00293142    2.526    0.604
        36 -13.1998     79.9112    167.2643   6.8148409146e+01   3.0076127859e+01     1.926271      1.14378  84.70  0.008174377    2.391    0.582
        37 -14.4683     98.6591    180.5839   6.5194191652e+01   2.4193041775e+01     1.605645     1.018586 -76.07  0.007000823    1.982    0.495
        38 -12.5736    176.1298    185.9894   4.8162249966e+01   1.0252540702e+01    0.4332431     0.376016 -38.86  0.002644249    1.290    0.225
        39 -12.0147    173.1604    179.9370   4.7672457810e+01   1.1801660667e+01    0.4461819    0.3716808 -40.29  0.002299094    1.304    0.233
        40 -14.5582      7.1941    132.9644   8.5340073672e+01   4.6589224256e+01     1.451725    0.8233586 -76.85  0.006326234    1.513    0.339
        41 -10.7168    129.9948    170.2769   5.5676277130e+01   2.1193528961e+01    0.2148764    0.1809108  36.11 0.0009356889    1.108    0.098
        42 -13.3753     89.5497    187.3510   6.8432604367e+01   2.4097444853e+01    0.8328599     0.711665 -89.14  0.003860415    1.244    0.196
        43 -11.8567     36.7097    164.3367   7.9627723268e+01   3.6271915608e+01    0.5471489    0.2484921  64.32  0.001479228    2.563    0.610
        44 -12.2410     25.2088    146.9371   8.1185569058e+01   4.1677027511e+01     1.405022    0.6543288  85.29  0.005977614    2.408    0.585
        45 -12.0232     42.3536    148.1153   7.6243880977e+01   3.9649818481e+01    0.3667647    0.2829673 -43.59 0.0006941492    1.488    0.328
        46  99.0000     33.6311    139.9212   7.7895043678e+01   4.2631376775e+01     1.655771    0.7243714  80.77  0.005906218    3.392    0.705
        47 -12.0859    230.3112    158.1507   3.2763089381e+01   5.9379565798e+00    0.5498536    0.2184392  39.96  0.002462187    2.698    0.629
        48 -14.5270     20.3797    244.5024   8.8561960658e+01   2.0957907937e+01     1.340436    0.4844956  50.17  0.007389884    1.967    0.492
        49 -13.1845    127.6118    132.5939   4.8623203800e+01   2.9839161388e+01     1.071214    0.5394571 -47.91  0.004228178    2.017    0.504
        50 -11.9758    108.7349    143.6259   5.6100658303e+01   3.0912599249e+01    0.5753836    0.3788485 -66.37  0.002089529    1.765    0.434
        51 -14.0842    107.7667    127.4508   5.2910793105e+01   3.4877715792e+01     1.739778     1.305978 -78.39  0.007819753    1.655    0.396
        52 -14.6755    114.5655    115.5193   4.8120997257e+01   3.6312893170e+01     1.601816     1.150662 -84.97  0.006791171    2.031    0.508
        53 -10.4719     73.7690    133.8138   6.4452319591e+01   3.9143239180e+01     0.202323    0.1913041 -42.75 0.0004418835    1.130    0.115
        54 -13.4119    229.4414    124.4119   2.5903813417e+01   1.1244482404e+01    0.9496937    0.5047357 -34.28  0.003885066    1.641    0.391
        55 -10.9551     44.6575    128.5667   7.2869033606e+01   4.4342607592e+01    0.4145609    0.2164868  65.15  0.001665287    2.528    0.604
        56 -11.5458     43.0029    122.5623   7.2489820339e+01   4.6067182004e+01    0.4184199     0.286778 -76.75  0.001125455    1.409    0.290
        57 -12.1355     24.3866    122.5274   7.8751284891e+01   4.7916119551e+01    0.6417683    0.3415218 -85.19  0.002964716    1.888    0.470
        58 -13.7240    117.0328    104.8106   4.4644046299e+01   3.8216499732e+01    0.8349572    0.5348057 -47.49   0.00310152    1.568    0.362
        59 -12.7147     90.1374    109.6776   5.4063640536e+01   4.2383786198e+01     1.371406    0.7817635 -68.76  0.005254107    2.347    0.574
        60 -13.7044      8.8794    105.3082   8.2084561781e+01   5.3441989025e+01     1.063304    0.6283321  75.29  0.004206133    1.804    0.446
        61 -12.7880      2.0248     94.0447   8.3347925890e+01   5.6651124521e+01    0.6341737    0.2626245 -76.27  0.002556399    2.056    0.514
        62 -12.3094    102.3763    110.7932   5.0519586600e+01   3.9821553396e+01    0.4104926    0.3613675 -65.13  0.001694445    1.178    0.151
        63 -10.1074     71.8027    107.4648   5.9638564842e+01   4.6033840808e+01     1.211273     1.044926 -25.31  0.006387211    1.283    0.221
        64 -14.3071     69.8850    240.7049   7.8414353180e+01   1.6135568968e+01     1.578153    0.7795596  66.62  0.007997847    2.495    0.599
        65 -12.2271     20.6754    105.1641   7.7742800156e+01   5.2656488704e+01    0.6964771    0.2600476 -64.51  0.002386749    2.190    0.543
        66 -11.4211     47.0678    106.1807   6.8173520992e+01   4.9790036411e+01    0.4811178    0.2102746 -60.12  0.001952141    2.050    0.512
        67 -13.4662    101.0624     99.6355   4.7990620739e+01   4.2663583277e+01    0.8555562    0.6586769 -80.85  0.003928714    1.670    0.401
        68 -13.3828     98.5364     88.1416   4.5513993526e+01   4.5760993665e+01      1.05753    0.6595241 -30.09  0.004357733    1.972    0.493
        69 -13.3551     84.5921     91.2933   5.1056951855e+01   4.7748816225e+01     0.942515    0.5342178 -48.28  0.003940564    1.728    0.421
        70 -13.5575     90.3944     77.9877   4.5079789242e+01   4.9622979908e+01     1.198992    0.8469487 -43.85  0.004414335    1.408    0.290
        71 -12.2505     12.2646     90.3970   7.8829707852e+01   5.6991825872e+01    0.5392227    0.3465821 -43.62  0.002718693    1.521    0.342
        72 -13.4678     12.7496     78.4778   7.6693132800e+01   5.9928750762e+01    0.8889301    0.5543844  78.62  0.003144903    1.942    0.485
        73 -12.7266     54.9877     84.7906   6.0254576665e+01   5.4098345905e+01    0.8200014    0.5273545 -31.16  0.003760277    1.812    0.448
        74 -13.5318     53.6074     67.2618   5.5749339589e+01   5.8396779507e+01    0.8659827    0.7540921 -28.37  0.003611376    1.107    0.097
        75 -13.0142     52.4911     58.9942   5.3494991843e+01   6.0385733067e+01    0.8877606    0.5918231 -62.74  0.004051124    1.767    0.434
        76 -13.2634     46.3744     80.9624   6.2757844943e+01   5.6160980122e+01    0.8213024    0.5359411  40.75  0.003209259    1.658    0.397
        77 -13.4910     42.4886     68.9636   6.1148174868e+01   5.9492782081e+01      1.45709    0.9206551 -72.39  0.005988933    1.934    0.483
        78 -11.2200     45.7614     98.7549   6.7154040920e+01   5.1828155514e+01    0.2448577    0.1818683  21.02  0.001185243    1.488    0.328
        79 -11.2510      3.6623     73.9262   7.9954300144e+01   6.1550721045e+01    0.3568474    0.2397301  78.07  0.001982247    1.669    0.401
        80 -11.4859    210.4142     72.3470   1.6589259579e+01   2.3048897653e+01      0.40249    0.2559091  64.00  0.002049361    1.726    0.421
        81 -12.9110    216.3962     36.5579   7.0952452358e+00   2.6643774339e+01    0.7856235    0.3578495  77.30  0.003313478    2.474    0.596
        82 -13.2822      2.4290    160.1588   8.8545809926e+01   4.0301825698e+01     1.089019    0.3685446 -84.51  0.004611366    2.674    0.626
        83 -12.5934    219.1828     63.6332   1.3351456547e+01   2.2442066292e+01    0.5264496    0.3593955  55.48  0.002385223    1.633    0.388
        84 -14.1409    226.4246     56.5438   1.0845810347e+01   2.1904139251e+01     1.077294    0.5537354 -44.35  0.005262669    1.667    0.400
        85 -13.9700    215.3197     54.9381   1.1694585225e+01   2.4481063024e+01     1.195904    0.8296945 -55.97  0.005544627    1.357    0.263
        86 -12.0661     15.6256     60.8315   7.1712027929e+01   6.3999942377e+01    0.5004321    0.3447022 -89.86  0.002583158    1.768    0.434
        87 -13.3136     69.4406     96.9286   5.7918042816e+01   4.8998422187e+01    0.7815867    0.6796488   8.16  0.002670892    1.277    0.217
        88 -11.2387     68.0149     50.4475   4.3677100040e+01   5.9560255784e+01     0.324394     0.260769  35.29  0.001439184    1.236    0.191
        89 -13.2439    158.2684     44.5580   1.6816040440e+01   3.9469189822e+01    0.8705682     0.691752  86.66  0.004574019    1.293    0.226
        90 -11.7188     49.9387     45.0027   4.9439831951e+01   6.3662705792e+01     1.256388    0.2853341  40.19  0.003796365    4.573    0.781
        91 -13.3450    190.4104     41.9349   1.1345482634e+01   3.1913504454e+01    0.7917029    0.5608298 -47.19   0.00261748    1.309    0.236
        92 -12.8478    189.8010     29.5721   8.0710669805e+00   3.3614817192e+01     0.583212    0.3490535 -31.03  0.002935416    1.672    0.402
        93 -12.1243     26.5242     37.9363   5.8773333717e+01   6.8131110908e+01    0.6594126    0.4287835   9.91  0.002811279    1.655    0.396
        94 -14.6206     51.1204    244.3078   8.2497424813e+01   1.7718926556e+01     1.262902    0.6701667  57.94  0.007032913    1.649    0.394
        95 -11.0740     76.9188    230.6138   7.6091360773e+01   1.7088052951e+01    0.3314895    0.2332712 -87.68  0.002063884    1.648    0.393
        96 -11.5796     14.8137    222.0323   8.8720771416e+01   2.5738252974e+01    0.9460343    0.2944676  83.21  0.003853997    3.945    0.747
        97 -12.6603    150.1069    223.0368   5.9532460976e+01   8.1061698963e+00    0.3335281    0.2618217  48.36  0.002084803    1.397    0.284
        98 -13.0224     65.5269     90.9234   5.7805526333e+01   5.1068028752e+01    0.6141291    0.4862144 -48.93  0.002201137    1.210    0.173
        99 -11.0056    175.3291     24.6685   8.3831083453e+00   3.7722592548e+01     0.149839   0.09147539 -63.49 0.0007051761    1.717    0.418
       100 -13.8073     51.1246    224.7973   8.1186387377e+01   2.1364932773e+01     1.199346    0.5444559  56.96  0.006079711    2.060    0.515
       101 -11.4460    172.2472     16.2145   6.2908288814e+00   3.9422682141e+01    0.2629853     0.236343 -37.37  0.001612111    1.199    0.166
       102 -12.1714     73.3629    201.1827   7.4040847778e+01   2.3401052537e+01    0.7638832    0.3114152  61.13  0.002691733    3.860    0.741
       103 -14.9177     54.1599    177.2520   7.6283297766e+01   3.1205962357e+01     2.432787     1.100468  89.97  0.009371836    3.137    0.681
       104 -14.5394     61.3305    207.4268   7.7491831846e+01   2.3643133462e+01     1.341836    0.5730548  59.49  0.005662661    2.714    0.632
       105 -13.7524     53.1171    197.1733   7.8505546215e+01   2.6837289515e+01     1.017043     0.297662  50.96  0.003656971    3.478    0.712
       106 -13.2907      5.4779    202.1215   8.9855009568e+01   3.0644153681e+01     0.764167    0.2841365  69.42   0.00340941    2.543    0.607
