#   1 NUMBER                 Running object number                                     
#   2 MAG_AUTO               Kron-like elliptical aperture magnitude                    [mag]
#   3 X_IMAGE                Object position along x                                    [pixel]
#   4 Y_IMAGE                Object position along y                                    [pixel]
#   5 X_WORLD                Barycenter position along world x axis                     [deg]
#   6 Y_WORLD                Barycenter position along world y axis                     [deg]
#   7 A_WORLD                Profile RMS along major axis (world units)                 [deg]
#   8 B_WORLD                Profile RMS along minor axis (world units)                 [deg]
#   9 THETA_WORLD            Position angle (CCW/world-x)                               [deg]
#  10 FWHM_WORLD             FWHM assuming a gaussian core                              [deg]
#  11 ELONGATION             A_IMAGE/B_IMAGE                                           
#  12 ELLIPTICITY            1 - B_IMAGE/A_IMAGE                                       
         1 -13.1158    210.8973     49.3009   3.5504052950e+01   2.7091477050e+01     1.051794     0.965594  69.94  0.006813371    1.253    0.202
         2 -13.9819    228.7447     35.8620   3.0879435593e+01   2.5203494838e+01     1.572137     1.001188  47.30  0.009125999    2.217    0.549
         3 -11.6736     17.9312      3.1537   6.8465228305e+01   7.3998595323e+01    0.4631903    0.2694538 -37.67  0.002754294    1.944    0.486
         4 -13.2239      5.0300      7.7180   7.9835006197e+01   7.4851010959e+01     1.352631    0.7455156 -36.40  0.008178539    1.630    0.387
         5 -10.8530    250.0582     14.8051   2.5249143764e+01   2.3625459833e+01    0.4656073    0.1754095 -33.50  0.002016006    2.511    0.602
         6  -9.5310     57.9923      1.7641   4.8578279367e+01   6.7290586171e+01    0.1689501   0.08850812  52.67 0.0008016488    1.635    0.388
         7  -9.4464     22.6340    224.6364   1.1380109273e+02   2.3136672954e+01    0.2741099    0.1240132  58.62  0.001348253    2.060    0.515
         8 -12.7354      9.1171    229.9062   1.1700239546e+02   2.3294976271e+01     1.143439    0.6415751  75.12  0.002011243    1.612    0.380
         9 -11.8205     53.4456    170.4928   1.0094942848e+02   3.2624482009e+01    0.3775782    0.2828074 -38.35 0.0009099102    1.527    0.345
        10 -14.7658     27.8732    245.6385   1.1394106314e+02   1.8258461437e+01     6.284812     1.668542  21.80   0.01776776    7.737    0.871
        11 -14.6207    101.4074    228.7504   9.6093669761e+01   1.2686022636e+01     5.920441     1.028897  38.94   0.01793297    4.286    0.767
        12 -10.1725    193.0233    194.5579   7.0182273774e+01   5.4728485168e+00    0.5757592    0.2712675 -57.55  0.001879244    4.966    0.799
        13  -8.5222     99.6512    180.7359   8.9646192013e+01   2.3543590024e+01    0.1474984    0.1137982  -9.11 0.0002910964    1.612    0.379
        14  -8.3927    187.4862    176.5111   6.7839413708e+01   9.6385592464e+00    0.1423358    0.1220642 -11.02  3.58762e-06    1.056    0.053
        15 -10.2322     99.9867    171.0941   8.7897979216e+01   2.5804894379e+01    0.3500006    0.1801411  47.04  0.001382064    2.083    0.520
        16  -8.8884    110.9219    167.6712   8.4290725420e+01   2.4810609841e+01    0.2111068    0.1830567  39.56 0.0003980085    1.140    0.123
        17 -12.7308     55.8115    126.4597   9.3069740280e+01   4.3768577527e+01     3.121606     1.009817 -72.11  0.006386843    8.369    0.881
        18 -12.9677     74.8882    155.5434   9.2352993579e+01   3.3585228156e+01     1.671293    0.9646353  62.04  0.002063061    2.393    0.582
        19 -10.6490     46.6301    146.6417   9.9604607292e+01   3.9609892427e+01    0.2737407    0.1799863 -65.86  0.001318556    1.420    0.296
        20 -12.0878     78.2106    139.8811   8.8391826151e+01   3.7101848783e+01    0.3956801     0.315839 -56.59 0.0004726182    1.219    0.180
        21 -10.4192     59.4844    226.5862   1.0560475133e+02   1.8650293826e+01    0.3164394    0.1824427  81.63  0.001472945    2.134    0.531
        22 -10.3466     90.9926    142.0071   8.4884632183e+01   3.4499782993e+01    0.3633288    0.3288359  64.36  0.001045923    1.184    0.155
        23  -9.9517     94.2149    138.8511   8.3238020378e+01   3.4742423225e+01    0.3724104    0.2767814 -12.40  0.001100514    1.738    0.425
        24 -11.0029     65.6292    161.2468   9.6061166781e+01   3.3426100310e+01    0.2757207    0.2623774 -20.27 0.0003668508    1.140    0.123
        25  -8.6994    136.0228    132.0224   6.9903138583e+01   2.8457213628e+01    0.1937315    0.1686782 -42.28 0.0005988879    1.127    0.113
        26 -10.6512    105.6331    130.7435   7.7989994336e+01   3.4686900117e+01    0.4110177    0.3569687   6.77 0.0009484632    1.259    0.206
        27 -13.3412     51.1599    157.3133   9.9792980347e+01   3.6292095590e+01    0.5745175    0.3714569 -36.01  0.001499743    1.844    0.458
        28 -10.5982    141.4313    223.4763   8.6193973890e+01   7.9351451255e+00    0.3493316    0.2162487 -54.41  0.001782133    1.917    0.478
        29  -9.6908    244.6710    125.6726   4.7706641386e+01   9.2031714801e+00    0.1247366   0.09019094 -10.07 0.0004146799    1.706    0.414
        30  -9.5974    113.9091    124.2617   7.4015838657e+01   3.4646008762e+01    0.4826663    0.2943577   0.16  0.001519666    3.692    0.729
        31 -10.3785     91.4967    126.8197   8.1372401047e+01   3.8202737935e+01    0.3110453    0.2667553 -12.06 0.0005711886    1.291    0.225
        32 -13.0654     68.1601    144.3633   9.2415977828e+01   3.7437878564e+01    0.9687355    0.6661993  65.36  0.003395921    1.794    0.443
        33  -9.5568    103.5235    119.1518   7.5800410203e+01   3.7859345863e+01    0.2460494    0.2114499  33.84 0.0002845643    1.177    0.151
        34  -9.7282    204.7784    110.7521   5.0434297298e+01   1.8720604445e+01    0.3450706    0.2387587  36.17  0.001777709    1.752    0.429
        35 -11.0649     53.4825     91.8129   8.5990385785e+01   5.2765067518e+01    0.6386297    0.3787668 -57.53  0.002890354    1.675    0.403
        36  -9.5893     41.5424     92.1507   9.0858198255e+01   5.4186414320e+01    0.2385473    0.1971047  19.81 0.0005231565    1.275    0.216
        37 -10.4677    163.5110     85.1459   5.1503478590e+01   3.2000982040e+01    0.4513818    0.1786136  48.35  0.001398144    2.617    0.618
        38  -8.6591    184.5251     77.4725   4.5776221623e+01   2.8600788408e+01    0.1356946    0.1310244 -46.52 7.968631e-05    1.102    0.092
        39  -9.5945     62.0856     70.5848   7.6212086224e+01   5.6241463065e+01    0.3162837    0.1759147 -32.22  0.001352315    1.986    0.496
        40  -8.8399    160.4966     67.4490   4.7271437860e+01   3.5680907355e+01    0.1447642    0.1305551 -77.00 5.218339e-05    1.092    0.084
        41 -10.4658     13.2941     60.2969   9.5363082592e+01   6.4249811332e+01    0.3255417    0.2083072 -45.20  0.000516513    1.305    0.233
        42 -11.3399      9.2339     56.1103   9.6297228391e+01   6.5450212403e+01    0.4303201    0.2598369 -87.35  0.002012535    2.764    0.638
        43 -10.4650     11.5298     53.0426   9.4211046557e+01   6.5954613603e+01    0.2255841    0.1749092   2.10 0.0006775295    1.290    0.225
        44 -14.2568     11.6555    204.5280   1.1504743171e+02   2.8641609943e+01     1.143856    0.9552183 -44.79  0.005516256    1.499    0.333
        45 -12.3644     43.0768    215.8028   1.0848336937e+02   2.2929479841e+01    0.6735631     0.440443  54.23  0.001150067    1.381    0.276
        46 -10.7545      2.6711     51.1070   9.8420935756e+01   6.6929471361e+01    0.2598384    0.1683565 -62.17  0.001500092    1.478    0.323
        47  -8.6715     94.8070     46.6080   5.5994277516e+01   5.4215695385e+01    0.1938051    0.1304217  60.77 0.0004162891    1.618    0.382
        48 -11.1633      2.5896     38.7478   9.4785061472e+01   6.9512929212e+01     0.324995     0.234523 -77.96  0.001922562    1.924    0.480
        49  -9.8520    120.2463     28.2968   4.3088065962e+01   5.0737749093e+01     0.267682     0.198623 -73.35 0.0007735985    1.616    0.381
        50 -12.5854     46.2696    176.4473   1.0371826875e+02   3.1963076160e+01     1.043917    0.7532148  -5.41  0.001517258    1.871    0.465
        51 -14.4233     21.8703    195.0276   1.1193600256e+02   2.9933072940e+01     2.596842     1.095291  53.06  0.006729239    2.294    0.564
        52  -9.7146    189.7497     15.4534   2.9752348076e+01   3.5731691847e+01    0.2147007    0.1575285 -43.88 0.0007639483    1.334    0.250
        53 -15.4757     29.4171    186.0688   1.0926620218e+02   3.1367408421e+01     10.06775     3.572329  84.66   0.02830805    5.723    0.825
