#   1 NUMBER                 Running object number                                     
#   2 MAG_AUTO               Kron-like elliptical aperture magnitude                    [mag]
#   3 X_IMAGE                Object position along x                                    [pixel]
#   4 Y_IMAGE                Object position along y                                    [pixel]
#   5 X_WORLD                Barycenter position along world x axis                     [deg]
#   6 Y_WORLD                Barycenter position along world y axis                     [deg]
#   7 A_WORLD                Profile RMS along major axis (world units)                 [deg]
#   8 B_WORLD                Profile RMS along minor axis (world units)                 [deg]
#   9 THETA_WORLD            Position angle (CCW/world-x)                               [deg]
#  10 FWHM_WORLD             FWHM assuming a gaussian core                              [deg]
#  11 ELONGATION             A_IMAGE/B_IMAGE                                           
#  12 ELLIPTICITY            1 - B_IMAGE/A_IMAGE                                       
         1 -13.1244    180.2598     39.8145   6.1520276003e+01   3.5183228318e+01     1.316784     1.000158  17.17    0.0042375    1.615    0.381
         2 -12.8236    200.6368      7.6630   4.9554305451e+01   3.3696867089e+01    0.9233987    0.8773742 -72.59  0.003848608    1.068    0.063
         3 -10.2784    189.1479     14.6612   5.2795019161e+01   3.5871999046e+01    0.2390138    0.1800365 -43.10 0.0009942742    1.329    0.248
         4  -8.3592    113.5118      3.5520   6.1068301379e+01   5.5819130898e+01    0.1341148    0.1190413  38.61 0.0001520467    1.017    0.017
         5  -9.9545     65.4464      2.1382   7.3692367128e+01   6.6043509972e+01    0.2028352    0.1442137  46.93  0.001215061    1.470    0.320
         6  -9.4541     19.6920    214.0874   1.3422825553e+02   2.8208376939e+01    0.1347449   0.08259558  63.64 0.0008510916    1.262    0.208
         7 -10.4300    247.8051    249.6033   9.6980457123e+01  -9.2392590907e+00     0.203715    0.1631431  15.01  0.001597168    1.229    0.186
         8 -19.5147     38.9920    148.9475   1.2488852570e+02   3.9881167375e+01     19.22319     3.555279 -70.50   0.05648708    5.423    0.816
         9  -9.8308     81.3443    194.6387   1.2061294204e+02   2.4726854557e+01    0.3787576    0.2712193  70.48  0.002294079    1.324    0.245
        10 -10.3603     98.4996    191.0184   1.1652805833e+02   2.2944195515e+01    0.2422154    0.2000694  46.88 0.0006575834    1.149    0.130
        11 -10.6057     99.7918    186.3716   1.1562518870e+02   2.3686065113e+01    0.2878859    0.2338928  26.68  0.001511489    1.446    0.308
        12  -9.6423    149.3761    186.6632   1.0497958531e+02   1.5267713992e+01    0.2090092    0.1594762  73.89  0.001107057    1.681    0.405
        13 -10.5412     99.4935    180.7426   1.1490481849e+02   2.4890823834e+01    0.2463281    0.2177107  63.19 0.0006120549    1.024    0.024
        14  -9.9701     93.8528    181.3295   1.1623929050e+02   2.5635736843e+01    0.2132793    0.1414844  56.78 0.0008243725    1.445    0.308
        15  -9.2915    148.8641    179.8375   1.0390857992e+02   1.6634357538e+01    0.1883782    0.1602243  71.89 0.0004721665    1.335    0.251
        16  -9.2855    204.3197    175.8284   9.1834997045e+01   7.0125865618e+00    0.2474364    0.2086667 -46.18 0.0009094547    1.420    0.296
        17  -9.2266    144.3108    175.3318   1.0409466582e+02   1.8329864166e+01    0.1384295    0.1089037  -0.48 0.0004782206    1.673    0.402
        18 -10.7377     15.9787    206.4688   1.3446727069e+02   3.0012552343e+01    0.1438745    0.1209711  78.67  0.001153343    1.217    0.178
        19 -10.7170    124.8379    171.9552   1.0783317392e+02   2.2504111514e+01    0.4052889    0.2799988  85.71  0.001112552    2.036    0.509
        20 -12.0198    103.9011    172.7591   1.1272699521e+02   2.5866771151e+01    0.5753153    0.3692703  34.87  0.002946092    1.626    0.385
        21  -8.6604    139.6321    168.1441   1.0382495026e+02   2.0608755188e+01    0.1895972    0.1300763 -37.98 0.0003939023    1.650    0.394
        22  99.0000     11.5125    205.4779   1.3521895721e+02   3.0619285271e+01    0.2991291    0.1491336  52.40  0.001213389    1.635    0.388
        23 -10.4938     97.0258    158.1395   1.1200130668e+02   3.0137697045e+01    0.2876439    0.2572082 -34.04 0.0004375752    1.329    0.247
        24 -11.4656    101.6813    151.6237   1.0974426106e+02   3.0830031910e+01    0.5692244    0.3999892 -35.44  0.001581926    1.781    0.438
        25  -9.1230    188.8400    154.8154   9.0539340551e+01   1.3544839792e+01    0.3504145    0.1885879  47.94  0.001078817    1.891    0.471
        26 -11.9708     86.2414    152.1422   1.1364981072e+02   3.3153176176e+01    0.3921944    0.3764431 -79.13 0.0008375206    1.106    0.096
        27  -9.8191    133.9660    145.7196   1.0073190957e+02   2.6318985569e+01    0.8063902    0.2103086 -54.60  0.001982634    5.884    0.830
        28 -10.3264    143.0085    209.0003   1.0979276296e+02   1.2389802470e+01    0.2021613    0.1465484  69.39 0.0007866097    1.702    0.412
        29  -8.4380    141.6721    139.2936   9.7510768308e+01   2.6161376756e+01    0.1492797    0.1178411  81.22 0.0003349731    1.626    0.385
        30 -10.6296    111.1072    137.6294   1.0469279171e+02   3.2343512519e+01    0.4495741    0.2928516 -27.99  0.001954847    2.184    0.542
        31 -10.7540    100.1832    137.4595   1.0746475735e+02   3.4273412481e+01    0.3089099    0.2824284  -2.06 0.0008495293    1.305    0.234
        32 -10.2742    106.0445    131.0063   1.0461676022e+02   3.4732649934e+01    0.4373512    0.3365343 -81.47    0.0018574    1.511    0.338
        33 -10.0598     86.0045    201.5467   1.2043285352e+02   2.2696256483e+01    0.4937925    0.2345889  60.64  0.002287322    2.402    0.584
        34  -9.4535    117.1511    128.9250   1.0127426570e+02   3.3183573970e+01     0.257382    0.2226711  15.87 0.0007142058    1.334    0.250
        35  -8.3701    160.9913    199.9638   1.0479242012e+02   1.0858919474e+01    0.1504382    0.1440774  19.22 0.0004792757    1.103    0.093
        36  -8.4033    175.2851    148.7039   9.2025072754e+01   1.7416188163e+01    0.1386441    0.1180255 -88.36  0.000199143    1.545    0.353
        37  -9.4728    105.4714    124.6982   1.0339992170e+02   3.6264576581e+01    0.2736608     0.229744  -8.82  0.000493693    1.490    0.329
        38  -8.5935    112.0777    118.1267   1.0012032841e+02   3.6544146636e+01     0.216854     0.197085  -5.00 0.0003441162    1.242    0.195
        39  -9.5474    168.2141    113.4861   8.5140547499e+01   2.5732971129e+01    0.2922422    0.2384677 -72.80 0.0007417385    1.536    0.349
        40  -8.9526    205.7173    110.0261   7.6682935782e+01   1.7895958985e+01    0.2124192    0.1871319 -28.63 0.0006932467    1.080    0.074
        41  -9.6839    193.3240    195.6519   9.7682107917e+01   5.8723149444e+00     0.529422    0.2555938 -55.42  0.001999556    4.054    0.753
        42  -9.5903     81.6812     76.1167   9.7865146910e+01   5.1158245261e+01    0.2238382    0.1951664  45.37 0.0002990321    1.283    0.221
        43  -8.9648    176.7424     75.0248   7.2690594340e+01   3.0757710540e+01    0.2091857    0.2059622  66.72 0.0002488434    1.041    0.040
        44 -11.0392    172.4005     71.5563   7.2527453699e+01   3.2407805905e+01    0.5454229    0.3673462 -79.82  0.000742593    2.307    0.567
        45 -11.0863     70.9852    195.9409   1.2291419121e+02   2.5876704907e+01    0.4247473    0.2823118 -42.16  0.001697661    2.193    0.544
        46 -12.0617    166.3542     54.5667   6.8529771885e+01   3.6625421926e+01    0.6149836    0.5570883 -64.94  0.001592895    1.176    0.150
        47 -11.9447     12.6992    245.0784   1.3687684606e+02   2.3406122984e+01    0.2663512    0.2563405 -68.07  0.002463101    1.747    0.428
        48 -11.7094    184.6482     33.0241   5.8803920049e+01   3.4932188236e+01    0.5672915    0.4542699  26.97  0.001541834    1.439    0.305
        49  -8.8345    167.2669    231.5891   1.0832357802e+02   4.8588511755e+00    0.2877495     0.156189 -28.48  0.001450646    2.761    0.638
        50 -10.4513    249.2724    231.0168   9.3817149452e+01  -7.5357552830e+00    0.1902401    0.1655442 -30.95  0.001410763    1.703    0.413
        51 -10.4069    151.4665    196.8393   1.0622318188e+02   1.3062505501e+01     0.248999     0.174464  41.29  0.000853545    1.264    0.209
