#   1 NUMBER                 Running object number                                     
#   2 MAG_AUTO               Kron-like elliptical aperture magnitude                    [mag]
#   3 X_IMAGE                Object position along x                                    [pixel]
#   4 Y_IMAGE                Object position along y                                    [pixel]
#   5 X_WORLD                Barycenter position along world x axis                     [deg]
#   6 Y_WORLD                Barycenter position along world y axis                     [deg]
#   7 A_WORLD                Profile RMS along major axis (world units)                 [deg]
#   8 B_WORLD                Profile RMS along minor axis (world units)                 [deg]
#   9 THETA_WORLD            Position angle (CCW/world-x)                               [deg]
#  10 FWHM_WORLD             FWHM assuming a gaussian core                              [deg]
#  11 ELONGATION             A_IMAGE/B_IMAGE                                           
#  12 ELLIPTICITY            1 - B_IMAGE/A_IMAGE                                       
         1 -13.2643    136.0534     51.0963   2.0195808701e+01   4.3817452853e+01      1.44796    0.4977948 -34.60  0.004981442    2.976    0.664
         2 -15.3240    100.7737     49.2686   2.8604650558e+01   5.2774762763e+01     5.420154     1.621693  51.89   0.01718765    3.125    0.680
         3 -14.6835    166.6524     29.5758   8.2367786973e+00   3.8936619920e+01     1.076553    0.8695529  70.97  0.003978077    1.158    0.136
         4 -15.0577    124.3082     36.0681   1.7644502259e+01   4.8925158493e+01     6.260473    0.4597729  49.55  0.005195992   10.314    0.903
         5 -14.6047     61.1489     75.8881   5.2551972256e+01   5.5461458806e+01     2.637139     1.889939 -67.55  0.007544134    1.698    0.411
         6 -14.9583      6.6061     71.2853   7.6498024673e+01   6.2272545864e+01     1.232662    0.7632834 -57.82  0.005506952    1.358    0.264
         7 -13.5552    120.6482     25.8854   1.4759440729e+01   5.1128288394e+01     1.471987    0.6196645  45.23  0.005671868    2.445    0.591
         8 -15.3182    217.9274     17.3998   3.5992973779e+02   2.8310272330e+01     1.925431    0.9612859 -34.25   0.01023691    1.843    0.457
         9 -13.1767    230.1688      2.6298   3.5591024836e+02   2.7256756800e+01    0.8235155    0.2659872  77.83   0.00377326    2.999    0.667
        10 -14.9960    212.5216     40.7233   5.8226349186e+00   2.6779690754e+01     2.138439    0.6942734  74.86  0.007668148    3.959    0.747
        11 -12.5749      7.6998      2.3537   5.2077155063e+01   7.6687321410e+01     0.445388    0.3465242  -9.88  0.001491559    1.009    0.009
        12 -15.9084     11.3490     23.0098   6.0031597516e+01   7.2690493802e+01     2.065233     1.054765 -31.53   0.01039281    1.832    0.454
        13 -14.1930     26.5741     12.9821   4.4471813404e+01   7.2776411581e+01    0.8250869    0.5334996  -4.17  0.003990575    1.653    0.395
        14 -14.8323    189.4397     20.1414   3.0280853235e+00   3.4448951594e+01     1.746017    0.8030749 -43.13  0.008286757    1.973    0.493
        15 -13.8564    242.1782     35.6970   2.0927873373e+00   2.1292977000e+01    0.7715372    0.4631802 -78.87  0.003205026    1.773    0.436
        16 -13.5581     58.2673     26.6897   3.4593812079e+01   6.5449017128e+01      1.17418    0.3757129  41.17    0.0030663    2.931    0.659
        17 -14.8764    147.7178     29.6862   1.1067920770e+01   4.3724217388e+01     1.634408    0.7919833  64.96  0.006499039    1.869    0.465
        18 -11.6381    108.9662      1.5590   7.7521002774e+00   5.6494511475e+01    0.2603057    0.2066519  50.80 0.0003214772    1.155    0.134
        19 -15.5393     99.4852     11.6260   1.3846032037e+01   5.8000587336e+01     1.720847    0.9348305  55.48  0.003441474    1.552    0.355
        20 -12.8582     85.5463     13.8556   1.8459998273e+01   6.1166484243e+01    0.4750955    0.4212829  12.69  0.002760713    1.176    0.150
        21 -11.9305     71.1198     16.1748   2.4226943190e+01   6.4209795009e+01    0.4021437    0.2800153  -7.86  0.001883274    1.629    0.386
        22 -12.5659     74.3515     10.2886   2.0208393387e+01   6.4139249823e+01    0.4396478    0.3078254 -20.93  0.002420608    1.573    0.364
        23 -12.5117     60.1518     15.2497   2.8008826231e+01   6.6648152075e+01    0.6140744    0.3276963  31.64  0.002853086    1.942    0.485
        24 -13.1139    140.2209     21.3388   9.5737417208e+00   4.6602572871e+01    0.8057087    0.3450969  64.78  0.001464033    2.036    0.509
        25 -12.2086     46.8393     12.9833   3.2853025198e+01   6.9517360719e+01    0.3269402    0.2672047  43.60  0.001222108    1.294    0.227
        26 -12.3718    123.0477     10.6918   8.7371072913e+00   5.2106491713e+01    0.3688705    0.2494974 -62.21  0.001035621    1.695    0.410
        27 -14.0817     41.4674      5.0916   3.0975060053e+01   7.1482851454e+01    0.9674755    0.6103461   8.48   0.00466875    1.779    0.438
        28 -11.9865    153.0230      8.4843   3.6869996132e+00   4.4606546406e+01    0.2898786     0.227319  61.32  0.001000597    1.225    0.183
        29 -11.4398     80.2797      7.1038   1.6823337336e+01   6.3083398041e+01    0.2288833    0.1809858 -47.34 0.0009566737    1.543    0.352
        30 -12.7800    120.8211      3.4613   6.4566754012e+00   5.3312004326e+01    0.6822425    0.3114197 -89.70  0.002581643    2.975    0.664
        31 -12.0314      3.0621      5.4028   5.7828587089e+01   7.6588621629e+01    0.2163699    0.1618108 -17.45 0.0006556367    1.067    0.063
        32 -11.3403     67.7376      2.7786   1.8559709999e+01   6.6361218257e+01    0.3022447    0.1903296  33.96  0.001611899    1.484    0.326
        33 -12.5107     79.8180      1.7345   1.4356302131e+01   6.3668898961e+01     0.742612     0.119956  59.61  0.002260524    4.110    0.757
        34 -11.6113     61.1829      1.4836   2.0159726285e+01   6.7922147559e+01    0.4593253    0.1127915  57.14  0.001564294    3.579    0.721
        35 -12.2525     48.6812    181.2876   7.6107616966e+01   3.1003370257e+01    0.5223255    0.3023621 -52.59  0.002544197    1.936    0.484
        36 -14.7987    170.0770    242.1364   5.5144443801e+01   2.2408387414e+00     1.194996    0.7450452  22.47  0.007239403    1.295    0.228
        37 -14.1419     96.9453    239.0266   7.0260232475e+01   1.2778205939e+01    0.9247686    0.8130211  87.91  0.006386592    1.382    0.276
        38 -14.2221     91.2651    232.4189   7.0851411995e+01   1.4730929898e+01    0.7351346    0.4738942 -82.67  0.004089629    2.119    0.528
        39 -12.7074     57.0850    246.6852   7.9534050737e+01   1.6413962614e+01    0.5498095    0.3082424  27.74  0.003179847    1.629    0.386
        40 -11.8094     41.0093    248.0445   8.2973005559e+01   1.7977075315e+01    0.4516169    0.1968201 -85.64  0.002351313    2.803    0.643
        41 -13.5836     28.0601    246.5396   8.5545171816e+01   1.9612583259e+01     1.144777    0.5774721  71.04  0.006701929    1.962    0.490
        42 -12.1770      2.8516    249.6355   9.0633520689e+01   2.1452135604e+01    0.3384489    0.1700557  45.97  0.001745654    1.406    0.289
        43 -14.0274      9.3364    245.5810   8.9249530549e+01   2.1600230176e+01      1.03482     0.693107  74.71  0.007433118    1.339    0.253
        44 -14.0815     26.1798    226.6615   8.4951331915e+01   2.3588464427e+01     1.174624    0.5103765 -71.92  0.006195657    2.428    0.588
        45 -14.0833     20.7615    224.2858   8.6010342142e+01   2.4596306015e+01     1.011208    0.5324151 -89.51  0.005800405    1.929    0.481
        46 -12.3007     89.8970    170.0775   6.3301840893e+01   2.8003069248e+01    0.4295323    0.2064868  25.74  0.001671615    2.294    0.564
        47 -13.6197     84.7623    179.7316   6.6141684538e+01   2.6557257885e+01     1.124211     0.365079  45.90  0.003775445    3.150    0.683
        48 -13.5213    197.3204    179.2596   3.9373640863e+01   7.9271721438e+00    0.6707215    0.4765785 -71.15  0.003027408    3.234    0.691
        49 -11.3406    122.0106    180.6481   5.6524396057e+01   2.0406201215e+01    0.4642874    0.2710247  73.33  0.001500923    4.453    0.775
        50 -12.0332    131.2235    173.1586   5.2894112991e+01   2.0393311951e+01    0.3025159    0.2582623 -56.12  0.001643561    1.325    0.245
        51 -13.0246    124.6040    167.7845   5.3587823679e+01   2.2700895749e+01    0.7582275      0.32627 -50.25  0.002912518    2.480    0.597
        52 -11.9420     27.8291    158.8278   7.9765202811e+01   3.8642320339e+01    0.2533498    0.1790338  49.83  0.000956456    1.327    0.246
        53 -12.5027     76.9938    156.9847   6.4921448305e+01   3.3097189320e+01     0.539005    0.4412513 -10.88  0.001755625    1.503    0.335
        54 -13.5994     74.0033    153.2999   6.5221236860e+01   3.4443090759e+01     0.830577    0.5863394  31.83  0.001976572    1.381    0.276
        55 -12.5472    111.6697    155.5893   5.4732505908e+01   2.7712120406e+01    0.5558725     0.362148  75.83  0.002184101    2.597    0.615
        56 -12.8187    208.4846    153.9812   3.2290955420e+01   1.0223809051e+01    0.6444091      0.44463  31.98  0.003546832    1.483    0.326
        57 -10.9563    101.8168    160.6368   5.8401212249e+01   2.8261292424e+01    0.2269183    0.1256184  43.18 0.0009535329    1.717    0.418
        58 -11.6722     56.0100    155.5808   7.0990924791e+01   3.6340485553e+01    0.4442787     0.267236 -15.69   0.00177052    2.892    0.654
        59 -12.0750     85.8345    152.6797   6.1585493144e+01   3.2780837925e+01    0.5475532    0.2982194 -42.75  0.002247968    2.130    0.530
        60 -11.6857     13.3612    151.7206   8.3404862407e+01   4.1639023950e+01     0.277851    0.1637786  62.81 0.0007186263    1.649    0.394
        61 -12.5798      7.6276    148.6548   8.4869926405e+01   4.2816108679e+01     0.600795    0.3655921  61.96  0.003239203    1.567    0.362
        62 -10.7849     12.6620    148.6791   8.3372681979e+01   4.2445131263e+01    0.1871701    0.1357394  13.99  0.001063055    1.597    0.374
        63 -11.8701    103.5312    149.6976   5.5876210185e+01   3.0520169663e+01    0.3945463    0.2960629 -17.45  0.001555609    1.719    0.418
        64 -12.1570     62.9882    145.9980   6.7437665992e+01   3.7824284860e+01    0.2401425    0.1970182  64.92  0.001267445    1.244    0.196
        65 -10.6209     38.1927    145.7934   7.5219236881e+01   4.0873693931e+01    0.1868427    0.1567715 -39.54 0.0005113378    1.338    0.253
        66 -10.9377    155.6560    157.3247   4.3877821859e+01   1.9177097049e+01     0.145405    0.1185137  76.59 0.0007050604    1.738    0.424
        67 -12.6672    246.5526    133.1176   2.1987032446e+01   7.2367841504e+00    0.4318832    0.3148912 -39.57  0.002718347    1.272    0.214
        68 -14.4244    232.6464    127.4919   2.2824610825e+01   1.0317006493e+01     1.271794    0.6477653 -44.07  0.006248701    1.900    0.474
        69 -12.6609     43.6775    132.9051   7.1699968161e+01   4.3569764884e+01     0.441747    0.2858483 -62.75  0.001632691    1.469    0.319
        70 -10.3811     10.5902    133.8338   8.2769535114e+01   4.6311022844e+01    0.1749463    0.1102393  83.81 0.0003647416    1.525    0.344
        71 -12.4219    136.5047    131.7843   4.2959634579e+01   2.8249582636e+01    0.7122827    0.2645524  44.01  0.002389169    2.638    0.621
        72 -10.9043      5.4284    128.8291   8.4016523018e+01   4.7906055169e+01    0.2591585    0.1325566 -40.73  0.001213199    2.256    0.557
        73 -14.4492    104.7309    121.4470   4.9414185902e+01   3.6961923502e+01     1.952301     1.183527  34.54  0.008220908    1.657    0.396
        74 -14.9176    106.1645    104.6901   4.4721203231e+01   4.0540337965e+01     1.539715     1.438894  51.92   0.00747204    1.081    0.075
        75 -12.4795    179.6736    120.4536   3.0365824256e+01   2.1499474685e+01    0.5836855    0.2281568  41.63  0.002103894    2.760    0.638
        76 -12.2340      4.3894    119.4483   8.3547199420e+01   5.0333909423e+01    0.5447703    0.2719163   9.26  0.002591295    2.399    0.583
        77 -11.8938      7.8864    114.8611   8.1872222688e+01   5.1294089394e+01    0.2276571    0.1886565  15.23 0.0005762064    1.367    0.268
        78 -12.3023     78.9801    110.7708   5.5205543762e+01   4.4229459052e+01    0.4238926    0.3813685 -82.49  0.002218833    1.207    0.171
        79 -13.0136     85.4042    114.8638   5.3998278515e+01   4.2119782389e+01     1.116224    0.5775658  19.92  0.003663976    2.901    0.655
        80 -11.9873     88.5072    109.5682   5.1672319081e+01   4.2840882442e+01    0.5270381    0.3420409 -65.24  0.001955531    1.821    0.451
        81 -11.9647    186.2900    115.9151   2.7998673758e+01   2.0947687695e+01    0.2442433    0.2017662  63.17 0.0008092572    1.389    0.280
        82 -11.9719     42.5754     90.3532   6.4243013743e+01   5.4555553829e+01    0.3905353    0.2748522 -57.39 0.0005310669    1.339    0.253
        83 -14.5802     25.0564     93.6490   7.2257675833e+01   5.5482335049e+01     1.516958    0.9669122  -1.35  0.007494656    1.874    0.466
        84 -13.0484     20.9801     86.0274   7.2600412026e+01   5.7724997066e+01     0.750518    0.4053233   7.15   0.00347723    2.176    0.540
        85 -14.2541     18.4401    110.9972   7.7556932761e+01   5.1577362676e+01    0.8899024    0.7443075 -33.53  0.003717188    1.274    0.215
        86 -13.6545      2.3391     96.9859   8.2025792843e+01   5.6109917532e+01     0.950813    0.3258519 -73.93  0.003723104    2.472    0.596
        87 -12.5191    121.3890    111.9290   4.2146050025e+01   3.5739569142e+01    0.3913239    0.3120695  71.25  0.001220156    1.531    0.347
        88 -11.7131     62.9843    110.4789   6.0818714163e+01   4.6827127338e+01     0.905717     0.402867 -69.13  0.003119252    2.944    0.660
        89 -11.0139     64.5301    101.5412   5.8190516682e+01   4.8825774472e+01     0.282075    0.2443271   0.01  0.000667946    1.252    0.201
        90 -12.2410     61.8694     98.4917   5.8457165074e+01   4.9976939447e+01    0.5459301    0.3739397 -84.08  0.002406368    1.984    0.496
        91 -11.6212    176.9411    110.3223   2.8460382627e+01   2.3924854231e+01    0.3469916    0.2464458 -12.59  0.001603083    1.794    0.443
        92 -11.2807     45.9460    110.1449   6.7060146127e+01   4.9161963528e+01    0.3285933    0.1916377 -55.16   0.00149987    1.604    0.376
        93 -12.7805    223.3009    128.0771   2.4366176368e+01   1.1830367848e+01    0.7212099     0.474876 -64.56  0.003458667    2.495    0.599
        94 -10.7101     43.2420    106.6085   6.7406901515e+01   5.0380116828e+01    0.2611667    0.1523373 -44.53  0.001090121    1.736    0.424
        95 -14.1337     10.7703    102.3639   7.9361113725e+01   5.4297776113e+01    0.8093809    0.7877669 -77.10  0.004298885    1.091    0.083
        96 -12.6406    135.9756    102.8683   3.5800858210e+01   3.4471825016e+01    0.6311458    0.3565245  45.62  0.001786723    1.737    0.424
        97 -13.6722    119.8404    102.2857   4.0009426343e+01   3.8172126194e+01    0.7787365    0.3739937  42.98  0.002909596    2.038    0.509
        98 -12.1231     49.0382     93.2008   6.2244550232e+01   5.3059086217e+01    0.8578258    0.4541422 -45.23  0.002845101    1.862    0.463
        99 -11.1164     48.6643    100.6938   6.4089838812e+01   5.1233132211e+01      0.34928     0.268331  27.09  0.001470377    1.345    0.257
       100 -11.9872     52.4924     97.5725   6.1883885286e+01   5.1522840596e+01    0.5689794    0.3596963 -14.32  0.001771366    2.236    0.553
       101 -13.3037    248.5483     95.5207   1.4050783421e+01   1.2298697679e+01    0.8010129    0.2253505 -42.92   0.00313725    3.052    0.672
       102 -12.1931    163.2120     97.8775   2.8099861872e+01   2.9247685994e+01     0.394753    0.3270715  57.51 0.0005997068    1.242    0.195
       103 -13.2544    137.4088     95.1484   3.3308443734e+01   3.5703430240e+01    0.5373815    0.4422805  72.06  0.001464374    1.385    0.278
       104 -13.2667     32.4957    111.8499   7.2416796227e+01   5.0164036191e+01     0.754776    0.3641203 -55.74  0.003308154    1.870    0.465
       105 -12.8059     28.3956    122.1239   7.5433778320e+01   4.7898284895e+01     0.514011    0.3361096 -56.47  0.002458287    1.439    0.305
       106 -12.4871     36.7587     92.8896   6.7228676328e+01   5.4567751165e+01    0.4433777    0.2995309   3.50  0.001544417    1.737    0.424
       107 -14.0639    214.3685     76.9857   1.4189269131e+01   2.1431554246e+01     1.018209    0.8491846 -83.21  0.006126135    1.300    0.231
       108 -13.9690    188.5739     82.8486   1.9433890131e+01   2.6093307318e+01     1.378545    0.9864042  88.82  0.006738321    1.798    0.444
       109 -14.5319    198.9676     69.9353   1.4588560434e+01   2.5778170839e+01     1.566296    0.8553514  46.04  0.007180844    2.125    0.529
       110 -14.2834    164.7288     71.2948   2.0539511287e+01   3.3525227249e+01     1.429415    0.9971525  66.69   0.00689009    1.493    0.330
       111 -14.0739    160.6297     80.7483   2.3987241352e+01   3.2917930346e+01     1.370262     0.614862  38.23  0.003251048    3.108    0.678
       112 -14.3076    169.3538     76.7759   2.1196094234e+01   3.1519476431e+01    0.8870851    0.6032377  42.76  0.002761751    1.595    0.373
       113 -13.1065    242.2881     83.5770   1.2258471839e+01   1.5071834647e+01    0.4508708    0.2062347  59.33    0.0022211    2.563    0.610
       114 -13.7039    237.8727     80.0613   1.2004586835e+01   1.6372384319e+01    0.5450407    0.3549525  75.46  0.002631958    1.936    0.483
       115 -10.6422     59.0036    125.0374   6.5166125846e+01   4.3690809787e+01    0.1783075    0.1637968 -68.61 0.0004564067    1.070    0.065
       116 -14.7460    119.3292     54.2210   2.5198091605e+01   4.7503879683e+01     1.173835    0.7685199  48.30  0.002262452    1.442    0.306
       117 -11.9127    209.6620    249.2489   4.8644789882e+01  -3.7016919003e+00    0.2066409    0.1327312  17.81  0.001396346    1.189    0.159
       118 -12.5054     51.4786    248.3466   8.0820003745e+01   1.6760132890e+01    0.4618165    0.3538853  24.84  0.003174835    1.364    0.267
       119 -13.5337    148.2918    239.4334   5.9232540101e+01   5.6212981506e+00    0.5406842    0.3571056  61.55  0.002677747    2.632    0.620
       120 -13.7940     74.7221     73.4682   4.6329072985e+01   5.3670379784e+01     1.576608    0.8071961  18.96   0.00512724    3.524    0.716
       121 -13.9754     88.7939     62.7457   3.7462531306e+01   5.3064785166e+01     1.328896    0.7800183 -20.37  0.004259571    2.544    0.607
       122 -13.6632    111.8506     40.0581   2.2058177728e+01   5.1507496311e+01    0.8342601    0.5396807  17.56  0.003013146    2.245    0.555
       123 -13.2191    237.3419    231.3424   4.1149318752e+01  -4.7837614662e+00    0.5636685    0.4163526 -35.50  0.004003668    1.793    0.442
       124 -13.0193     55.1864     81.0957   5.6575254810e+01   5.5157022604e+01    0.6038415    0.5286517 -43.01  0.002376798    1.102    0.092
       125 -12.0421    126.9051    232.3472   6.2904392888e+01   9.7851212334e+00    0.1974804    0.1840425  83.48  0.001341415    1.391    0.281
       126 -11.3347     41.6848     75.9096   6.1022909654e+01   5.8173146134e+01    0.3132161    0.2475304 -70.14  0.001280877    1.387    0.279
       127 -12.8660    135.4202     79.1882   2.9171457045e+01   3.9237779996e+01    0.8353084    0.3944878  52.60   0.00300556    2.078    0.519
       128 -14.1854      5.2936     63.3513   7.5673063981e+01   6.4243312641e+01    0.6324944     0.616654 -35.92    0.0035325    1.143    0.125
       129 -11.4138     27.4747     76.2345   6.7622740550e+01   5.9595196441e+01     0.293722     0.234563  75.14  0.001113275    1.533    0.348
       130 -12.6992    107.9389    247.5406   6.8750512460e+01   9.8520412431e+00    0.6840256    0.3766432  57.79  0.003502346    2.365    0.577
       131 -12.7486    242.0376     71.1512   9.6363243781e+00   1.6824814983e+01    0.4405614    0.2527083 -65.86  0.002261089    2.188    0.543
       132 -13.1851    133.9489     65.7913   2.5398505665e+01   4.1980495572e+01    0.8530878    0.6963255  21.98  0.003216988    1.436    0.304
       133 -10.1251     26.3106     71.0293   6.6929137558e+01   6.0954988381e+01    0.2431481   0.05019365 -46.26 0.0007045067    4.262    0.765
       134 -13.1987     79.0581     59.9245   3.9985474484e+01   5.5620285106e+01    0.8023527    0.4959141 -50.49  0.003584025    1.821    0.451
       135 -13.8052     66.5308    222.9372   7.5592974856e+01   1.9769928668e+01    0.8647384    0.6435874  39.46  0.005370856    1.115    0.103
       136 -14.0667    177.9744     56.7195   1.4238646303e+01   3.2574437882e+01    0.9528722    0.6020364 -48.32  0.003054195    1.556    0.357
       137 -12.3138     36.4901     54.1617   5.6919550824e+01   6.3748136956e+01    0.3601962    0.2069917 -33.54  0.001110505    1.784    0.440
       138 -11.1870     34.4476     60.5542   6.0029902694e+01   6.2572439267e+01    0.4214113    0.1908102 -45.93  0.001817366    2.013    0.503
       139 -11.7949     38.7749     59.7777   5.7630529131e+01   6.2238651020e+01    0.4072506    0.2777343  60.13  0.001932434    2.195    0.544
       140 -11.8600     24.8748     59.2228   6.4526741062e+01   6.3850806434e+01    0.4860095    0.2361359 -46.52  0.001908926    1.812    0.448
       141 -13.2744    248.2145     52.2076   5.0549050912e+00   1.8145491012e+01    0.6650857     0.342163 -34.92  0.003670537    1.659    0.397
       142 -11.9460    114.1147     79.7460   3.5056513535e+01   4.4131091702e+01    0.4884724    0.3712509 -54.54  0.001714642    1.453    0.312
       143 -11.1701     17.7839     55.1678   6.7158543026e+01   6.5376264096e+01    0.3227808    0.1791669 -68.39  0.001565917    1.911    0.477
       144 -12.0728    230.8732     54.8819   7.2316162911e+00   2.1137070798e+01    0.3765723     0.206592  74.93  0.001966625    2.094    0.522
       145 -11.4216     42.6095     79.7590   6.1632553044e+01   5.7141776278e+01     0.389704    0.2501228 -77.15  0.001773263    1.992    0.498
       146 -10.6155     23.5419     49.9742   6.2449670507e+01   6.6049366048e+01    0.1898482    0.1189069 -53.68 0.0004212141    1.479    0.324
       147 -13.4847    157.2851     43.3949   1.3731996903e+01   3.9543517374e+01    0.9028231    0.6075704  32.44  0.004233428    1.932    0.483
       148 -12.8676     59.4075    212.7219   7.6362516240e+01   2.2734758261e+01    0.5081538    0.3110733  -7.66  0.001476244    3.201    0.688
       149 -13.3011     57.6144    201.8611   7.5804774845e+01   2.5271494369e+01     1.771002    0.5677804 -70.60  0.006763662    3.492    0.714
       150 -13.4989     94.2623    218.3273   6.8642623310e+01   1.6990338693e+01    0.4650299    0.2898136  33.16  0.001865839    1.353    0.261
       151 -13.8177     64.3301    214.2456   7.5324489310e+01   2.1807278959e+01    0.5590503    0.2945936  38.13  0.002861656    1.554    0.356
       152 -10.4436      5.4971    219.4930   8.9103558260e+01   2.6958111172e+01    0.1161381   0.08933961  58.81 -3.854576e-05    1.002    0.002
       153 -12.2988    181.5699    215.6937   4.8888257473e+01   4.5449809093e+00    0.2251545    0.1150879 -35.24  0.001137979    2.080    0.519
       154 -11.0064     25.8030     44.1217   5.9192087714e+01   6.7088032886e+01    0.1888119    0.1864981 -27.11    0.0012381    1.230    0.187
       155 -11.5554     38.8404     46.1623   5.2800951570e+01   6.5132704599e+01    0.1935218    0.1875083  -5.30 0.0009764756    1.176    0.150
       156 -13.1752     43.8901     32.7572   4.4482755435e+01   6.6958657793e+01    0.9986192    0.5661576  28.06  0.004878024    1.740    0.425
       157 -12.1023     40.3540     40.2776   4.9647590360e+01   6.6093432840e+01    0.5532654     0.286084  31.28  0.002591137    1.898    0.473
       158 -12.6943     32.9363     40.4058   5.3746393835e+01   6.7046555922e+01    0.3381463    0.2939893   5.39 0.0006941636    1.095    0.087
       159 -12.2575     85.6097    215.6117   7.0386046539e+01   1.8727692732e+01    0.2699412    0.2029295  49.94  0.001510927    1.202    0.168
       160 -13.1821      6.4393     42.9423   7.0263487253e+01   6.8878554276e+01    0.9335341    0.3952291  13.51   0.00436656    2.480    0.597
       161 -12.8914     75.8799     37.0597   3.2104028264e+01   6.0304902076e+01    0.6385584    0.3962498  49.93  0.001356616    1.565    0.361
       162 -11.8012     70.9583     36.0000   3.3544568336e+01   6.1497632755e+01    0.3406528    0.1809086  46.34  0.001085089    1.774    0.436
       163 -11.6629    109.5458    243.1276   6.7941135553e+01   1.0372920073e+01    0.4310178    0.2351071  48.94  0.001986619    1.818    0.450
       164 -10.6068    127.6549    212.3295   6.0066875763e+01   1.3226840858e+01    0.1373414   0.09569432  56.94  0.000705043    1.753    0.430
       165 -13.2083     72.3183    206.6956   7.2646014240e+01   2.2355940737e+01    0.5417904    0.2249542  33.40  0.002380709    2.033    0.508
       166 -11.8369     97.9574     26.5960   2.0489192604e+01   5.6719062063e+01     0.341255    0.2938968 -87.98  0.001900336    1.349    0.259
       167 -12.0393     30.9065     25.1844   4.8195874607e+01   7.0167186010e+01    0.4055739    0.2295259  15.01  0.001753671    1.956    0.489
       168 -11.6160     36.1217     22.7432   4.3898848099e+01   6.9848438661e+01    0.3482793    0.2258405 -16.78  0.001134508    1.651    0.394
       169 -12.5589     46.6631    208.8477   7.9093046400e+01   2.5063369068e+01    0.5003102    0.2218812  69.01  0.002107658    2.908    0.656
       170 -11.9455      5.4286    209.6824   8.8735155430e+01   2.8980067469e+01    0.2389153    0.1537234 -30.30  0.001340244    2.581    0.613
       171 -11.5579     80.5878    208.5560   7.0820167247e+01   2.0854360541e+01    0.2982168    0.1855865  56.55  0.001338166    1.641    0.391
       172 -12.5871     47.5708     19.8395   3.6208345645e+01   6.8432936579e+01    0.8516312    0.2259794  44.83  0.002907994    3.667    0.727
       173 -10.8645    248.6289     18.2090   3.5806006617e+02   2.2026050893e+01    0.1498841   0.09866529 -26.61 0.0009442421    1.661    0.398
       174 -13.2548     15.7342    198.4920   8.5826064591e+01   3.0479477312e+01    0.9479845    0.2404178 -61.07  0.003634363    4.016    0.751
       175 -11.0844    151.7063    206.1390   5.3679678549e+01   1.0625177256e+01    0.2717863    0.1613484  10.62  0.001241055    2.148    0.534
       176 -11.8032    136.7153    210.9154   5.7785769306e+01   1.2098506842e+01    0.2175231     0.192293 -87.47  0.001013569    1.535    0.349
       177 -12.2193    245.5122     29.4896   5.5732790092e-01   2.1371173745e+01    0.3442005    0.1863176 -39.33    0.0019135    1.519    0.342
       178 -11.1864    175.9826     13.9023   2.7169044163e+00   3.8343099560e+01    0.1946263    0.1644768 -78.33 0.0002842303    1.037    0.035
       179 -13.7930     40.5993    196.3809   7.9581091936e+01   2.8464504639e+01    0.8857495    0.4408931  56.11  0.004294241    1.914    0.477
       180 -14.5804     30.1991    168.9624   8.0010752744e+01   3.5938227199e+01     1.988422      1.20559 -37.24  0.009703106    2.231    0.552
       181 -13.8826     22.3714    181.0236   8.3081972333e+01   3.3823453511e+01    0.9174215     0.503078 -51.41  0.004389566    2.150    0.535
       182 -15.1186      8.4557    183.1956   8.6784100372e+01   3.4527350912e+01     1.205001     1.071159  89.52  0.008363678    1.152    0.132
       183 -15.2066     15.5955    175.0696   8.4457604551e+01   3.5819323708e+01     2.329415    0.9188666  55.23   0.01024782    2.414    0.586
       184 -11.3094    212.7142    199.8624   4.0229646331e+01   2.4539790669e+00    0.2069765    0.1348314 -12.50  0.001195323    1.478    0.323
       185 -13.4644    164.4163    194.3372   4.8917847861e+01   1.0683055559e+01    0.6387792    0.4115666 -62.66  0.002983682    2.572    0.611
       186 -10.7241     81.2238    192.6517   6.8790805885e+01   2.4169864152e+01     0.199615    0.1223337  23.33 0.0009491462    1.705    0.413
       187 -12.3113    201.1892    191.2270   4.0843129406e+01   5.4241603740e+00    0.3277261    0.2326404   4.75  0.001456796    1.355    0.262
       188 -12.6253    179.3272    195.3354   4.5925594950e+01   8.1339532401e+00    0.2448843    0.1539313 -18.03  0.001234624    1.809    0.447
