#   1 NUMBER                 Running object number                                     
#   2 MAG_AUTO               Kron-like elliptical aperture magnitude                    [mag]
#   3 X_IMAGE                Object position along x                                    [pixel]
#   4 Y_IMAGE                Object position along y                                    [pixel]
#   5 X_WORLD                Barycenter position along world x axis                     [deg]
#   6 Y_WORLD                Barycenter position along world y axis                     [deg]
#   7 A_WORLD                Profile RMS along major axis (world units)                 [deg]
#   8 B_WORLD                Profile RMS along minor axis (world units)                 [deg]
#   9 THETA_WORLD            Position angle (CCW/world-x)                               [deg]
#  10 FWHM_WORLD             FWHM assuming a gaussian core                              [deg]
#  11 ELONGATION             A_IMAGE/B_IMAGE                                           
#  12 ELLIPTICITY            1 - B_IMAGE/A_IMAGE                                       
         1 -12.1543    237.9153     94.5030   4.6733767395e+01   1.4214921911e+01     2.098776    0.9872411 -41.92  0.009978097    1.811    0.448
         2 -11.8057    247.6187     60.8189   3.8774303252e+01   1.7523414768e+01     1.841568     0.542767 -36.61  0.007292421    3.215    0.689
         3 -11.3782    243.2583     50.2305   3.7097474721e+01   1.9844261856e+01    0.9225445    0.6451917 -30.15  0.005587526    1.703    0.413
         4 -13.2506    241.2395     16.8707   3.0784538458e+01   2.4451947389e+01     2.263171      1.36319 -51.28   0.01452344    1.376    0.273
         5 -11.6872    218.4255     27.6785   3.4803497785e+01   2.7843488454e+01     1.031873    0.5654186 -37.15  0.005691428    1.827    0.453
         6  -9.9222    219.3612     19.8631   3.3084570432e+01   2.8570089088e+01    0.4236229    0.2524244 -67.49  0.002287654    1.512    0.339
         7 -10.8423    146.3017     16.3811   4.0533200572e+01   4.5627135542e+01     0.452081    0.3388574 -16.42  0.002665219    1.678    0.404
         8  -9.7382     93.1860     15.3061   5.0578452129e+01   5.7937725281e+01    0.4424206    0.2510049  40.13  0.002325635    1.615    0.381
         9  -9.8870    139.5914     14.3798   4.0983445462e+01   4.7413245451e+01    0.3349115    0.2336829  -1.65  0.001850339    1.990    0.498
        10  -9.3599     80.6076      9.4217   5.1624468313e+01   6.1141726493e+01    0.3410017    0.2105407 -32.80  0.001943745    1.877    0.467
        11  -9.2010     75.3996      9.1717   5.3006599009e+01   6.2223013987e+01    0.2994651    0.1621887  41.01  0.001616319    1.569    0.363
        12  -9.3082     94.5912      8.3144   4.7625484084e+01   5.8276199083e+01    0.3903488    0.1264855 -21.85  0.001561511    3.736    0.732
        13  -9.5188    185.7507      6.9806   3.3310071179e+01   3.7345621026e+01    0.3606152    0.1721084 -75.24  0.001677836    2.421    0.587
        14  -8.8852    101.4154      6.7410   4.5515535663e+01   5.6909174450e+01    0.2096423    0.1165419 -29.17  0.001119383    2.057    0.514
        15  -8.2011     32.9848      7.4968   6.8102718110e+01   6.9801346355e+01    0.1414809   0.09934768  57.01 0.0008098547    2.488    0.598
        16  -9.4677     46.9816      2.2849   5.9553706593e+01   6.8134936497e+01    0.2878366    0.1929614  50.32  0.001810957    1.575    0.365
        17  -8.0830    183.7450      1.6012   3.2246102319e+01   3.8315572729e+01    0.1727176   0.09631961  88.49 0.0005792383    1.619    0.382
        18  -8.5532    114.5512     13.8952   4.5271526105e+01   5.3307368034e+01    0.3714347   0.09783395  47.80  0.001320644    3.358    0.702
        19 -10.7059    197.2775    246.8918   8.3347242493e+01  -5.1333457203e+00     2.200979    0.2511178 -39.38  0.004874809   11.973    0.916
        20 -11.1124    188.2204    232.0916   8.2771577884e+01  -1.5258911844e+00      1.22828    0.9258693   2.45  0.006443146    1.287    0.223
        21 -10.2999    186.1038    248.0210   8.5705659135e+01  -3.7430162429e+00    0.5086116     0.385443  28.48   0.00324367    1.178    0.151
        22 -10.5028    188.2098    242.1955   8.4389222733e+01  -3.1411820931e+00    0.8420962    0.5033414  40.84  0.004221054    1.705    0.414
        23 -10.4555    133.3776    247.8753   9.6505625142e+01   4.0774078605e+00    0.4853644    0.3471906 -86.34  0.002639529    2.158    0.537
        24 -12.7116    246.7722    203.4676   6.6915038647e+01  -5.2720991047e+00     2.331323    0.6859748 -38.08  0.009545287    2.981    0.665
        25  -8.9041    156.7438    225.5244   8.8267328359e+01   4.4878156412e+00    0.2227917    0.1794909 -38.22 0.0005332022    1.341    0.254
        26  -7.8789     33.2260    224.6158   1.1559185318e+02   2.2649593169e+01    0.1543548     0.114154  26.97 0.0006548278    1.591    0.371
        27  -7.7432     94.6882    222.3311   1.0170123962e+02   1.4966585297e+01    0.1422126   0.09432141  64.79  0.000704345    1.673    0.402
        28 -10.2742    148.7218    235.9758   9.1587697996e+01   3.8499501039e+00    0.4509117     0.223854 -28.60  0.001784851    3.385    0.705
        29  -9.7171    243.0892    247.3805   7.5036442781e+01  -1.1022014775e+01    0.2414721     0.162921 -25.85 0.0009813341    1.347    0.258
        30  -8.3092    176.0232    196.9754   7.9186025432e+01   6.6916183475e+00    0.2242811    0.1601041 -13.51 0.0009141088    1.645    0.392
        31  -9.9576    192.3885    160.0096   6.8406096127e+01   1.0998796359e+01    0.4275934    0.1974338 -52.69  0.001605612    2.607    0.616
        32 -12.1607    228.4775    185.2864   6.6685037529e+01   2.3809047685e-01     2.252956     1.090381 -55.40  0.008529883    3.771    0.735
        33  -8.1674    152.6806    158.3536   7.6737401479e+01   1.9042492621e+01    0.1564029    0.1226378  87.30 0.0003099848    1.749    0.428
        34  -7.7984     22.3847    158.3084   1.1201388156e+02   3.9400400367e+01    0.1369138   0.08969951 -39.93 0.0007020024    1.804    0.446
        35  -7.4566    141.5345    157.4714   7.9238234932e+01   2.1434832326e+01    0.1519779    0.1485763  -4.87   7.8271e-06    1.027    0.026
        36  -8.4548    151.6710    152.6807   7.5747230439e+01   2.0495010343e+01    0.1578149    0.1215036  -4.85 0.0007047592    1.686    0.407
        37  -8.1751     58.6022    146.2531   9.9913474092e+01   3.8413711652e+01    0.2142539    0.1215121 -53.67 0.0009559644    1.649    0.394
        38  -9.2828    194.2024    140.4126   6.3809787521e+01   1.4503475394e+01    0.3524766    0.2841042  72.71  0.001717325    1.558    0.358
        39 -12.4180    244.6656    126.0094   5.2297766055e+01   7.7576018947e+00     1.769455    0.7644295 -47.44  0.007898106    2.115    0.527
        40  -9.9060    217.0033    139.1918   5.9375851264e+01   1.0368947780e+01    0.3751591    0.2807224  87.65  0.001877154    2.023    0.506
        41  -9.8992    216.1616    135.1843   5.8663590597e+01   1.1260876157e+01    0.3283994    0.2920239 -84.76  0.001499663    1.327    0.246
        42  -7.3111    113.3092    139.3197   8.2612055145e+01   3.1181336765e+01    0.1577542    0.1231737 -13.69 0.0007034152    1.642    0.391
        43  -9.3312    166.0369    136.2265   6.8714434366e+01   2.1107633260e+01     0.400109    0.2746355 -59.30  0.001584292    1.657    0.397
        44  -9.7850    218.4613    126.0368   5.6307573163e+01   1.2493531297e+01    0.4627702    0.2322277 -45.62  0.002063303    1.815    0.449
        45  -7.8658    155.0000    122.9767   6.8063194521e+01   2.6265125305e+01    0.2607641   0.08653898 -44.13 0.0006632165    2.964    0.663
        46 -10.2466    229.9652    116.3660   5.2436050306e+01   1.2035771986e+01    0.6473321    0.3310512  66.86  0.002703365    3.044    0.672
        47 -10.2389    221.8648    112.8098   5.2899503654e+01   1.4198371744e+01     0.552346    0.3135255 -37.62  0.002184838    1.628    0.386
        48  -8.7721    222.0000    106.9898   5.1613714671e+01   1.5188069922e+01    0.3458003     0.140828 -45.84  0.001410514    2.210    0.548
        49  -8.8636    171.9087    116.6371   6.2790340774e+01   2.3886224098e+01    0.3036842    0.2168213 -47.84 0.0009631948    1.365    0.268
        50  -9.6891    197.3491     95.2989   5.2871178594e+01   2.2345125352e+01    0.7821199    0.2433438 -42.18  0.002690223    2.935    0.659
        51 -10.4302    197.2540    108.0824   5.5883103844e+01   2.0056718677e+01      1.09199    0.3539484 -48.93  0.003505648    3.374    0.704
        52  -9.9065    121.9070    109.0170   7.2820109534e+01   3.6408093312e+01    0.6108375    0.3728518 -49.69  0.002105824    1.667    0.400
        53  -9.2174    160.7110    108.4872   6.3167601490e+01   2.7995519562e+01     0.432515    0.2802555 -51.38  0.001923872    1.580    0.367
        54  -8.6769     97.4021    109.5063   8.0010065434e+01   4.1209533473e+01    0.2585303    0.2506516 -46.85 0.0005653338    1.030    0.029
        55 -10.7420    234.7407     44.4318   3.6739428578e+01   2.2316818409e+01     0.613712     0.463805  67.94   0.00397157    1.425    0.298
        56 -10.1608    244.9831    235.8730   7.2830787341e+01  -9.7162602471e+00    0.4188434    0.2585132  -2.55  0.002568001    1.565    0.361
        57 -10.6439    248.0835     84.7679   4.3504656981e+01   1.3863554257e+01     1.033262    0.4169393 -42.25  0.004791091    2.039    0.510
        58 -11.4053    233.2594     58.1311   3.9703145288e+01   2.0715462805e+01     1.150302    0.5862209 -63.01  0.005572991    2.114    0.527
        59 -10.9482    237.4385    240.1990   7.4851555686e+01  -9.3983643072e+00    0.5428632    0.4293442 -27.76  0.003833088    1.356    0.262
        60  -9.8850    233.6812    246.8252   7.6588795632e+01  -9.8381554946e+00    0.4069417    0.2096034  -5.91  0.002018052    2.570    0.611
        61 -10.7590    215.3756     94.9513   4.9949327731e+01   1.8591912145e+01     0.979212    0.3625121 -39.31  0.003767226    2.476    0.596
        62  -9.2165     57.1104    100.1250   9.0877548937e+01   4.9963436804e+01    0.3739301    0.2080851 -64.80  0.001258361    2.058    0.514
        63 -10.1103    122.5441     98.2685   6.9746503188e+01   3.8558158100e+01    0.6465944    0.5254783 -13.35  0.003148131    1.474    0.322
        64  -8.9228    106.4161     97.9959   7.4210370960e+01   4.1993227922e+01    0.3863826     0.284168 -21.94  0.001780076    1.637    0.389
        65  -7.9114    214.7493     64.1543   4.3146977983e+01   2.3674835893e+01     1.221354    0.2372783 -42.12  0.003913193    4.050    0.753
        66 -10.1825    216.5003     74.5167   4.5229891253e+01   2.1709375454e+01    0.9365435    0.3622615 -53.89  0.003534876    2.960    0.662
        67  -9.1372    215.6165     71.1847   4.4603820551e+01   2.2416738032e+01    0.3591024    0.2891386 -17.42  0.002046415    1.646    0.392
        68  -9.1357     84.1184     83.6002   7.7011640630e+01   4.9306662563e+01    0.2625199    0.1961412 -52.58  0.001314118    1.428    0.300
        69  -8.6306    211.3913     82.6008   4.7752091382e+01   2.1491080526e+01    0.2616659    0.1955585 -51.01  0.001342636    1.209    0.173
        70  -9.3616    153.1864     78.6595   5.6929117372e+01   3.5359658145e+01    0.5792036    0.1849235 -44.71   0.00187674    3.224    0.690
        71  -9.4137    180.4250     79.0024   5.1792125566e+01   2.8957454554e+01    0.5020659    0.2840344 -57.65  0.001667523    2.019    0.505
        72  -9.5215    105.8853     71.3929   6.6493331526e+01   4.7367184673e+01    0.6511006    0.4312719 -77.15  0.002563132    2.908    0.656
        73  -9.6668    147.7200     70.1684   5.5725245181e+01   3.8099957809e+01    0.4009057    0.3334045  78.84  0.001542558    1.258    0.205
        74  -8.0243     29.4794     67.5336   9.2921992590e+01   6.0396713832e+01    0.3055311   0.04700693 -43.76 0.0008102845    5.815    0.828
        75  -7.9918    161.3069     66.3503   5.1953108168e+01   3.5512348066e+01    0.1434636    0.1127967  20.65 0.0003337229    1.708    0.415
        76  -7.9036     82.0022     66.4832   7.2353939043e+01   5.3024321460e+01    0.1875366    0.1234562  64.62 0.0008041759    2.380    0.580
        77 -10.0385    200.7024     60.2523   4.4091627588e+01   2.7329487962e+01     0.743536    0.3211668 -43.21  0.003247336    2.130    0.530
        78  -8.2172    147.8116     55.4083   5.1506680725e+01   4.0412819031e+01    0.2674473    0.1038291 -38.00  0.001014045    2.627    0.619
        79  -8.3331    108.1356     55.2224   6.0672238877e+01   4.9608154389e+01    0.2711972    0.1842255 -63.69  0.001244324    2.126    0.530
        80  -8.2910    123.9910     52.4779   5.5771439902e+01   4.6452401512e+01    0.1998906    0.1234821  81.23 0.0008097761    2.524    0.604
        81  -8.7475     97.2647     48.2877   6.1386217008e+01   5.3005518939e+01    0.2655598    0.2019788 -80.61  0.001321904    2.027    0.507
        82  -9.7627    250.0606     45.1175   3.5485242738e+01   1.9228427612e+01    0.4724621    0.1519341 -38.21   0.00177297    2.716    0.632
        83  -8.4094    250.5137     38.9975   3.4276615099e+01   1.9946721162e+01     0.268782   0.09415043 -39.54  0.001270202    2.419    0.587
        84  -9.7807    221.4878     46.9907   3.8608451332e+01   2.4702727438e+01    0.2782622    0.2184362 -36.47  0.001003628    1.400    0.286
        85 -10.2480    225.1407     42.6026   3.7299580425e+01   2.4528377501e+01    0.4146552    0.3375941  86.31  0.002423473    1.168    0.144
        86  -7.7579     26.6355     47.2114   8.7825189282e+01   6.4650493133e+01      0.17132    0.0968544 -38.30 0.0005226324    1.553    0.356
        87  -9.2051    200.2183     41.6116   3.9807188387e+01   3.0060555229e+01    0.4474687    0.2212584 -42.69  0.002185963    1.892    0.472
        88  -8.2151     57.6524     45.4254   7.3802998377e+01   6.0862119851e+01    0.2444859    0.1186291  42.23  0.001128927    2.108    0.526
        89  -8.8447    157.1582     43.8557   4.6530409183e+01   3.9815075817e+01    0.2180436    0.1778791 -77.86 0.0008554414    1.252    0.202
        90  -8.2544     85.2264     42.6300   6.3013920154e+01   5.6307936737e+01    0.1788505    0.1697439   4.89 0.0009099177    1.102    0.092
        91  -9.5341    174.4872     43.1673   4.3600290283e+01   3.5787740085e+01    0.3634002    0.2120265 -57.97  0.001748565    1.855    0.461
        92  -8.3081    102.9961     42.1652   5.7671307856e+01   5.2651542304e+01    0.2173813    0.1568379  80.30 0.0008658041    1.928    0.481
        93  -9.3561    127.1554     39.1617   5.0871150622e+01   4.7564707870e+01    0.3742758    0.2049956 -27.13  0.001729504    2.122    0.529
        94 -10.6109    232.3501    235.5101   7.4975358900e+01  -8.1198919993e+00    0.6446585    0.2772806 -33.11  0.002965544    2.194    0.544
        95 -11.2136    225.2614    239.4362   7.6897876575e+01  -7.7750678911e+00     1.171836    0.5550169 -39.04  0.006232947    2.133    0.531
        96 -12.0550    224.7640    217.4258   7.3251282639e+01  -4.4425664222e+00     1.333154    0.8921491 -49.31  0.007535677    1.936    0.483
        97  -8.0592    184.9782     25.6969   3.7845638304e+01   3.5515267529e+01    0.1875032    0.1497031  86.18  0.001158458    1.086    0.079
        98  -7.7394     84.4680    248.4745   1.0690177501e+02   1.1148384073e+01    0.1278888    0.1037706  53.58 0.0008089179    1.041    0.039
        99  -8.5948    250.2668    244.7290   7.3385946168e+01  -1.1498352759e+01    0.2583003     0.120638 -27.45  0.001453119    1.940    0.485
       100  -9.2139    155.1341    241.5869   9.1053362507e+01   1.8727353264e+00    0.2431695    0.1596578 -26.26  0.001171338    1.860    0.462
       101 -11.3143    129.9908    233.0649   9.5224472988e+01   7.3229887271e+00     0.674593    0.2781312 -50.87   0.00288983    2.695    0.629
       102 -10.8729    141.2637    234.8189   9.3021329223e+01   5.2257943447e+00    0.4094936    0.2054968  36.52  0.001935989    1.738    0.425
       103  -8.8707     43.3909     31.6614   7.4292689298e+01   6.5154597267e+01    0.2954913    0.2154139  13.77  0.001823665    1.245    0.197
       104 -10.6839    223.8511    207.5814   7.1663807495e+01  -2.7590451964e+00    0.5313877    0.3370463   1.50  0.002504173    1.838    0.456
       105  -7.7913      9.2848    240.7020   1.2143401148e+02   2.1823852598e+01    0.1195706   0.06334929  63.33 0.0002350087    1.548    0.354
       106 -12.9440    235.0914    149.9838   5.8607646186e+01   5.2626822849e+00     3.158363     1.259837 -51.52   0.01174784    3.229    0.690
       107 -11.7171    211.1950    170.1247   6.6848081208e+01   5.7039484439e+00     1.330232    0.9043116 -76.12  0.005595865    3.117    0.679
       108  -8.2152     94.2068     26.8525   5.4594175378e+01   5.6489810385e+01    0.1926376    0.1400414  28.77  0.001082361    1.375    0.273
       109 -11.2695    246.4756    178.7496   6.2397760870e+01  -1.3464570896e+00     1.144332    0.3919776 -36.86  0.004780704    2.557    0.609
       110 -11.0249    248.8223    220.9728   6.9656458203e+01  -8.1085894366e+00    0.7940344     0.341674 -32.43  0.004078083    2.061    0.515
