#   1 NUMBER                 Running object number                                     
#   2 MAG_AUTO               Kron-like elliptical aperture magnitude                    [mag]
#   3 X_IMAGE                Object position along x                                    [pixel]
#   4 Y_IMAGE                Object position along y                                    [pixel]
#   5 X_WORLD                Barycenter position along world x axis                     [deg]
#   6 Y_WORLD                Barycenter position along world y axis                     [deg]
#   7 A_WORLD                Profile RMS along major axis (world units)                 [deg]
#   8 B_WORLD                Profile RMS along minor axis (world units)                 [deg]
#   9 THETA_WORLD            Position angle (CCW/world-x)                               [deg]
#  10 FWHM_WORLD             FWHM assuming a gaussian core                              [deg]
#  11 ELONGATION             A_IMAGE/B_IMAGE                                           
#  12 ELLIPTICITY            1 - B_IMAGE/A_IMAGE                                       
         1 -12.9575    248.3920    101.2285   7.7621406615e+01   9.6186237588e+00     1.237873     0.573596 -32.59  0.005025899    2.316    0.568
         2 -13.0862    248.6507    133.1124   8.4632182771e+01   3.9638043440e+00     1.432318    0.8499501 -38.51  0.006907045    1.517    0.341
         3 -12.2871    190.0161     15.6741   6.5197376882e+01   3.6027467421e+01    0.5710084    0.2989158 -53.59  0.002280154    2.063    0.515
         4 -13.5355    194.4874     28.5850   6.7882309656e+01   3.3438738467e+01     1.269705     1.080668  45.03  0.007540641    1.352    0.260
         5 -13.6437    203.1609     17.0656   6.3966236711e+01   3.2692150606e+01     1.072525    0.8447192 -88.72  0.004165908    1.105    0.095
         6 -13.3166    208.3997     10.7281   6.1897771580e+01   3.2143116036e+01    0.8307354    0.6189753  37.11  0.001455944    1.825    0.452
         7 -13.0316      2.2039      4.5721   1.1315222574e+02   7.1939605922e+01    0.8485757    0.4993847  19.18  0.006259232    1.745    0.427
         8 -11.4211     90.1218    238.6639   1.3570352419e+02   1.3683687922e+01    0.4956559    0.2650881 -80.89  0.001569312    2.201    0.546
         9  -8.9877    189.3087    250.6910   1.1838753642e+02  -5.0176015192e+00    0.1178505   0.09177501  63.30 0.0002804678    1.617    0.382
        10  -9.9061    183.9758    250.5466   1.1936633263e+02  -4.1038279741e+00    0.1909088    0.1040317  39.52 0.0003218475    1.527    0.345
        11 -10.5709    169.6528    248.5913   1.2178746522e+02  -1.3745173053e+00    0.3170356    0.2233257   9.43 0.0008286196    2.008    0.502
        12 -13.5458    124.3472    233.3082   1.2846439743e+02   9.1136133772e+00     1.862213    0.5719856  41.55  0.007059644    2.880    0.653
        13 -11.1908    133.4132    249.2349   1.2875560549e+02   4.7050685699e+00    0.6006911    0.2438463  51.57  0.002670446    2.259    0.557
        14 -11.3278    124.8655    249.4984   1.3039815767e+02   6.0900956535e+00    0.7144682    0.2450062  39.73  0.002943956    2.686    0.628
        15 -11.6115     98.9095    247.6301   1.3502094969e+02   1.0629883110e+01    0.8731297    0.2931432  49.12  0.003803111    2.455    0.593
        16 -11.2673    150.1312    248.7426   1.2552129501e+02   1.9465019603e+00    0.4156841    0.3086061  59.38  0.002530715    1.296    0.229
        17 -11.1179    143.3046    248.9873   1.2685073237e+02   3.0712438860e+00    0.4939584    0.3015617 -83.59  0.002145944    2.782    0.641
        18 -11.7576    122.1769    244.8137   1.3033964282e+02   7.3667683144e+00    0.8166544    0.2177515  42.54  0.003038124    3.137    0.681
        19 -11.6261    126.5577    240.4207   1.2895277045e+02   7.4217367703e+00    0.5780274    0.3227974  57.64  0.002616482    1.725    0.420
        20 -10.5975    114.7981    250.2422   1.3236648056e+02   7.6158908975e+00    0.4657385    0.2796273  36.52  0.002559035    1.728    0.421
        21 -11.7122    109.5386    246.9954   1.3297855219e+02   9.0511859114e+00    0.6307076    0.3756949 -64.53  0.003399802    1.882    0.469
        22 -11.5921    135.5129    241.0468   1.2730187836e+02   5.7784568947e+00       0.3755    0.2770501  58.89  0.001022226    1.222    0.182
        23 -11.5619    135.4134    236.4925   1.2671268409e+02   6.6139151794e+00    0.4384322    0.3292005 -13.89  0.001576916    2.307    0.567
        24 -10.2464    134.0000    232.7105   1.2647584500e+02   7.5537998249e+00     0.184067    0.1517481  53.92 0.0004347827    1.031    0.030
        25 -10.2393     88.3086    250.6059   1.3725559317e+02   1.1719152459e+01    0.6031859    0.1255113  41.84  0.002037244    3.990    0.749
        26 -10.9601     88.9824    247.4075   1.3681679187e+02   1.2206313713e+01    0.4584493    0.2218712  46.12  0.002433487    1.728    0.421
        27  -9.9244     83.5181    242.4665   1.3732201882e+02   1.3961258454e+01    0.2346605    0.1660468 -74.78 0.0008798069    1.440    0.305
        28 -10.3855     81.5226    247.0645   1.3813484317e+02   1.3391664094e+01    0.3026924    0.2005223 -79.53  0.001889076    1.511    0.338
        29  -9.4628     79.4313    243.4561   1.3816635558e+02   1.4381582426e+01    0.2205357    0.1277015  73.87 0.0005625563    1.716    0.417
        30  -9.0208     74.7525    250.5780   1.3966769894e+02   1.3728783077e+01     0.221988    0.1011021  41.10  0.001147935    2.069    0.517
        31 -12.5651     62.4932    245.4752   1.4137784576e+02   1.6415028586e+01     1.405149    0.5714205  41.37  0.006296261    2.288    0.563
        32 -12.6775     10.3545    186.7719   1.4614965915e+02   3.4677293463e+01    0.8705004    0.5602323  30.28  0.000633946    2.046    0.511
        33 -15.3432      7.9884    208.5008   1.4819049135e+02   3.0288785225e+01     6.818349     1.208646 -70.65   0.02690961    3.946    0.747
        34 -13.0534     38.3023    244.1598   1.4542899551e+02   1.9817068204e+01    0.9871061    0.5505169 -72.24  0.006287153    1.708    0.414
        35 -14.0516      5.9705    245.4198   1.5071243323e+02   2.3230134913e+01     1.131786    0.5910341  78.66  0.004133237    1.444    0.307
        36 -12.8708     13.7901    238.7740   1.4911230197e+02   2.3661793313e+01    0.6136622    0.3211384  62.96  0.004034151    1.483    0.325
        37 -12.8025     40.4433    228.5419   1.4388420446e+02   2.2615099151e+01     0.354791    0.2830982 -70.48 0.0008112221    1.453    0.312
        38 -14.5150     46.7549    219.1086   1.4193515061e+02   2.3760083430e+01     1.531269     1.247387 -55.61   0.01034174    1.655    0.396
        39  -9.4777     83.6462    238.3027   1.3687740426e+02   1.4741328358e+01    0.1775123   0.09933211  57.82 0.0004403726    1.529    0.346
        40 -10.3753     86.4562    237.4914   1.3626790564e+02   1.4472465359e+01    0.2699148    0.1744634  82.75  0.001557429    1.550    0.355
        41 -11.3824    104.5646    237.7242   1.3285850480e+02   1.1578478008e+01    0.4844949    0.3047875  45.60  0.002742518    1.402    0.287
        42 -10.8331    101.6177    241.7079   1.3387179388e+02   1.1299694361e+01    0.4684667    0.2263425 -85.22  0.001887665    3.649    0.726
        43 -11.2022     96.5688    239.5137   1.3458137106e+02   1.2515368571e+01    0.4479875    0.2869313 -88.28  0.001987869    1.698    0.411
        44 -11.2550     98.4316    231.6780   1.3333881106e+02   1.3735306501e+01     0.422667    0.3187949 -67.93 0.0008068607    1.414    0.293
        45 -10.6187     92.6063    225.9974   1.3381575571e+02   1.5793406704e+01    0.2918868    0.1881332  50.56 0.0007804459    1.352    0.260
        46 -11.6072     99.3492    223.5382   1.3218494803e+02   1.5211776413e+01    0.4772438    0.3583314  61.89  0.001040688    1.138    0.122
        47 -11.2330    112.7100    230.0911   1.3034721490e+02   1.1703776064e+01    0.3749557    0.3568309  22.14  0.001751653    1.387    0.279
        48 -11.2809    105.8190    229.3949   1.3162063439e+02   1.2984764785e+01    0.6311784    0.2810424  51.85  0.002448149    2.013    0.503
        49 -10.3332    165.1844    241.9711   1.2168322822e+02   4.6150482781e-01    0.2476642    0.1643066  35.45 0.0005497694    1.372    0.271
        50 -10.6994    172.5642    239.9490   1.1995526213e+02  -4.9647212591e-01    0.2853518    0.2178062 -74.68  0.001270205    1.836    0.455
        51 -10.8718    115.8194    239.8487   1.3095103638e+02   9.3316991071e+00    0.2352625    0.2055915  73.01  0.000729332    1.101    0.092
        52  -9.6314     61.7138    238.6195   1.4092269448e+02   1.7841962003e+01    0.2634456     0.190742  30.66  0.001628122    1.956    0.489
        53 -10.4576    165.6589    235.3340   1.2060207392e+02   1.4865933889e+00    0.2341107    0.2094669 -24.74  0.001325422    1.325    0.245
        54 -10.3231    161.9708    232.9467   1.2096626146e+02   2.5524586123e+00    0.2606244    0.1553711  61.71 0.0009789368    2.092    0.522
        55  -9.7451     55.5161    235.5928   1.4177154052e+02   1.9275303063e+01     0.296472    0.1571976  70.68  0.001088401    1.760    0.432
        56 -10.5497     73.3059    209.7278   1.3579197278e+02   2.2136450987e+01    0.5048028    0.3138637  26.92  0.002537464    2.366    0.577
        57 -11.0598     70.9378    220.2170   1.3741843773e+02   2.0256867657e+01    0.4855573     0.301026 -74.74  0.002651666    1.533    0.348
        58 -11.1566     68.0072    214.5379   1.3738943898e+02   2.1870492811e+01    0.2455483    0.1730706 -79.84 0.0007567444    1.294    0.227
        59 -10.9305     77.6033    221.0016   1.3619906742e+02   1.9118096946e+01    0.3433069    0.2196606  73.08    0.0012075    1.479    0.324
        60 -10.4960     78.6934    224.7030   1.3638922725e+02   1.8193206268e+01    0.2506234     0.225717  26.95 0.0005216253    1.580    0.367
        61 -11.1677    156.4201    231.8773   1.2190443593e+02   3.7318973939e+00    0.2672753    0.2325209  23.04 0.0008504558    1.259    0.206
        62  -9.0755     62.7249    233.0304   1.4023591462e+02   1.8804402712e+01    0.1606233    0.1249944  76.88 0.0002725321    1.035    0.034
        63  -8.8501     92.4466    232.5007   1.3458940107e+02   1.4521646928e+01    0.1280453    0.1039784  68.86 5.465786e-05    1.011    0.011
        64 -10.5844    142.1512    230.2642   1.2450990270e+02   6.5691963748e+00    0.3001657    0.2380624   1.46  0.001457231    1.888    0.470
        65 -10.7404     77.9204    233.1185   1.3741989197e+02   1.6612608087e+01    0.4144561    0.2100456 -66.24   0.00158473    1.999    0.500
        66  -9.1103    179.4511    227.9546   1.1672434636e+02   2.7119673384e-01    0.1666625    0.1176257 -79.41 0.0006951825    2.379    0.580
        67  -9.8094    197.6272    226.6800   1.1295415157e+02  -2.7549252000e+00     0.259338    0.2110187  73.11  0.001358268    1.710    0.415
        68 -10.5229    165.7536    226.6407   1.1923659277e+02   2.9742293774e+00    0.2983439    0.2283432 -84.99  0.001622598    1.790    0.441
        69 -11.0636    160.5798    223.6010   1.1979576886e+02   4.4612339558e+00      0.33694    0.2294393  33.15 0.0005721984    1.462    0.316
        70 -11.0498    132.2186    224.7566   1.2572008840e+02   9.3691941670e+00     0.302322    0.2342557 -48.04  0.001522694    1.526    0.345
        71 -10.1650    129.4893    220.9814   1.2573535416e+02   1.0587139741e+01    0.2910949    0.2002358  84.41  0.001253563    1.808    0.447
        72 -10.0539    147.6560    224.6388   1.2257285046e+02   6.6239623677e+00    0.3649705    0.2525812   2.46  0.001578166    2.759    0.638
        73 -10.8247    117.3513    224.3156   1.2866772631e+02   1.2048808296e+01    0.2367709    0.2101378  63.66 0.0002620021    1.074    0.068
        74 -11.5520    141.8252    221.8036   1.2333207922e+02   8.2147914539e+00    0.3938411    0.3326069  43.61  0.000408535    1.117    0.105
        75 -11.1988    137.7387    214.3602   1.2304241778e+02   1.0408494035e+01    0.5100397    0.3224326  37.07  0.001142823    1.581    0.368
        76 -10.3822    105.2335    219.1494   1.3044303291e+02   1.5138684046e+01    0.3485555    0.2226495  84.14 0.0004777148    1.837    0.456
        77 -10.0650    246.0160    218.9550   1.0255425776e+02  -9.6690104566e+00    0.2069202    0.1351446   2.90   0.00113444    1.700    0.412
        78 -10.0235    110.8703    221.3800   1.2958937306e+02   1.3738976124e+01     0.311258    0.1948653 -46.76  0.001310069    2.017    0.504
        79  -9.3186     93.8086    216.9829   1.3249155150e+02   1.7453103158e+01    0.2183956    0.1309699  82.06 0.0008910928    1.968    0.492
        80  -8.7597    190.4914    215.4546   1.1241135233e+02   3.9979423481e-01    0.1359584    0.1219441  31.71 9.061647e-05    1.011    0.011
        81  -9.6892     88.1119    212.9534   1.3315493779e+02   1.9203504262e+01    0.2382599    0.1667034 -84.54 0.0005291054    1.397    0.284
        82 -10.8592     80.6002    227.2637   1.3629635258e+02   1.7386578846e+01    0.2767352    0.2451558   7.10 0.0008731368    1.833    0.454
        83  -9.9822    102.2028    212.1264   1.3014021908e+02   1.7102627465e+01    0.3741778    0.1923344  59.94  0.001679032    2.068    0.517
        84  -9.2489     33.7330    211.4070   1.4370728882e+02   2.6953258625e+01    0.1338835    0.1110304  41.01 0.0004306156    1.546    0.353
        85  -9.2324    134.6023    208.3434   1.2276387320e+02   1.2195799927e+01    0.2568345    0.2023216  -4.43  0.001103896    1.987    0.497
        86 -10.2653    109.0126    207.6732   1.2809635879e+02   1.6895824881e+01    0.3080917    0.1957016 -66.35 0.0009735343    1.636    0.389
        87  -9.2023    119.5473    208.5660   1.2599278611e+02   1.4870952183e+01    0.1395067    0.1204546  67.08 -7.706905e-06    1.024    0.023
        88 -12.0179     93.5317    203.3115   1.3077972838e+02   2.0417395023e+01    0.6089138    0.4992922 -85.79  0.003630789    1.133    0.117
        89 -10.5045    102.6036    202.6188   1.2874457239e+02   1.9071256519e+01    0.4403102    0.2471228  60.05  0.001792855    1.848    0.459
        90 -10.0571     98.8069    196.9649   1.2875610589e+02   2.0948270004e+01    0.4546636    0.2479371  65.62  0.001459906    2.206    0.547
        91  -9.8064    102.5842    195.5598   1.2772311298e+02   2.0625321597e+01    0.2136075    0.1879607 -78.99 0.0001464125    1.120    0.107
        92 -11.2345    247.5627    205.6207   9.9788682331e+01  -7.9599826113e+00    0.4097932    0.2483173  21.48  0.002139286    1.793    0.442
        93 -10.8523     84.7900    229.5190   1.3573331228e+02   1.6298041457e+01    0.3533295    0.3001782  46.36 0.0006747796    1.333    0.250
        94  -9.6038    175.1794    205.3738   1.1372566683e+02   5.0958865724e+00    0.2435401    0.1983435  28.09 0.0001524843    1.238    0.192
        95  -9.1757    178.2777    204.6803   1.1296090717e+02   4.6319553638e+00    0.2001426    0.1739089 -76.16 0.0002691756    1.381    0.276
        96  -9.3322    125.9490    205.7273   1.2419876466e+02   1.4317680537e+01    0.2013332    0.1658024  55.24 0.0005091966    1.096    0.088
        97  -9.3412    166.9719    203.2280   1.1505203869e+02   7.0844059311e+00    0.1948733     0.166606  46.18            0    1.079    0.074
        98  -9.3515    133.0924    202.8482   1.2220912969e+02   1.3609737438e+01    0.2140415    0.1780938  75.32 0.0004052048    1.203    0.169
        99 -10.2722     37.2910    202.4591   1.4223650285e+02   2.8454127236e+01    0.2935588    0.1703175 -77.80 0.0009849359    1.459    0.315
       100  -9.8010     64.0324    202.1507   1.3682542017e+02   2.5108089995e+01    0.2466974    0.1727674  35.91 0.0007113155    1.683    0.406
       101 -11.2093     32.8512    201.8737   1.4304898207e+02   2.9091627832e+01    0.1921031    0.1549109  87.62 0.0002812633    1.103    0.093
       102  -9.8125    197.2775    200.7388   1.0836288949e+02   1.7253893662e+00    0.2527907    0.1649446  43.85 0.0008516711    1.460    0.315
       103 -10.5009    120.1922    199.4901   1.2446943529e+02   1.6682256482e+01    0.3853804    0.2335017  66.38  0.001294918    1.942    0.485
       104 -10.1055    115.1292    200.3297   1.2570101066e+02   1.7405017388e+01    0.2335201    0.1886874 -76.25 0.0002276569    1.242    0.195
       105  -9.0042    169.5185    200.4323   1.1401458257e+02   7.1335175236e+00    0.1425152    0.1308748  46.85 9.651117e-05    1.019    0.018
       106 -10.7154     54.5178    198.2450   1.3835205147e+02   2.7250669129e+01    0.6026886     0.177082  44.46  0.002460067    3.028    0.670
       107 -10.5480     56.9942    193.8987   1.3735195135e+02   2.7894938014e+01    0.3282436    0.2891425  67.58  0.002172475    1.194    0.162
       108 -10.0636     43.9904    199.3464   1.4060910936e+02   2.8334269645e+01     0.273673    0.2182635  43.94  0.001184283    1.450    0.310
       109  -8.5692     86.2663    199.2695   1.3178990442e+02   2.2463531499e+01     0.175131    0.1025856 -66.93    0.0002063    1.660    0.398
       110  -9.5454     85.9619    195.7602   1.3138370767e+02   2.3292966025e+01    0.2055866    0.1742085  81.85 0.0003326288    1.015    0.015
       111  -8.4607    149.7194    198.7222   1.1792835332e+02   1.1316178340e+01    0.1330378     0.113111   4.93 0.0002061874    1.505    0.335
       112  -9.7071    134.0949    197.8605   1.2117220563e+02   1.4471743905e+01    0.2177401    0.1796113  75.82 0.0003695284    1.235    0.191
       113 -11.0227    249.5088    194.9018   9.7376084270e+01  -6.6360976210e+00    0.3249613     0.275364 -59.53  0.001958895    1.639    0.390
       114 -11.6583     65.8301    194.9817   1.3561071805e+02   2.6451711899e+01    0.4040439    0.2761229 -48.74   0.00149807    1.825    0.452
       115 -11.2686     76.3332    186.3419   1.3221551392e+02   2.6898806951e+01    0.3842669    0.2283684 -79.54  0.001365539    1.723    0.420
       116 -11.8482     71.3782    187.5991   1.3348076085e+02   2.7336547926e+01    0.3294516    0.2826844 -46.13   0.00042805    1.484    0.326
       117 -10.2287    113.0611    193.6353   1.2511562796e+02   1.9234515023e+01     0.497889    0.2365946 -61.94  0.001105239    2.244    0.554
       118 -10.2497     38.5926    192.8277   1.4105205779e+02   3.0415769591e+01    0.3619007    0.1682425 -63.12  0.001860054    1.935    0.483
       119  -9.4579     40.8368    187.7007   1.4006254570e+02   3.1299557618e+01    0.2845927    0.1768827 -88.72  0.001624435    1.422    0.297
       120  -9.8979     20.5193    192.4782   1.4463439294e+02   3.2455133971e+01    0.3680564    0.1567719 -87.52  0.001779606    2.275    0.560
       121  -9.4887    159.8479    194.1877   1.1493386944e+02   1.0268058112e+01    0.2183013     0.191625  74.37 0.0005119701    1.206    0.171
       122  -9.1895    133.3371    194.4061   1.2075695102e+02   1.5350437764e+01    0.2549093    0.1339064  38.88 0.0008002194    1.914    0.477
       123 -10.4719    119.8497    192.7934   1.2347374927e+02   1.8200982754e+01    0.3718817    0.3257279 -43.99  0.001305493    1.342    0.255
       124  -9.6461    117.9956    190.0335   1.2343552606e+02   1.9147043661e+01    0.2123313    0.1913385  78.02 0.0003157423    1.016    0.016
       125  -8.6786     82.3772    194.4715   1.3198811311e+02   2.4138307981e+01    0.1807869    0.1137217  54.65 -3.296084e-05    1.495    0.331
       126  -8.7709     84.6854    192.2962   1.3118793534e+02   2.4271345248e+01    0.1388809    0.1232327  85.15  0.000338287    1.071    0.066
       127  -9.6243     72.9564    193.0804   1.3384739804e+02   2.5862648435e+01    0.1959715    0.1653398  82.25 -0.001320134    1.016    0.016
       128 -10.2062    191.5540    191.5358   1.0775400069e+02   4.5227561903e+00    0.2721992    0.2510653  17.01 0.0006598048    1.065    0.061
       129  -9.1648    172.5801    192.4752   1.1189255540e+02   8.0931635528e+00    0.1425422    0.1358664  45.77 0.0002897242    1.015    0.014
       130  -9.3050    135.2784    190.0689   1.1957953728e+02   1.5915853170e+01    0.1949071    0.1783534 -88.65 0.0003214135    1.082    0.076
       131 -10.4963     32.5990    189.5085   1.4194812630e+02   3.1831451066e+01    0.3246945    0.2429881  23.75  0.002043408    1.935    0.483
       132 -11.3040    249.8211    187.6871   9.5897080101e+01  -5.5508522843e+00    0.3764209    0.2176334 -26.92  0.001884402    1.717    0.418
       133  -9.5777    244.6504    185.6936   9.6407197427e+01  -4.3485898799e+00    0.1391726   0.09665831   3.45 0.0007042574    1.705    0.414
       134  -8.5877    149.3523    185.2917   1.1558355627e+02   1.4198681794e+01    0.1462228    0.1181332   6.06  0.000408237    1.677    0.404
       135  -9.9852     29.7965    183.6347   1.4194959700e+02   3.3445869923e+01    0.2961107      0.19458 -74.47  0.001381154    1.262    0.208
       136 -10.9352    141.5770    182.7938   1.1685739808e+02   1.6274597222e+01    0.4822366    0.3767602  35.23 0.0009455205    1.351    0.260
       137  -9.2083     36.6319    184.1176   1.4056907275e+02   3.2588762902e+01    0.2073625    0.1403404  56.35 0.0005296628    1.425    0.298
       138  -9.8503     24.9370    184.1263   1.4299997787e+02   3.3844078337e+01    0.1904161    0.1455103  87.60  0.001280382    1.020    0.020
       139  -8.7539     85.9583    183.3723   1.2963059539e+02   2.6109208201e+01     0.210124    0.1245209  12.67 0.0007028174    4.674    0.786
       140  -9.2400     65.8651    181.9265   1.3395634021e+02   2.9420348625e+01     0.184429    0.1655844 -73.66 0.0003329774    1.196    0.164
       141  -9.6282    127.0262    179.9377   1.1964483260e+02   1.9724480118e+01     0.358104    0.2487484  36.09  0.001130068    1.545    0.353
       142  -9.7807    174.8860    179.7612   1.0891791164e+02   1.0184011754e+01    0.3503188    0.1778661  48.19 0.0009143755    1.945    0.486
       143  -8.5492    170.2576    180.2845   1.1002154499e+02   1.1025077298e+01    0.1394282    0.1163751  -1.30 0.0006867464    1.479    0.324
       144  -9.1961     47.9731    179.7239   1.3764330616e+02   3.2259951498e+01    0.1717162    0.1406836  62.37 0.0005852734    1.209    0.173
       145 -10.1840    108.6089    178.0507   1.2357266392e+02   2.3543343475e+01    0.3833538    0.2312066  55.80  0.001290308    1.696    0.410
       146 -12.4268     29.3978    227.5650   1.4575864780e+02   2.4126506483e+01    0.7849764    0.4145758  65.31  0.002934713    1.585    0.369
       147 -11.4448     79.9456    175.6028   1.2985405770e+02   2.8844647473e+01     0.461369    0.2761013  48.06  0.001429889    1.654    0.395
       148  -9.3487    115.1605    176.9578   1.2185848297e+02   2.2614580520e+01    0.2447293    0.1593764 -88.25  0.001021278    2.029    0.507
       149 -11.7011     67.8698    173.5383   1.3235288397e+02   3.1092384569e+01    0.4939596    0.2987127 -54.57   0.00110675    1.659    0.397
       150  -9.7710    121.8669    175.5557   1.2004477901e+02   2.1691901007e+01    0.2345358    0.1947218 -65.06  0.000251472    1.196    0.164
       151 -10.9641    236.6913    145.9053   8.9436930186e+01   4.0319913358e+00    0.5024751    0.2718501  32.29   0.00207182    2.473    0.596
       152 -10.6122    193.6169    245.3415   1.1675984716e+02  -4.9502077751e+00    0.2467849    0.2104069 -13.82 0.0001633108    1.304    0.233
       153 -12.5152    245.1826    163.3717   9.1720682528e+01  -6.8906736443e-01    0.6773378    0.3579248 -45.80  0.003078068    1.913    0.477
       154 -12.6567    245.8687    156.6622   9.0182350324e+01   3.4836100776e-01     1.344311    0.9257014 -76.16  0.005979058    2.666    0.625
       155 -10.5214    249.6974    117.9601   8.1137634049e+01   6.4308491065e+00    0.3955674    0.3012587 -16.41  0.001190986    1.585    0.369
       156 -12.2586    248.3276    112.8909   8.0223053187e+01   7.6002338981e+00     1.399765    0.9130978   3.27  0.005553249    3.248    0.692
       157 -11.9890    248.0065    142.3532   8.6748955829e+01   2.4557140758e+00    0.7214774      0.59037  20.90   0.00349182    1.412    0.292
       158 -10.2729    200.2153    245.9192   1.1561059740e+02  -6.1360497034e+00    0.2199381    0.1600963  54.79   0.00100384    1.602    0.376
       159  -9.2715     90.9695    172.5278   1.2678907573e+02   2.7831640616e+01    0.2597371    0.1744465 -40.63 0.0007543654    1.892    0.471
       160 -10.5569     89.9253    160.4737   1.2500358017e+02   3.0852836725e+01     0.386714    0.2310912 -67.67 0.0003020333    1.664    0.399
       161  -9.7015     93.5852    169.1905   1.2561454660e+02   2.8187611201e+01    0.2366567    0.1967764 -56.54 0.0002545469    1.235    0.190
       162 -12.5128     87.2329    166.7066   1.2672342476e+02   2.9805809603e+01     0.766918    0.5914037 -56.93  0.004160213    1.285    0.222
       163  -8.9271     31.6536    171.7419   1.4031409924e+02   3.5941665924e+01    0.1641961   0.09928243 -84.76 0.0003043019    1.435    0.303
       164  -8.8363    167.0000    170.0029   1.0864213553e+02   1.3851038843e+01    0.2448334   0.08655641 -46.61 0.0007965014    2.901    0.655
       165  -8.9592    100.5528    170.4824   1.2417157173e+02   2.6709338232e+01     0.146093    0.1297459  86.86 -2.467992e-05    1.031    0.030
       166 -10.8888     44.2620    168.7786   1.3714652940e+02   3.5230860103e+01    0.4332842    0.3243237  38.85  0.001693283    1.542    0.351
       167  -9.3294    126.3359    167.6046   1.1750338577e+02   2.2659967812e+01    0.2280282    0.1682432  77.76  0.001044185    1.593    0.372
       168  -8.9345    107.1958    168.2169   1.2218457205e+02   2.6078265460e+01     0.199786    0.1582513  77.66 0.0003472368    1.306    0.234
       169 -10.3964     68.7611    166.8259   1.3116623844e+02   3.2547653405e+01    0.2365011    0.1991614 -78.17 0.0003728479    1.049    0.047
       170  -9.2110     58.5076    167.4956   1.3368368476e+02   3.3777128840e+01    0.1347258    0.1129514 -86.08 0.0008106256    1.006    0.006
       171  -9.0327     77.0000    165.9469   1.2906184111e+02   3.1563377291e+01    0.2246456   0.07262774 -61.26 0.0004908186    2.856    0.650
       172  -9.3216     53.9391    164.7486   1.3437634717e+02   3.5006373518e+01    0.1799181    0.1487247 -86.96 0.0002859039    1.030    0.029
       173 -12.2674     60.4222    223.2300   1.3974310455e+02   2.1107633105e+01    0.8273596    0.7397389  55.30  0.003305966    1.361    0.265
       174 -13.9261     27.5708    247.1243   1.4739659138e+02   2.0539466503e+01     1.700715    0.9465788  42.49   0.01104136    1.835    0.455
       175  -9.7911    107.8242    173.1186   1.2290508278e+02   2.4823285202e+01    0.2205835     0.178818  78.99 0.0005026679    1.238    0.192
       176 -10.8875     28.4836    171.3916   1.4096982678e+02   3.6349958879e+01    0.4043834    0.1803181 -66.45  0.001770152    1.824    0.452
       177  -8.9926     36.9964    162.5364   1.3804097604e+02   3.7495275237e+01    0.1645505    0.1198009  44.62  0.000611045    1.513    0.339
       178 -10.8295     73.6360    157.9808   1.2859875842e+02   3.3953385206e+01    0.4743024     0.352596 -74.32  0.001624612    1.233    0.189
       179  -9.2021     79.0139    159.0120   1.2744239469e+02   3.2911146884e+01    0.2172237     0.154247  78.80 0.0004890478    1.547    0.354
       180  -9.0331     52.4746    158.4850   1.3384718629e+02   3.6664522214e+01    0.1331347    0.1119607 -78.92 0.0008098301    1.024    0.024
       181  -8.8016     48.2783    157.3898   1.3470369254e+02   3.7427574886e+01    0.1337366   0.08752131 -46.23 0.0001201568    1.736    0.424
       182  -9.1958    228.3622    155.2934   9.2976598111e+01   3.9754405660e+00    0.1996111    0.1267665 -46.57 0.0004951542    1.573    0.364
       183  -8.5644    175.7205    155.2491   1.0354521026e+02   1.5119019153e+01    0.1455927    0.1197825  84.78  0.000682653    1.458    0.314
       184  -9.3570     53.0186    146.4693   1.3191278897e+02   3.9445168449e+01    0.2152894     0.163955  87.79  0.000588619    1.293    0.226
       185 -10.5247     60.1652    151.0586   1.3083440047e+02   3.7457097415e+01     0.532825    0.2873176  77.19   0.00171022    2.892    0.654
       186 -10.1777     56.0249    150.5153   1.3178698775e+02   3.8114001370e+01    0.3004824    0.2106391  68.41 0.0008629184    1.540    0.351
       187 -10.2381    113.8931    150.8152   1.1719320239e+02   2.8949694394e+01    0.3767224    0.2494406 -57.53 0.0005350842    1.474    0.322
       188 -12.8463     67.5053    144.2375   1.2782218613e+02   3.8104560380e+01    0.7265494    0.5263184  73.71  0.003847841    1.544    0.352
       189 -12.0857     72.4512    139.2490   1.2562408271e+02   3.8602585894e+01    0.6534036    0.5132009 -80.65  0.003601596    1.255    0.203
       190  -9.9985    138.8400    138.6746   1.0832694043e+02   2.6778799337e+01    0.2521364    0.2368824 -10.73 0.0004874739    1.207    0.172
       191 -10.1673     40.1791    147.1998   1.3524820303e+02   4.0738860040e+01      0.18136    0.1349043  75.80  0.001071811    1.369    0.269
       192  -9.3979    158.9038    145.1537   1.0504503074e+02   2.0987762108e+01    0.2241005    0.2028223  87.42            0    1.161    0.139
       193  -9.1110     92.9391    145.0656   1.2137358234e+02   3.4035514432e+01    0.2254155    0.1645859  77.41 0.0006653441    1.613    0.380
       194 -12.1706     17.4794    139.8677   1.3988214485e+02   4.4590699888e+01    0.3848094     0.228857  56.87  0.002216697    1.899    0.473
       195  -9.4219     41.5144    140.5153   1.3392950894e+02   4.2166444382e+01    0.1308496    0.1082024 -68.65 4.197714e-05    1.050    0.047
       196 -11.5826     60.0944    136.9167   1.2847961553e+02   4.0833353348e+01    0.4629321    0.2689146 -77.31  0.001500907    1.892    0.471
       197 -10.6558     45.6619    138.7107   1.3257842579e+02   4.2137212970e+01    0.1999269    0.1718183 -56.03  0.001061922    1.169    0.145
       198 -10.2612    111.0404    136.0870   1.1477801189e+02   3.2954604498e+01    0.3751266    0.2963748  -3.19  0.001121681    1.806    0.446
       199 -10.8803    133.5036    142.0725   1.1041742952e+02   2.7117637022e+01    0.9057603      0.30857 -51.95  0.002844079    3.034    0.670
       200 -11.6674     45.5215    131.5722   1.3145132188e+02   4.3832166813e+01    0.5167313    0.3003372 -86.61  0.002458488    2.100    0.524
       201  -9.6416    136.8382    133.9576   1.0771708803e+02   2.8275680724e+01    0.2255616     0.208762 -19.00 -0.0006383859    1.215    0.177
       202 -12.0253      2.9839    132.6346   1.4257464877e+02   4.7307528951e+01    0.4664704    0.2428466  87.46  0.002524188    1.993    0.498
       203 -11.1022     33.1845    131.6334   1.3474371431e+02   4.5090827994e+01    0.2796235    0.2167888  55.31  0.001295707    1.448    0.309
       204 -11.6825     31.5672    127.1696   1.3448363572e+02   4.6278669664e+01    0.4416285    0.2133494  48.97   0.00206527    2.519    0.603
       205  -9.3274     95.6284    172.9734   1.2576158941e+02   2.6959513939e+01    0.2253605    0.1602673 -83.25 0.0008362615    1.478    0.324
       206 -11.9704     67.7627    128.3020   1.2479047226e+02   4.1859247261e+01    0.4259149    0.4109783 -67.83  0.001106486    1.104    0.094
       207 -10.0524    117.1195    128.7245   1.1150675969e+02   3.3504203050e+01     0.300871    0.1996861 -25.61  0.001236367    2.149    0.535
       208  -8.9507    109.7631    128.9596   1.1349981852e+02   3.4861010297e+01    0.2071327    0.1852268 -56.97 0.0003236723    1.069    0.065
       209  -9.1341    106.0000    128.4146   1.1437646669e+02   3.5687275943e+01    0.3456205    0.0821297 -51.60 0.0009444319    4.013    0.751
       210  -9.6971    122.9178    128.0530   1.0983936070e+02   3.2506431812e+01    0.2252558    0.2179774 -63.29 0.0002994134    1.026    0.026
       211 -13.3803     19.9959    122.2303   1.3684162277e+02   4.8413966655e+01    0.8461384    0.5112482 -23.95  0.004578655    2.417    0.586
       212  -8.7162     85.4426    126.5455   1.1954566842e+02   3.9655620246e+01     0.143851    0.1315355 -63.89 0.0002149593    1.002    0.002
       213 -10.5079    209.8344    125.7412   8.9697073619e+01   1.3539742516e+01    0.2999937    0.2527033 -41.05 0.0004944074    1.144    0.126
       214 -11.0750     95.8911    157.5689   1.2300595498e+02   3.0556714863e+01    0.5291098    0.2600308 -59.20  0.001961664    1.951    0.488
       215 -10.4370     59.0275    125.0224   1.2657265646e+02   4.3778562391e+01     0.349287    0.1965969  25.00  0.001138824    2.271    0.560
       216 -10.7937     36.6915    124.6843   1.3269319513e+02   4.6361087125e+01    0.2197849     0.154838 -60.16 0.0006908653    1.177    0.150
       217 -10.7429     38.4352    121.5049   1.3167203142e+02   4.6922981315e+01    0.2090323    0.1687772 -63.20 0.0007057032    1.029    0.029
       218 -10.1819     54.8069    120.8325   1.2694717738e+02   4.5276721126e+01    0.2480206    0.1921369   3.81   0.00125772    1.712    0.416
       219 -11.8537      7.3107    120.1628   1.3993274134e+02   4.9808489118e+01    0.2674573    0.2001292 -18.19  0.001792432    1.782    0.439
       220  -9.4590     86.1979    116.2436   1.1701626357e+02   4.1932549115e+01    0.2390207    0.1918501 -58.82 0.0007509501    1.173    0.147
       221 -11.9069     15.4003    115.0360   1.3701813915e+02   5.0390663540e+01    0.3486418    0.1564978 -68.87  0.001123799    1.808    0.447
       222  -9.6986    231.9975    116.5191   8.3621783723e+01   1.0388359750e+01    0.2079428    0.1453109  55.85 0.0005927081    1.543    0.352
       223 -10.8672    168.0546    113.3102   9.5185488154e+01   2.5756838268e+01    0.3718493    0.3040964 -79.60 0.0008305417    1.409    0.290
       224  -9.6949     50.0420    112.7324   1.2671439329e+02   4.7703724882e+01    0.1755067    0.1593956 -56.14 0.0003578849    1.065    0.061
       225  -9.3975    203.5101    111.5212   8.7460883887e+01   1.7747021422e+01    0.1513717    0.1465579 -56.62  0.000166783    1.036    0.035
       226 -11.1704     57.0856    110.3701   1.2415260805e+02   4.7412172695e+01     0.330555    0.2281085  10.15  0.001727408    1.955    0.488
       227 -10.6494     31.5208    110.9756   1.3177748237e+02   4.9989409280e+01    0.2050129    0.1914678  30.15 0.0005483642    1.301    0.231
       228 -10.7982     27.4848    106.3939   1.3212930613e+02   5.1373276547e+01     0.216936    0.1883179 -73.52  0.001475583    1.132    0.116
       229 -11.2028    100.6846    150.2498   1.2041000203e+02   3.1476899181e+01     0.907921    0.5624709 -31.05  0.003719649    2.461    0.594
       230 -11.6475     19.1907    103.8602   1.3412513292e+02   5.2599776202e+01    0.3526409    0.2144597 -14.57  0.001954392    2.331    0.571
       231  -8.7614     77.5575    103.4425   1.1645611323e+02   4.6179106340e+01    0.1394706    0.1270039 -47.13 0.0001118721    1.001    0.001
       232  -8.4946     85.7202     97.2493   1.1243402153e+02   4.6256251071e+01    0.1291846    0.1100379  84.26 0.0006827837    1.459    0.315
       233  -9.5003     31.0109     90.4766   1.2789292780e+02   5.4562508314e+01      0.15553    0.1228357  20.98 0.0003843953    1.510    0.338
       234  -9.9229     24.2270     87.9901   1.2954149272e+02   5.5660725974e+01    0.1805841    0.1625823 -37.89 0.0003572315    1.147    0.128
       235 -12.3902    248.2052    172.0668   9.3010548897e+01  -2.7143358408e+00    0.6072588    0.4964747  -2.31  0.003424055    1.241    0.194
       236 -11.0851    249.4479    150.9381   8.8358398429e+01   6.7773472475e-01    0.5833087    0.3261216 -43.77  0.002754848    1.677    0.404
       237  -8.6056     49.7174     83.2920   1.2010157482e+02   5.4205917460e+01    0.1167074    0.0988519 -88.79            0    1.533    0.348
       238 -10.0795    222.2091    244.8386   1.1136873493e+02  -9.5412378527e+00    0.1710746    0.1250435  10.13 0.0008452226    1.329    0.248
       239 -11.6930    249.4188    241.6367   1.0597002196e+02  -1.3228957672e+01    0.6171452    0.2006547 -33.23  0.002712888    3.235    0.691
       240 -12.0402    244.9084    241.6143   1.0675658771e+02  -1.2570272886e+01    0.3405387    0.2290944 -23.62  0.002154275    1.479    0.324
       241  -9.8878    152.4921    243.7600   1.2438859118e+02   2.3722136033e+00     0.211696    0.1290647 -58.44  0.001128419    2.018    0.504
