#   1 NUMBER                 Running object number                                     
#   2 MAG_AUTO               Kron-like elliptical aperture magnitude                    [mag]
#   3 X_IMAGE                Object position along x                                    [pixel]
#   4 Y_IMAGE                Object position along y                                    [pixel]
#   5 X_WORLD                Barycenter position along world x axis                     [deg]
#   6 Y_WORLD                Barycenter position along world y axis                     [deg]
#   7 A_WORLD                Profile RMS along major axis (world units)                 [deg]
#   8 B_WORLD                Profile RMS along minor axis (world units)                 [deg]
#   9 THETA_WORLD            Position angle (CCW/world-x)                               [deg]
#  10 FWHM_WORLD             FWHM assuming a gaussian core                              [deg]
#  11 ELONGATION             A_IMAGE/B_IMAGE                                           
#  12 ELLIPTICITY            1 - B_IMAGE/A_IMAGE                                       
         1 -12.6760     46.4645     26.4835   3.9516009666e+01   6.8467861574e+01    0.5542842    0.2338124 -46.59  0.002332559    2.651    0.623
         2 -12.3527     66.9600     16.2627   2.4806249220e+01   6.6050031631e+01    0.2462434    0.2249009  32.00 0.0003520977    1.038    0.036
         3 -13.0751    135.4977     11.9046   5.8714472187e+00   4.9739514451e+01    0.2925946    0.2530217  81.27 0.0006082095    1.025    0.024
         4 -11.6199     90.5958     11.7325   1.4888892673e+01   6.1152357335e+01    0.2309463    0.1855731 -54.99 0.0005064757    1.434    0.303
         5 -11.4498     91.9720      7.6581   1.2705611538e+01   6.1236212381e+01    0.2593932    0.1783004 -48.56   0.00137615    1.688    0.408
         6 -12.0381     44.9429      7.6343   3.0104134518e+01   7.1534232658e+01    0.2099987    0.1881172  -4.28 0.0003313454    1.140    0.123
         7 -10.6632     68.2644      6.9843   1.9522955575e+01   6.6856408092e+01     0.177834     0.160556  32.82 0.0004137125    1.064    0.060
         8 -10.5588    107.5402      5.4872   8.3106201322e+00   5.7557357839e+01    0.1377718    0.1169089  62.76 -0.000148266    1.058    0.055
         9 -10.8406    215.0906      2.6978   3.5563382516e+02   3.1403149576e+01    0.1647846    0.1275971 -77.46 0.0003274882    1.089    0.082
        10 -10.7574    129.0189      1.4355   3.2021999605e+00   5.2417018093e+01    0.2067925    0.1142583  72.95 0.0003654758    1.536    0.349
        11 -11.4336    126.5005    241.8154   6.1704485553e+01   7.0929734251e+00    0.2245802    0.1573303  48.11 0.0005343939    1.423    0.297
        12 -10.7925    236.2223    250.6385   4.1912626687e+01  -7.6797716958e+00    0.1418071   0.07585683  16.35 0.0003762771    1.578    0.366
        13 -10.9192    178.6605    248.2147   5.1829330901e+01  -8.1626869280e-01    0.2395454    0.1113854 -50.31  0.001225995    3.027    0.670
        14 -11.7445    139.3295    248.5437   5.9769304998e+01   4.2579867885e+00    0.2892945    0.1661998 -52.27  0.001654656    2.208    0.547
        15 -10.9822    124.7834    249.9584   6.2980166378e+01   5.9793537817e+00    0.1778115    0.1451051   3.19  0.001182534    1.338    0.253
        16 -12.5432     55.2110    249.4112   7.7882900236e+01   1.5009278616e+01    0.6813652    0.2536994  23.19   0.00278113    3.295    0.696
        17 -13.3665     73.0235    230.7022   7.2548089098e+01   1.6397734943e+01    0.5134197    0.3280161 -76.75   0.00124955    1.835    0.455
        18 -11.3709     69.1645    233.1498   7.3635675916e+01   1.6409356408e+01    0.2005036    0.1315377  47.52  0.001167415    1.228    0.185
        19 -13.9993     70.1143    244.7168   7.4331162801e+01   1.4071809848e+01    0.5108864    0.4395027 -59.90    0.0015757    1.488    0.328
        20 -14.4798     49.5766    218.9578   7.7099767979e+01   2.1746407290e+01     1.186371    0.9925231  77.99  0.004083514    1.189    0.159
        21 -14.1065     55.1965    207.5612   7.4843135829e+01   2.3548561644e+01     3.208415    0.7647508  47.05   0.01089888    3.479    0.713
        22 -14.4689     36.1838    248.9522   8.1887432806e+01   1.7257334196e+01      1.28281    0.3633986  36.83  0.004995423    2.308    0.567
        23 -14.0674      9.7804    215.7637   8.6192438547e+01   2.6639211621e+01    0.6715649    0.2920056  35.64  0.001579242    1.837    0.456
        24 -15.0198      3.0735    205.7628   8.7370062352e+01   2.9409839981e+01     1.444462    0.6087258 -83.54  0.007209927    2.239    0.553
        25 -15.0596     21.6357    214.8163   8.3427520488e+01   2.5706474802e+01     1.244286    0.6504962  73.13  0.005882256    1.776    0.437
        26 -15.8480     16.5424    206.5647   8.4231210916e+01   2.8018248382e+01     3.178481     1.151322 -49.03   0.01129169    5.170    0.807
        27 -15.2981      2.9803    222.9900   8.7946899553e+01   2.5726741620e+01     1.315536    0.4396312 -84.67  0.006113152    2.911    0.656
        28 -16.2551     14.5022    227.5694   8.5592245824e+01   2.3713860253e+01     1.959232    0.7125607  63.25  0.009234407    2.424    0.587
        29 -15.6854      3.4707    247.9809   8.8541757862e+01   2.0736189118e+01     1.274726    0.5773337  39.64  0.006472993    1.580    0.367
        30 -15.9630     10.2237    240.2044   8.6947814990e+01   2.1593660213e+01     0.979282    0.5541182  39.27  0.004398179    1.376    0.273
        31 -14.9283      7.0863    233.8868   8.7403124490e+01   2.3134874603e+01    0.5434334    0.3134722  49.61  0.003435404    1.265    0.209
        32 -11.6227    117.5867    241.2146   6.3568312990e+01   8.4210340865e+00    0.1543301    0.1164059 -37.89 0.0009488838    1.651    0.394
        33 -11.6637    108.4792    240.1936   6.5455096582e+01   9.8494240451e+00    0.3006594    0.1798276  19.39 0.0009925248    1.773    0.436
        34 -10.6276     58.5158    234.4928   7.6153870669e+01   1.7471409939e+01    0.1276897   0.09963468  48.22 -7.063194e-05    1.003    0.003
        35 -13.1428     58.1179    221.0249   7.5231009386e+01   2.0270348802e+01    0.5000548    0.3319871 -83.16  0.001362596    1.648    0.393
        36 -12.9021     62.7923    238.7574   7.5504738233e+01   1.6112377012e+01    0.4602477    0.4036022 -57.78   0.00316652    1.469    0.319
        37 -13.3474     57.9042    229.9580   7.5962301032e+01   1.8453812623e+01    0.6111545     0.384927  25.61   0.00281819    1.582    0.368
        38 -12.4452     62.3107    216.6903   7.3873950231e+01   2.0662572702e+01    0.4304252    0.2315263  55.60  0.002150847    1.718    0.418
        39 -11.9298     66.9257    216.1677   7.2713894759e+01   2.0180689291e+01    0.4458335    0.2612735 -88.66  0.001969537    2.022    0.506
        40 -10.5502    167.1956    240.2344   5.3017435377e+01   1.8123096430e+00     0.151369    0.1225012  36.33 0.0002226665    1.305    0.234
        41 -12.9285     49.2779    238.0598   7.8458829062e+01   1.7870847894e+01    0.4588206     0.258867  62.54  0.002412416    1.643    0.391
        42 -11.0597    149.5149    238.9781   5.6472318462e+01   4.3926530123e+00    0.1606487     0.121709 -40.59 0.0006772802    1.559    0.358
        43 -10.7991    217.7103    237.9321   4.3204244278e+01  -4.1552242302e+00    0.1531864    0.1186741  -1.11 0.0006192575    1.067    0.062
        44 -11.8389    103.3675    237.8430   6.6343002138e+01   1.0971817762e+01    0.2298271    0.1772002 -47.11  0.001427963    1.615    0.381
        45 -11.1481    210.8605    236.4476   4.4193605380e+01  -3.1647521253e+00    0.2033505    0.1465835 -48.75  0.001323359    2.085    0.520
        46 -12.7179     64.1228    245.6197   7.5706466793e+01   1.4644162689e+01    0.2456452    0.2056611 -43.26 0.0003939987    1.644    0.392
        47 -11.0098     88.4820    236.5034   6.9548398361e+01   1.3236492031e+01    0.1304453    0.1021201  43.25 0.0001313538    1.033    0.032
        48 -11.3708    220.3448    232.1898   4.1895426822e+01  -3.7228858987e+00    0.3342689    0.1600575  41.57  0.001563153    2.704    0.630
        49 -11.1015    182.5091    232.0481   4.8844810946e+01   1.0021861069e+00    0.2271351     0.150616  41.73  0.001356509    1.673    0.402
        50 -13.0563    195.0425    229.0955   4.6007130491e+01  -2.0288065589e-01    0.2483709    0.2099096  -3.91 0.0005735449    1.137    0.120
        51 -11.0526    139.0703    227.9670   5.7273454639e+01   7.6926796314e+00     0.305122    0.1796672 -65.99  0.001516959    2.600    0.615
        52 -12.0361    230.6611    227.4636   3.9424054820e+01  -4.3000813140e+00    0.2589986    0.1531134   0.67  0.001132172    1.664    0.399
        53 -11.2369    178.2173    228.4222   4.9163721839e+01   2.1191534054e+00    0.1638406    0.1000951  36.57  0.000310763    1.532    0.347
        54 -10.4271    166.2731    228.3305   5.1560160878e+01   3.7724395764e+00    0.1238881   0.08578818  -3.37 0.0002836909    1.590    0.371
        55 -11.6990    129.0966    225.7819   5.9192844711e+01   9.5221830276e+00    0.2978461    0.1787225 -42.01  0.001237802    1.994    0.499
        56 -11.8784     80.8420    225.3879   7.0253133612e+01   1.6427031744e+01    0.3227684     0.222977 -23.85  0.001672032    2.289    0.563
        57 -13.0739     78.0100    220.1870   7.0424781055e+01   1.7868570167e+01    0.7908294    0.2820669  55.60  0.002750836    3.743    0.733
        58 -11.5806    116.5780    225.7192   6.2009210329e+01   1.1348302680e+01    0.1979346    0.1319838 -79.06 0.0008915354    2.166    0.538
        59 -11.9415    114.4848    221.9201   6.2028791551e+01   1.2369283389e+01    0.1836268    0.1632682  33.42 0.0009746801    1.063    0.060
        60 -12.2503     91.7105    224.5498   6.7625239276e+01   1.5107890106e+01    0.2469842    0.2259599  77.82 0.0007953515    1.212    0.175
        61 -11.8368     69.1469    224.9630   7.2956013419e+01   1.8055935259e+01    0.2771676    0.1894334 -74.94  0.001602988    1.665    0.400
        62 -10.4710    182.2896    225.3596   4.7908122769e+01   2.0336108018e+00    0.1268446   0.08292145  -4.54 0.0007026229    1.689    0.408
        63 -12.8348    174.0705    219.8380   4.8725069692e+01   4.0339288443e+00    0.3123562    0.2688059 -45.76 0.0006922032    1.449    0.310
        64 -12.0695    159.7505    223.0860   5.2164885779e+01   5.5449401106e+00    0.3409198    0.2772138  41.14  0.002154456    1.301    0.231
        65 -10.1722    212.2771    223.7139   4.2024705698e+01  -1.6244697837e+00   0.09642351   0.08942205  26.88 0.0001890437    1.513    0.339
        66 -10.6028    213.6782    221.3014   4.1400726420e+01  -1.4651605579e+00    0.1253189   0.09420741   0.17 0.0003630463    1.096    0.087
        67 -12.4113    120.3378    213.9016   5.9652045146e+01   1.3048128169e+01    0.3486773     0.254113  79.81  0.001842742    1.922    0.480
        68 -12.9009    123.9250    221.8112   5.9851650051e+01   1.1006433207e+01    0.4689363    0.3117576  42.09  0.001866832    1.329    0.248
        69 -12.6642    129.2633    217.0072   5.8004934369e+01   1.1112127790e+01    0.3417388     0.222683   0.71  0.001379914    2.183    0.542
        70 -12.6390    140.9933    210.4689   5.4423756264e+01   1.0554837361e+01    0.4697832    0.2944078 -75.89  0.002115032    2.902    0.655
        71 -13.0938    147.6273    216.2699   5.3788536792e+01   8.4937063065e+00      0.60658    0.2752244  32.06 0.0005920761    1.926    0.481
        72 -11.8327    141.5892    214.8007   5.4914970965e+01   9.6655144484e+00    0.2847748    0.2041268  20.20  0.001003709    1.323    0.244
        73 -12.6817    225.8432    216.4697   3.8521914984e+01  -2.2947831518e+00     0.207415     0.169893   3.71 0.0003372572    1.127    0.113
        74 -10.9545     94.7229    217.5526   6.6160002087e+01   1.6088748675e+01    0.1841894    0.1056843  41.81 0.0003267835    1.451    0.311
        75 -10.4270    161.6414    215.7733   5.0692261300e+01   6.4996771993e+00     0.151777    0.1242084 -55.70 0.0002576709    1.563    0.360
        76 -12.0161    155.0359    212.9798   5.1688652406e+01   7.9658390870e+00     0.420527    0.2651708 -48.49  0.002261633    1.820    0.451
        77 -12.6880    107.9753    214.8196   6.2682505991e+01   1.4713957460e+01    0.3040676    0.2037314 -69.85  0.001309334    1.847    0.459
        78 -12.9055     84.0015    214.6965   6.8431225019e+01   1.8191126955e+01     0.829249    0.1970504  37.77  0.002905444    3.023    0.669
        79 -11.0629    190.0249    220.2227   4.5622170411e+01   1.7649439995e+00    0.1573891   0.08736086  29.75 0.0002834026    1.593    0.372
        80 -10.7688    124.7088    212.6762   5.8469086674e+01   1.2624688447e+01     0.131551    0.1004738  -5.65 0.0002867578    1.612    0.380
        81 -10.9404     97.2888    211.4420   6.4841518527e+01   1.6974447479e+01    0.2196467    0.1238619 -63.12  0.001065013    2.053    0.513
        82 -13.3261    229.1177    208.6246   3.6704538404e+01  -1.6237271370e+00    0.4818588    0.3633277 -60.87  0.002231515    2.619    0.618
        83 -10.7619    209.5228    211.4486   4.0582837895e+01   4.6682429721e-01    0.1205576   0.09788512   1.27 6.382696e-05    1.010    0.010
        84 -11.3442    169.6908    208.9939   4.7956577317e+01   6.4615369481e+00    0.2493324    0.2041342  82.24 0.0009164782    2.023    0.506
        85 -12.1005    160.1330    207.4634   4.9743753597e+01   8.1684999140e+00    0.4772176    0.2978068  54.96  0.002306852    2.241    0.554
        86 -11.1496     90.8796    210.0611   6.6245410590e+01   1.8193511213e+01    0.2004063    0.1743879  50.32 0.0004535896    1.049    0.047
        87 -13.0892    105.0402    205.4942   6.2216477827e+01   1.7062844026e+01     0.512719    0.3902356  87.30  0.002792863    1.617    0.382
        88 -12.3447    180.6154    207.3964   4.5459569079e+01   5.1153059105e+00    0.3620127    0.2273182  41.75  0.001968883    1.667    0.400
        89 -10.7901     71.7942    207.1926   7.0667453117e+01   2.1479788120e+01    0.2583707    0.1072622  57.99 0.0009684932    2.937    0.660
        90 -12.1149    116.4004    204.2848   5.9291602271e+01   1.5571988164e+01    0.2549384    0.2227958  53.29 0.0006738573    1.146    0.128
        91 -15.5041      9.0500    187.0102   8.5160294244e+01   3.3182650678e+01     1.888439      1.04871  51.36   0.01029702    1.484    0.326
        92 -12.6370    101.4271    195.6437   6.1819497702e+01   1.9727391833e+01    0.8431595    0.2307861  46.54  0.002522193    3.988    0.749
        93 -11.7742     91.0279    189.2567   6.3650244629e+01   2.2755158801e+01    0.3069052    0.2340878  60.29 0.0003823675    1.301    0.231
        94 -12.7070     91.0676    199.5881   6.4957900542e+01   2.0427985081e+01    0.6231791    0.3373629 -41.26  0.002315471    2.531    0.605
        95 -12.0417     92.5001    193.4758   6.3819227827e+01   2.1574676475e+01    0.3762584    0.3053707  77.79  0.001979569    1.327    0.247
        96 -15.4056     34.6886    228.0905   8.1128271600e+01   2.1528898793e+01     2.284632    0.9352644 -89.17   0.01056401    2.797    0.642
        97 -12.8306    145.3825    201.3086   5.2048140805e+01   1.1595701385e+01    0.4336995    0.2756166  54.09  0.001721437    1.931    0.482
        98 -11.4527     49.3593    199.2030   7.5614173915e+01   2.6156874166e+01     0.362486    0.2187629 -51.53  0.001049791    2.042    0.510
        99 -11.6880    212.4844    200.0727   3.8169043942e+01   1.7580400155e+00    0.2486104    0.2095252 -65.16  0.001141649    1.962    0.490
       100 -11.2323    137.0126    200.9965   5.3924014740e+01   1.2986133120e+01    0.2349355    0.1811848  86.33 0.0003669845    1.880    0.468
       101 -11.9634    138.0245    197.0266   5.3075927648e+01   1.3605608519e+01    0.3149126    0.1852396  20.64 0.0008002098    1.924    0.480
       102 -13.3898    122.0502    196.4679   5.6804480755e+01   1.6294606824e+01    0.4828665     0.326257  33.80  0.002470599    1.319    0.242
       103 -11.9184     84.6933    199.3323   6.6550454591e+01   2.1418256628e+01    0.2777574    0.2318239  86.61 0.0008221889    1.279    0.218
       104 -12.4821     82.6930    196.6928   6.6752873282e+01   2.2299938853e+01    0.5304185    0.4289278  28.69  0.002144471    1.226    0.184
       105 -11.3287     60.9878    199.9997   7.2702785453e+01   2.4521675364e+01    0.1978688    0.1652219  54.55  0.001172472    1.013    0.012
       106 -13.5063    173.5830    195.8116   4.4992175933e+01   8.1527491226e+00    0.5634946     0.325078  47.40   0.00131029    2.011    0.503
       107 -11.8822    230.1420    204.1534   3.5798075244e+01  -1.1317232069e+00     0.224234    0.1621252 -12.89 0.0002972588    1.168    0.144
       108 -12.3277     44.2491    200.6684   7.7035299186e+01   2.6425239093e+01    0.4375048    0.2138367 -83.89  0.001374354    2.206    0.547
       109 -10.0458    198.6662    197.3066   4.0247709035e+01   4.1257774003e+00     0.113064    0.1019091  66.52 0.0007040214    1.668    0.400
       110 -11.1673    201.8112    195.8158   3.9400077681e+01   3.9098025207e+00    0.2204249    0.1399464 -34.12  0.001243889    1.520    0.342
       111 -11.3036    186.7779    194.3316   4.2048095594e+01   6.3765087115e+00    0.2137325    0.1913578   8.30  0.000567107    1.072    0.067
       112 -12.0961    193.4451    193.7516   4.0638675401e+01   5.4698787714e+00    0.3327491    0.2121672 -20.50  0.001151723    1.693    0.409
       113 -11.6934    190.4751    194.5437   4.1354224335e+01   5.7829945282e+00     0.288282    0.2088365 -52.29  0.001250917    1.742    0.426
       114 -11.8183    110.2371    196.0796   5.9662055935e+01   1.8256897124e+01    0.2121999      0.18673   4.91 0.0006926241    1.268    0.211
       115 -10.8527    134.4998    197.4960   5.3976180923e+01   1.4081036748e+01     0.183649    0.1397071 -70.42 0.0009669841    1.685    0.406
       116 -11.2948    160.8144    192.9292   4.7240068713e+01   1.0703026509e+01    0.2036903    0.1700077   3.76 0.0004101626    1.188    0.158
       117 -12.6195    133.6647    190.7729   5.3119021304e+01   1.5579121363e+01    0.3958455    0.3035872  18.82  0.001190862    1.335    0.251
       118 -13.1115    132.8353    184.7248   5.2335212576e+01   1.6972970728e+01    0.4924231    0.2806602 -36.32  0.002150834    2.161    0.537
       119 -13.5629    125.8990    185.8147   5.4214337426e+01   1.7909214165e+01    0.6614629     0.332363  50.06  0.002698474    2.195    0.544
       120 -13.7072    117.1502    179.2051   5.5352465243e+01   2.0824969245e+01    0.6347495    0.3370831  49.58  0.002543374    1.961    0.490
       121 -13.4472    110.4043    187.6997   5.8405137980e+01   2.0055431674e+01    0.5055568    0.3294782 -79.75  0.001881397    2.081    0.520
       122 -12.7271     79.2918    173.3690   6.4697556225e+01   2.8294741740e+01     0.383772    0.3043498 -26.12  0.001382365    1.647    0.393
       123 -11.3525     78.2295    190.5861   6.7194168108e+01   2.4342090819e+01    0.2453371    0.1943696 -45.38 0.0008474768    1.511    0.338
       124 -11.6805     70.5005    187.2993   6.8872184601e+01   2.6205172333e+01    0.4702843    0.1869688  47.32  0.001829907    2.319    0.569
       125 -12.7184     76.1002    185.4358   6.7141613216e+01   2.5856161548e+01    0.9254785    0.3373624 -68.15  0.003371898    3.086    0.676
       126 -12.4567     50.7159    190.0462   7.4457635974e+01   2.8136234715e+01     0.293595    0.2038132  47.83 0.0005021252    1.238    0.192
       127 -10.7262     97.0356    188.6338   6.1993169023e+01   2.1972278447e+01    0.1960083    0.1694134  43.94 0.0005364089    1.029    0.029
       128 -13.4577    248.6992    185.4437   2.9678097046e+01  -8.3397753787e-01    0.2779855    0.2201409  -3.59  0.000691937    1.107    0.097
       129 -11.8083    156.8601    185.8586   4.6909106174e+01   1.2694497337e+01    0.3349391    0.2212466 -13.55   0.00150538    2.073    0.518
       130 -11.5781     65.7284    183.1368   6.9692691541e+01   2.7855923073e+01    0.3726459    0.2518454 -58.07  0.001889549    1.615    0.381
       131 -10.5926    187.4374    186.5072   4.0549470334e+01   7.6105955730e+00    0.1307378    0.1164554   0.48 6.525326e-05    1.021    0.021
       132 -10.5934     43.4637    186.5075   7.6082575406e+01   2.9847132308e+01    0.1374795    0.1174161  61.44 0.0001018095    1.012    0.012
       133 -10.5385    228.6920    185.7032   3.2890070348e+01   1.7095294930e+00    0.1223517   0.08089583  -5.19 0.0002468883    1.591    0.371
       134 -11.1152    163.9716    185.0456   4.5191698168e+01   1.1665824230e+01    0.2060213    0.1879548  21.76 0.0003740227    1.050    0.048
       135 -11.1792     54.5586    184.9010   7.2931664938e+01   2.8892530422e+01    0.2306911    0.1886659  12.30 0.0007002185    1.470    0.320
       136 -11.9522     33.0839    184.6336   7.8719019272e+01   3.1453587528e+01    0.1880464    0.1573049  48.95  0.001132691    1.103    0.093
       137 -11.7482    191.5656    183.8064   3.9251800919e+01   7.4293324689e+00    0.1730999    0.1228283 -50.05 0.0008592585    1.649    0.394
       138 -13.0649    100.4224    180.8727   5.9989230020e+01   2.3212394549e+01    0.4579398    0.3242889 -67.60  0.002278072    1.567    0.362
       139 -11.4293    231.8727    180.1250   3.1380585447e+01   2.1073604017e+00    0.3152674    0.2294876 -69.11  0.001109475    2.978    0.664
       140 -11.3878     39.5606    181.4621   7.6709327910e+01   3.1516657328e+01    0.2220124    0.1334858  11.69  0.000642062    2.206    0.547
       141 -11.4897    246.2385    179.5841   2.9031327770e+01   2.9313547647e-01     0.225908    0.1219596  14.38  0.001158353    2.542    0.607
       142 -12.1565    247.9205    175.6452   2.8084537669e+01   6.3599517625e-01    0.2550539    0.1755115 -19.34 0.0007964164    1.248    0.199
       143 -11.9365     22.8245    179.3772   8.1110892755e+01   3.3768891131e+01    0.4081915    0.2469892   3.53  0.001097234    2.413    0.586
       144 -12.0628     21.8777    175.9338   8.1139102966e+01   3.4702492446e+01    0.3117911     0.199012 -48.92  0.001576948    1.929    0.482
       145 -12.2500    224.9847    178.0716   3.2148073798e+01   3.3726736254e+00    0.3852707     0.223885   7.06  0.001891591    2.427    0.588
       146 -12.5946    137.4188    176.9492   4.9895228315e+01   1.7825159773e+01    0.4132299    0.2867727  74.15  0.001595985    2.226    0.551
       147 -12.7194    131.3819    169.0902   4.9987681981e+01   2.0588775002e+01    0.3893961    0.2738434  11.13  0.001771257    1.839    0.456
       148 -13.4429    126.7445    176.6729   5.2488875817e+01   1.9741394598e+01    0.4951783    0.3635015  23.33  0.001559584    1.418    0.295
       149 -12.3724    126.0386    172.4726   5.1942055117e+01   2.0789646848e+01    0.2814698    0.2374147  18.99 0.0005345627    1.233    0.189
       150 -11.8138     63.5839    176.9259   6.9572131595e+01   2.9659781408e+01    0.2703724     0.199122  33.35 0.0006143617    1.307    0.235
       151 -12.8414    106.6653    175.7573   5.7541619634e+01   2.3370967300e+01    0.3387529      0.23958  43.09 0.0007630524    1.294    0.227
       152 -10.5506     52.9732    177.0000   7.2562963274e+01   3.1022922393e+01    0.2216482   0.07504126  28.55 0.0003622522    2.823    0.646
       153 -12.9874     93.6911    181.7133   6.1908533184e+01   2.4087401438e+01    0.5782479     0.367986  46.37  0.001938838    1.440    0.306
       154 -11.4582    154.1540    175.1488   4.5616412957e+01   1.5269903418e+01    0.2241549    0.1872135  -1.02 0.0009311357    1.288    0.224
       155 -12.7266    147.3078    174.6361   4.7114753105e+01   1.6575250026e+01    0.5223681    0.2498227  53.88  0.001882984    2.998    0.666
       156 -12.4245     12.4281    175.1033   8.3664580836e+01   3.5753304754e+01    0.3435889     0.221499  73.70  0.001907216    1.355    0.262
       157 -12.6338      7.5849    172.2640   8.4825828982e+01   3.6845516475e+01    0.5459431    0.3192128 -54.24  0.002147898    1.987    0.497
       158 -13.1087     13.4459    161.0618   8.2534752150e+01   3.9157012786e+01    0.4900468    0.3064333  27.84  0.002114706    1.636    0.389
       159 -12.0072     23.0063    168.7719   8.0322283660e+01   3.6374696207e+01    0.4281927     0.200835  83.91  0.001862627    2.190    0.543
       160 -12.9709     18.7323    167.6563   8.1457038765e+01   3.7046064408e+01     0.596267    0.3531702 -20.20  0.002593805    2.807    0.644
       161 -12.6576     12.8376    166.0342   8.3021708037e+01   3.7958950051e+01    0.4114896    0.3438896 -71.08   0.00193273    1.259    0.205
       162 -11.0263    160.9314    173.6805   4.3810944868e+01   1.4378260925e+01    0.1937128    0.1683129  31.81 0.0002682294    1.100    0.091
       163 -13.3226     90.6666    171.6479   6.1263637007e+01   2.6955524147e+01    0.3952065    0.3425893 -35.83  0.000766493    1.353    0.261
       164 -11.8460     95.3100    171.6806   5.9981203438e+01   2.6201209452e+01    0.2384747    0.1843962  83.12 0.0006780785    1.466    0.318
       165 -12.1909     52.7414    167.5544   7.1602511813e+01   3.3417849894e+01    0.4809712    0.2064178  45.39  0.001800683    2.106    0.525
       166 -11.1865     49.9887    171.7058   7.2854326965e+01   3.2712030616e+01    0.2349651    0.1991092  38.78 0.0005719364    1.165    0.141
       167 -11.8686     44.7247    172.1993   7.4413940810e+01   3.3218950485e+01    0.3366539    0.2029414  24.52  0.001439683    1.753    0.429
       168 -11.6583    198.5469    170.5136   3.5454548729e+01   8.6075368479e+00    0.2474931    0.2259485  47.61   0.00139473    1.320    0.242
       169 -12.6604     84.3661    172.9773   6.3218102319e+01   2.7619805868e+01    0.4493164    0.2331863 -88.01  0.001090286    3.174    0.685
       170 -11.5019     61.7096    170.7917   6.9376622980e+01   3.1435382181e+01    0.2458143    0.1903127  24.78 0.0008534557    1.378    0.274
       171 -11.9380    153.1250    170.1855   4.4935481657e+01   1.6458129508e+01    0.2486478    0.2043939  42.75    0.0007602    1.201    0.168
       172 -13.0394    119.8934    168.5402   5.2837866679e+01   2.2755833602e+01    0.7738497    0.3485919  23.69  0.001804552    3.411    0.707
       173 -13.3162    100.0757    166.1317   5.7775205079e+01   2.6744657707e+01    0.5667831    0.2695174 -62.52 0.0002675654    2.334    0.572
       174 -12.3461    103.5032    164.5016   5.6552059636e+01   2.6554187058e+01    0.2932979    0.2142432  35.54  0.001418303    1.299    0.230
       175 -11.5031    159.9780    168.4729   4.3046597514e+01   1.5581387269e+01    0.2191216    0.1348224  38.67 0.0009153516    1.565    0.361
       176 -11.4803     41.1301    168.0938   7.5047752095e+01   3.4668055290e+01    0.2683609    0.1903452  48.41  0.001421409    1.268    0.212
       177 -11.4881     31.0865    167.3798   7.7895784296e+01   3.5931751078e+01    0.2058148      0.17539 -78.30  0.000388501    1.182    0.154
       178 -11.2573      3.9453    167.7408   8.5594932212e+01   3.8234786182e+01    0.2365539    0.1404915  33.52  0.001285579    1.611    0.379
       179 -10.7792     72.0000    167.0097   6.5911014757e+01   3.0945272271e+01    0.2313874   0.08285351 -65.80 0.0005679281    2.901    0.655
       180 -12.3281    152.9831    165.4806   4.4076477239e+01   1.7450493934e+01    0.4152588    0.2636402  63.35  0.001740505    2.366    0.577
       181 -12.9519    111.6647    163.9149   5.4214669923e+01   2.5276798032e+01    0.4179804    0.3100694 -27.63 0.0009594679    1.717    0.418
       182 -13.2873     89.3362    164.1049   6.0476960512e+01   2.9008433148e+01    0.5274751    0.3154503   3.76  0.001865621    3.257    0.693
       183 -12.0426     64.0616    164.8056   6.7941274411e+01   3.2624391597e+01    0.2396109    0.2049981 -83.14  0.000418597    1.162    0.140
       184 -11.9586     58.1187    164.8571   6.9703072185e+01   3.3411693425e+01    0.2379142    0.1784353  59.14 0.0008130518    1.249    0.199
       185 -11.6118    230.4076    163.3165   2.8545566222e+01   4.8722386507e+00    0.2139043    0.1874979 -26.78 0.0002440452    1.129    0.114
       186 -10.9642    211.1823    164.1515   3.1933984731e+01   7.6667865828e+00    0.1589356    0.1545515  64.50 0.0009924786    1.328    0.247
       187 -11.5143      1.6389    157.1115   8.5719618484e+01   4.1036498242e+01     0.297698    0.1073315 -82.51  0.001235191    2.458    0.593
       188 -13.1565      6.0321    161.1653   8.4672985076e+01   3.9709842323e+01     0.493031    0.3572629 -81.92  0.002054616    1.264    0.209
       189 -11.8380     51.3469    161.9158   7.1367571067e+01   3.5030949944e+01    0.2430723    0.1785162  48.56  0.000473541    1.248    0.199
       190 -10.4199    241.3374    161.6828   2.6547133978e+01   3.5560470666e+00    0.1111971   0.09214336 -60.84 0.0005010068    1.702    0.412
       191 -12.0346    169.8661    159.9094   3.9194287608e+01   1.5498431347e+01    0.3016956    0.2729711  70.08 0.0009676508    1.321    0.243
       192 -12.5167     46.1351    160.3985   7.2762010940e+01   3.6054875812e+01    0.3802396    0.2108215  50.99 8.225358e-05    1.704    0.413
       193 -12.1392     40.9366    161.4955   7.4442765726e+01   3.6373811326e+01    0.3383086    0.1334455  26.56 0.0009912077    2.534    0.605
       194 -11.3843     24.7610    160.2911   7.9158673629e+01   3.8356598949e+01    0.2615372    0.1831839  57.89  0.001416638    1.286    0.223
       195 -12.2027    105.3669    158.7761   5.5038407437e+01   2.7606475511e+01    0.3385347    0.2332789  66.65  0.001062314    1.748    0.428
       196 -12.1502     95.4303    159.0274   5.7898189459e+01   2.9254084081e+01    0.2666813    0.2112412  15.42 0.0003337226    1.471    0.320
       197 -13.0929     84.4725    158.7993   6.1045037960e+01   3.1107672553e+01     0.436875    0.2267186  39.03  0.001608821    1.768    0.434
       198 -14.6216     83.3138    150.8603   6.0086587867e+01   3.3300442518e+01    0.7445296    0.6259292 -33.04  0.002283107    1.410    0.291
       199 -12.5928     81.9947    144.9934   5.9479625743e+01   3.5014164889e+01    0.3416974    0.2374182  52.70  0.001094652    1.430    0.301
       200 -11.6742    133.4384    157.6402   4.7315204202e+01   2.2753384263e+01    0.3139313    0.2247066  63.49   0.00103663    1.704    0.413
       201 -12.0820     69.8508    158.1517   6.5302812072e+01   3.3501222280e+01    0.1969574    0.1773661 -28.19 0.0003587449    1.328    0.247
       202 -12.6063     31.2998    157.0637   7.6913823355e+01   3.8547515340e+01    0.4556674    0.2486149  45.11  0.002157762    1.673    0.402
       203 -12.8618    120.2641    156.7619   5.0586134388e+01   2.5402589743e+01    0.5401624    0.2689711  27.79   0.00198272    2.416    0.586
       204 -11.7093    112.4850    156.0417   5.2563611258e+01   2.6992759473e+01    0.2272665    0.1525641 -57.55  0.000563872    1.572    0.364
       205 -10.9093    190.5001    155.1000   3.3990901358e+01   1.2709611917e+01    0.1987991    0.1287642 -40.66 0.0003793469    1.482    0.325
       206 -10.6401    141.4878    155.4877   4.4873250277e+01   2.1712391937e+01    0.1485948    0.1429866  39.47 8.384349e-05    1.020    0.020
       207 -13.2525     76.3596    154.6257   6.2805851768e+01   3.3432694001e+01    0.4196515    0.2462208  53.24  0.000984904    1.744    0.427
       208 -12.6115     20.6326    154.6398   7.9941196767e+01   4.0183131305e+01    0.3237961     0.240137  16.30  0.001081553    1.561    0.359
       209 -12.9578     19.6100    149.8305   7.9866487473e+01   4.1514256372e+01    0.3564777    0.2822617 -37.00   0.00106467    1.543    0.352
       210 -12.5418     51.6791    153.3535   7.0224479566e+01   3.7206263221e+01    0.3334602    0.1770423  44.82  0.001454965    1.755    0.430
       211 -10.8830    172.1410    153.8984   3.7493125551e+01   1.6262076369e+01    0.1953973    0.1612119 -14.29 0.0004207446    1.303    0.233
       212 -12.7007     12.6966    149.3882   8.1965210441e+01   4.2193144750e+01    0.2647409    0.1558873  30.22  0.001353694    1.700    0.412
       213 -11.1780    128.1883    151.1187   4.7381843672e+01   2.5222024996e+01    0.2201563    0.2053218  10.02 0.0004266622    1.139    0.122
       214 -12.9556     38.0059    150.0969   7.4128534156e+01   3.9658558907e+01    0.4317969    0.2181765  70.56  0.001143852    2.308    0.567
       215 -12.3234    109.3144    149.2602   5.2161348471e+01   2.9197947026e+01    0.3676619    0.3110638  41.76  0.001225094    1.128    0.114
       216 -12.4435     26.1995    149.4220   7.7776367299e+01   4.1028876427e+01    0.4043117    0.2752342 -30.14  0.002011008    1.963    0.491
       217 -12.2870      4.8032    149.8815   8.4396012800e+01   4.2644138253e+01    0.2564906    0.1501162  72.38  0.001043609    1.544    0.352
       218 -10.7107    147.1818    148.7907   4.2114932219e+01   2.2075164441e+01    0.2046921    0.1758887   0.64 0.0004069082    1.320    0.243
       219 -12.2660     96.0604    148.9736   5.5939068797e+01   3.1638066218e+01    0.2392548    0.2207463  70.67 0.0006021603    1.059    0.055
       220 -10.9135     32.3587    148.2222   7.5715778170e+01   4.0742407373e+01    0.2147955    0.1606022 -60.63 0.0007408317    1.365    0.267
       221 -12.9072     62.3595    146.0266   6.5838772795e+01   3.7711754245e+01    0.3669674    0.2448506  83.92   0.00119447    1.690    0.408
       222 -12.5573    118.0743    143.7185   4.8602940162e+01   2.8884938241e+01    0.6549201    0.3214452  59.82  0.001787563    3.355    0.702
       223 -12.4382    103.2050    144.9971   5.3088632342e+01   3.1354558492e+01    0.3668626     0.291276  39.70 0.0003621959    1.212    0.175
       224 -12.2429    101.1661    141.1739   5.2935551534e+01   3.2671574237e+01    0.3169874    0.2609058 -73.56 0.0006206641    1.287    0.223
       225 -14.3978     50.9293    143.1227   6.9111046300e+01   3.9989237130e+01    0.7587991    0.3909063  32.06  0.002276853    1.881    0.468
       226 -10.8768    170.5117    145.4839   3.6091260613e+01   1.8236947902e+01    0.1426759    0.1385927 -12.17 0.0008103306    1.012    0.011
       227 -11.4776    157.9200    145.0501   3.8795641355e+01   2.0772054985e+01    0.2153522    0.2097684   6.47 0.0003304674    1.012    0.012
       228 -10.4806    187.2780    143.6462   3.2261927937e+01   1.5418311210e+01    0.1377681    0.1102636 -73.03 0.0007009826    1.650    0.394
       229 -10.4741    143.6880    143.6327   4.1879470415e+01   2.3885729229e+01    0.1579442     0.120038  -8.86 0.0007037604    1.765    0.434
       230 -10.7153    228.9678    145.2652   2.5309699645e+01   7.9442380383e+00    0.1669763     0.152212 -14.21 0.0005306364    1.089    0.081
       231 -13.5810     10.3177    141.5842   8.2145653731e+01   4.4386993856e+01    0.4236025    0.3367467  83.24  0.002094415    1.097    0.088
       232 -13.8737     14.0026    133.9104   8.0336698741e+01   4.6118387799e+01    0.5819201    0.4243091  63.99  0.003235661    1.290    0.225
       233 -13.4494     19.6055    130.9280   7.8165763188e+01   4.6468808985e+01    0.5093085    0.4071987 -10.74  0.002307671    1.545    0.353
       234 -11.1670    201.1801    142.1786   2.9340152654e+01   1.3149419977e+01     0.199916    0.1712235 -16.87 0.0003707591    1.151    0.131
       235 -12.9140     94.9729    140.1228   5.4587163052e+01   3.4048200793e+01    0.4516775    0.3219368 -39.06  0.001175849    1.634    0.388
       236 -10.6921     20.4466    142.4524   7.8971003725e+01   4.3365234627e+01    0.1385341    0.1194526  76.49 7.144469e-06    1.025    0.025
       237 -11.3210     85.7057    143.6808   5.8097197428e+01   3.4739999199e+01    0.2492113    0.1906295  25.41 0.0003273024    1.409    0.290
       238 -13.0660     41.3828    139.2651   7.1746057750e+01   4.2146411444e+01    0.4853941    0.2389692  60.10  0.001923152    2.333    0.571
       239 -10.5525    242.4887    139.4310   2.2167092460e+01   6.7678621827e+00    0.1222474    0.1021878 -31.12 9.052815e-05    1.031    0.030
       240 -10.9856     60.3324    139.2903   6.5460494766e+01   3.9766600696e+01    0.1483296    0.1150091 -27.60 0.0002812017    1.629    0.386
       241 -11.9913    120.3545    135.8059   4.6296137459e+01   3.0318745334e+01     0.397119    0.2014874 -65.06  0.001369946    2.740    0.635
       242 -12.5312     46.5584    136.4393   6.9631914086e+01   4.2298411888e+01    0.2503475    0.2250604 -87.06 0.0001571991    1.050    0.047
       243 -11.5665     26.7286    136.1247   7.6283947056e+01   4.4477250965e+01    0.2469449    0.1693994  46.29   0.00092726    1.410    0.291
       244 -11.5104    197.5689    135.0472   2.8492917426e+01   1.5090977179e+01    0.2442615     0.196428  67.38 0.0006703645    1.555    0.357
       245 -12.1000     86.8173    134.8080   5.6074133933e+01   3.6823688626e+01    0.2286113    0.2162621  -0.92 0.0006004326    1.194    0.163
       246 -12.1941     67.2079    134.9209   6.2464306870e+01   3.9936939470e+01    0.2949099    0.2054326  -9.89  0.001254102    2.156    0.536
       247 -12.4449     60.4853    134.5297   6.4644541854e+01   4.1005426659e+01    0.2892847    0.2269887 -72.67  0.001241661    1.251    0.201
       248 -12.5969     57.4783    133.5265   6.5496177379e+01   4.1683787298e+01    0.3611094    0.2105927 -34.24  0.001154567    2.401    0.584
       249 -13.2235     33.0904    133.4340   7.3819920748e+01   4.4580725890e+01    0.4974445    0.2783793  82.60   0.00117656    1.968    0.492
       250 -12.1799    128.1544    134.1699   4.3808665396e+01   2.9139808435e+01    0.2106991    0.1829352  88.50 0.0005122949    1.284    0.221
       251 -12.8206    103.8001    133.9862   5.0675957600e+01   3.3965575253e+01    0.4520775    0.2299118  39.45  0.001745498    1.892    0.471
       252 -12.6623      6.7309    132.8933   8.2673604116e+01   4.6889079384e+01    0.3250386    0.2296159 -89.53  0.001815946    1.246    0.197
       253 -11.7479     43.3998    132.6830   7.0181758423e+01   4.3670596748e+01    0.2954747    0.1381992 -78.09  0.001144812    2.270    0.559
       254 -11.9087    230.1334    130.5464   2.2196920060e+01   1.0124229371e+01    0.2288475    0.1720801 -38.56 0.0003182662    1.148    0.129
       255 -12.1256    121.6869    128.6097   4.4321945190e+01   3.1751149629e+01    0.3614708    0.2421411 -69.89  0.001149989    1.860    0.462
       256 -13.0184     82.4729    128.4899   5.6213365947e+01   3.9190732314e+01    0.4855375    0.3312366 -26.53  0.002027525    2.073    0.518
       257 -13.5318     53.7852    126.9130   6.5686479560e+01   4.3934954333e+01    0.4556222    0.3500063 -78.14  0.002296117    1.282    0.220
       258 -13.7419     58.1919    126.3453   6.4046123929e+01   4.3495116008e+01    0.5386544    0.3211144 -46.00  0.002158558    1.838    0.456
       259 -12.9036    130.4332    128.5137   4.1919804867e+01   2.9976766819e+01    0.2888461    0.2768066  50.87  0.001525828    1.025    0.024
       260 -12.2538     45.9611    129.0583   6.8768069880e+01   4.4339099025e+01    0.2262113    0.2103756  68.84 0.0007637165    1.036    0.035
       261 -12.4730    186.7324    124.0010   2.8086466695e+01   1.9225931741e+01    0.4144079    0.2741198 -38.00  0.001514194    1.451    0.311
       262 -13.0256     82.5698    114.4938   5.3175215726e+01   4.2768832960e+01    0.5446707    0.3229251 -58.71  0.002278606    1.701    0.412
       263 -13.0604     75.2322    124.1740   5.7755085356e+01   4.1512165960e+01     0.434653    0.2705815 -59.35  0.001469975    1.593    0.372
       264 -13.8092     77.3601    119.6151   5.6085877983e+01   4.2346342057e+01    0.6880883    0.4101321  47.02 0.0009806312    1.687    0.407
       265 -12.2367     26.4472    124.8288   7.5106670898e+01   4.7504898782e+01    0.3118243    0.2339482 -73.69  0.001674801    1.226    0.184
       266 -12.4879     10.0597    125.2792   8.0938327722e+01   4.8660080508e+01    0.3286125    0.1664332 -69.11 0.0009906271    1.735    0.424
       267 -12.8956     14.5974    119.2357   7.8757082416e+01   4.9939579038e+01     1.011371    0.3404609 -42.32  0.003378778    3.963    0.748
       268 -11.9345     35.0890    126.8034   7.2280357885e+01   4.6147188932e+01    0.2261736    0.1794811  67.05 0.0006058564    1.236    0.191
       269 -10.6971    169.6746    125.6971   3.1899209283e+01   2.2371317847e+01     0.150682    0.1457522 -63.18 0.0002599896    1.043    0.041
       270 -11.1043    169.8267    122.2383   3.1066824010e+01   2.3032125394e+01    0.2470713    0.1894538 -45.28 0.0005794287    1.268    0.212
       271 -12.3304    193.7903    122.5618   2.6453702197e+01   1.8093647066e+01    0.2915188    0.2296651  46.45 0.0008228219    1.362    0.266
       272 -13.0657    105.5819    121.4583   4.7357397317e+01   3.6706043913e+01    0.4413381      0.31494  51.97 0.0007418659    1.412    0.292
       273 -12.0056     20.8548    123.0335   7.6901464201e+01   4.8459118008e+01    0.2156946    0.2027728  14.94            0    1.207    0.172
       274 -11.2140    224.1031    120.4899   2.1021427102e+01   1.2793338056e+01     0.170341      0.13112  50.36  0.000473323    1.499    0.333
       275 -11.5957    201.6814    120.4140   2.4586101026e+01   1.6945054079e+01    0.2366386    0.1368016  55.28 0.0006666406    1.992    0.498
       276 -10.1868     36.3334    119.3061   7.0779478902e+01   4.8022584408e+01    0.1487049    0.1033684 -36.65 0.0007039568    1.666    0.400
       277 -12.5692      2.2745    107.4538   8.2226687952e+01   5.3765816233e+01    0.4896462    0.1870018 -63.86  0.002098303    2.177    0.541
       278 -12.5819      5.6389    111.5658   8.1321675185e+01   5.2519730065e+01    0.3711855     0.243848  57.75  0.001681323    1.539    0.350
       279 -13.1198      9.3925    116.6012   8.0396971938e+01   5.0980279640e+01    0.4844891    0.2762754 -42.93  0.002353245    1.920    0.479
       280 -13.0113     11.1300    111.1166   7.9208949604e+01   5.2310795575e+01    0.3271493    0.2516609 -64.76  0.001494545    1.194    0.163
       281 -11.4346     24.1774    116.1507   7.4869157109e+01   5.0012940817e+01    0.3724647    0.1762373 -78.90   0.00105497    2.045    0.511
       282 -10.9291     94.4787    117.0124   4.9799529460e+01   3.9954525723e+01    0.2413366    0.1555687 -56.41  0.001026726    1.574    0.365
       283 -10.2823     29.5640    116.5263   7.2901412441e+01   4.9433450829e+01    0.1413895    0.1284234 -88.74  0.000124776    1.016    0.016
       284 -12.4378    115.2209    114.0538   4.2699698494e+01   3.6522024394e+01    0.4303742    0.3098607  -5.49  0.001721688    2.273    0.560
       285 -12.0881    104.4710    114.7796   4.6108740071e+01   3.8555171741e+01    0.2946657    0.2193967  41.53 0.0005332369    1.320    0.242
       286 -12.6555     63.0967    113.6844   5.9895962085e+01   4.6143162906e+01    0.3002883    0.2576014  88.19  0.001235675    1.196    0.164
       287 -12.0575     58.5165    114.0358   6.1648707059e+01   4.6711950543e+01    0.2718207    0.2184268  33.37 0.0001100801    1.268    0.211
       288 -10.5497    198.4912    111.4495   2.3122632636e+01   1.9172111071e+01    0.1394634    0.1276204 -50.23 4.798448e-05    1.027    0.027
       289 -11.9690     52.5358    110.8660   6.3266710358e+01   4.8363106137e+01     0.261396    0.2344576  27.26  0.000498139    1.174    0.148
       290 -10.4903    216.4894    109.4434   1.9797999810e+01   1.6016228970e+01    0.1335812    0.1178872 -45.15 0.0001252922    1.017    0.017
       291 -11.9342    169.6971    109.0411   2.7945283984e+01   2.5676432289e+01    0.2109862    0.1919234 -47.08   0.00051731    1.067    0.063
       292 -11.9789    114.0182    109.2089   4.1831105279e+01   3.7913629079e+01    0.3035126    0.2087266  58.84  0.001219656    1.583    0.368
       293 -10.6699    101.4649    109.4658   4.5734554487e+01   4.0447839795e+01     0.159732     0.150434  73.84 0.0001394925    1.048    0.046
       294 -11.4591     61.6598    108.7849   5.9404437250e+01   4.7637609749e+01    0.3130918    0.1765866  55.93   0.00116111    2.127    0.530
       295 -10.9563    210.0264    108.3387   2.0542907941e+01   1.7438771860e+01    0.1838467    0.1730861 -61.56 0.0005973175    1.084    0.078
       296 -12.0926    160.0970    107.2018   2.9524845127e+01   2.8161735574e+01      0.35957    0.2377878  86.25  0.001027309    2.434    0.589
       297 -10.3825    139.6517    107.3103   3.4346097348e+01   3.2721290611e+01    0.1632013    0.1229599  88.04 0.0007045089    1.712    0.416
       298 -12.7879     11.0043    102.2172   7.8283824520e+01   5.4650296467e+01    0.4762155    0.4270451 -43.05  0.002945653    1.170    0.145
       299 -12.0565     12.0127     98.3252   7.7408360731e+01   5.5603720477e+01     0.817202    0.3000575  10.89 0.0003654895    3.277    0.695
       300 -12.2813     79.1365    101.8227   5.1351391126e+01   4.6578768008e+01    0.3146272    0.2481108 -61.46 0.0007500182    1.281    0.220
       301 -11.8663    153.9222    100.5779   2.9205490988e+01   3.0894749618e+01    0.3232777    0.2322197 -48.68   0.00093422    1.376    0.273
       302 -12.1267     55.8779    101.4971   6.0046882345e+01   5.0364378992e+01    0.3095082    0.2504474 -55.58 0.0004989419    1.204    0.170
       303 -11.9310     57.2203     97.5963   5.8638705966e+01   5.1181036351e+01    0.3507599    0.2594453  34.51 0.0004058938    1.367    0.269
       304 -11.1544    158.1590    101.2252   2.8433003828e+01   2.9799138767e+01    0.2122007    0.1757809 -76.85 0.0005233369    1.324    0.245
       305 -13.3019     95.8744     99.8166   4.5043881167e+01   4.3896206007e+01    0.7578617    0.3399005  51.27  0.001779166    2.527    0.604
       306 -11.2295     85.0443    100.6934   4.8966117677e+01   4.5783093802e+01     0.219341    0.1972764  40.67 0.0004082202    1.108    0.097
       307 -12.0437    162.0491     99.0197   2.7030175721e+01   2.9351523366e+01    0.2488615    0.1816216 -76.09  0.001127354    1.706    0.414
       308 -10.7585     93.0128    105.5292   4.7483222340e+01   4.3077716177e+01    0.2394493    0.1527334  40.74 0.0006730869    1.541    0.351
       309 -11.3806    188.8130     98.1082   2.1666612438e+01   2.3578235435e+01    0.2143204    0.1829229 -67.26 0.0004052565    1.178    0.151
       310 -11.7824    178.5248     96.4755   2.3116757946e+01   2.6125955401e+01    0.3072465    0.2456143 -72.87 0.0008344526    1.361    0.265
       311 -11.2021    167.6472     97.2895   2.5430600473e+01   2.8415421095e+01    0.1547412    0.1149947 -82.45 0.0007026386    1.673    0.402
       312 -13.5458     77.4746     92.2532   4.9465280643e+01   4.9239383490e+01    0.6466952     0.336655  52.14  0.002442919    2.244    0.554
       313 -11.5001    186.6090     92.8162   2.0763294073e+01   2.5005204238e+01    0.2103475    0.1229635 -49.47 0.0009428651    1.646    0.393
       314 -11.1990     41.4352     91.8653   6.3869439002e+01   5.4702380363e+01    0.2372724    0.1869259  40.87 0.0005028255    1.315    0.240
       315 -11.0864     52.2460     79.9210   5.6305400794e+01   5.6324992464e+01    0.2740388     0.206949  76.65 0.0004701578    1.683    0.406
       316 -12.1653     57.2109     90.5014   5.6942548091e+01   5.2986457786e+01    0.4407912    0.3086622   1.87  0.001197771    1.886    0.470
       317 -12.6200     54.7698     85.8075   5.6771093977e+01   5.4514233244e+01    0.5261769    0.4590423  -8.32  0.002826043    1.261    0.207
       318 -11.5735    125.8548     87.7425   3.2609465806e+01   4.0060375165e+01    0.4577961     0.317122 -38.95  0.001148209    1.542    0.352
       319 -10.9930     28.3433     90.2286   6.9205256430e+01   5.6474079691e+01    0.2467729    0.1735172  -3.36  0.001169961    1.682    0.406
       320 -12.7662      3.9151     88.4532   7.9648583153e+01   5.8587739631e+01     0.424807    0.2345594 -47.22  0.002134823    1.713    0.416
       321 -12.3791    149.5843     87.1143   2.6579061591e+01   3.4586983816e+01    0.4371908    0.2208658 -39.30  0.001705246    2.042    0.510
       322 -12.2615    151.6414     81.2243   2.4490298224e+01   3.5228245585e+01    0.4202402    0.2811808  29.60 0.0008441177    2.142    0.533
       323 -11.5548     11.9863     87.0296   7.5912777868e+01   5.8526519555e+01    0.2467621    0.2118073 -32.05  0.000936512    1.211    0.174
       324 -10.6214    100.5429     86.5003   3.9763099921e+01   4.6020063995e+01    0.1552815    0.1515522  63.45 6.766699e-05    1.018    0.018
       325 -12.2971    165.3491     83.9471   2.2409085322e+01   3.1458016047e+01     0.265619    0.2085835  76.99  0.001314852    1.349    0.259
       326 -11.1128    133.7973     84.0945   2.9482513424e+01   3.8942234237e+01     0.273774    0.2143351  52.27  0.000644405    1.253    0.202
       327 -12.9501     66.1868     81.9515   5.0985904412e+01   5.3688371846e+01    0.3597968    0.3027299 -40.62  0.001514171    1.212    0.175
       328 -11.9893      4.5225     80.0013   7.8326920288e+01   6.0706194216e+01    0.2646306    0.2071985  86.41 0.0004647183    1.274    0.215
       329 -12.4437      8.3874     78.0943   7.6250490929e+01   6.0998817929e+01    0.2989626    0.2492575 -59.45 0.0005487903    1.063    0.059
       330 -12.1216    224.7661     79.9729   1.2178987403e+01   1.9175087502e+01    0.2080404    0.1848096  87.20 0.0003126451    1.210    0.174
       331 -10.4755    216.0000     79.9881   1.3289630364e+01   2.0923576951e+01    0.2167074   0.06789914 -37.25 0.0004964392    2.833    0.647
       332 -11.5092     88.1818     79.2469   4.1774584113e+01   5.0231644891e+01    0.2693436    0.2095079 -36.49  0.001237428    1.392    0.282
       333 -12.6964    113.0912     77.1386   3.3032153923e+01   4.5236638003e+01    0.6368232    0.4709136  35.38  0.002003694    1.487    0.328
       334 -11.5996    206.0467     75.9555   1.3684416304e+01   2.3638618724e+01    0.2137482    0.1719356  11.96  0.001145765    1.843    0.457
       335 -10.5235     75.2814     76.3590   4.5689817070e+01   5.3396915524e+01    0.1545863     0.117763 -17.38 0.0007015686    1.669    0.401
       336 -11.8962    106.0842     73.4045   3.3966880646e+01   4.7615045333e+01    0.3807492    0.2785558  66.53   0.00117122    1.520    0.342
       337 -11.6694     54.6845     74.3746   5.3676184854e+01   5.7309964942e+01    0.3104103    0.1831093  56.61 0.0006638631    2.278    0.561
       338 -12.9337     54.8505     68.6220   5.1869516099e+01   5.8632533006e+01     0.366601    0.2747089 -37.21 0.0004012386    1.368    0.269
       339 -12.0715      2.4430     72.9388   7.8352714718e+01   6.2562507105e+01    0.3682827    0.1274465 -61.68  0.001563507    2.237    0.553
       340 -11.3155     68.5076     71.9853   4.7032028079e+01   5.5618109176e+01    0.2422039    0.1876426 -30.05 0.0007019247    1.427    0.299
       341 -11.1828     71.3553     69.3313   4.5011182362e+01   5.5701668015e+01    0.3006385    0.2003748   9.78  0.000764808    2.219    0.549
       342 -11.7683    189.1776     70.3127   1.4732577345e+01   2.8277487689e+01    0.2464909    0.2016336 -54.29 0.0003705724    1.112    0.101
       343 -12.2209     60.8129     69.2132   4.9409744392e+01   5.7556583206e+01     0.502661    0.2472636 -64.16    0.0018611    2.722    0.633
       344 -10.3458     11.6384     70.8437   7.3477935359e+01   6.2630778007e+01    0.1753889    0.1161616 -84.69 0.0003693871    1.570    0.363
       345 -10.2411    132.7802     70.3484   2.5641745948e+01   4.1864741955e+01    0.1529306    0.1125778 -67.57 0.0002281702    1.544    0.352
       346 -11.1480    154.4246     68.0563   2.0171401707e+01   3.6947939751e+01    0.2222283    0.1926646  71.59 0.0003723316    1.112    0.100
       347 -12.3693    161.2087     77.1955   2.1395341423e+01   3.3673685887e+01    0.2981831    0.2163397  63.03   0.00144279    1.379    0.275
       348 -12.2232      9.9518     63.0271   7.2884649938e+01   6.4640664309e+01     0.262462    0.2168144 -38.17 0.0004191813    1.128    0.113
       349 -11.4739     11.9515     59.3187   7.1044424675e+01   6.5417639527e+01    0.3085999    0.2164648  72.45 0.0004237077    1.778    0.438
       350 -12.1949    110.6041     58.4245   2.7638409515e+01   4.9464618949e+01    0.4278382    0.2819227 -14.33   0.00173002    2.418    0.586
       351 -12.3789     42.3188     59.4400   5.4938822611e+01   6.2501572753e+01    0.3442239    0.3007748   4.71  0.001053169    1.151    0.131
       352 -11.2787    180.5527     59.0192   1.3112089983e+01   3.2093785083e+01    0.2207895    0.1775612  74.71 0.0005193522    1.220    0.180
       353 -11.1949    152.1223     58.9414   1.7962205846e+01   3.9069905986e+01    0.3408416    0.2269591  22.86  0.001381511    2.609    0.617
       354 -11.2915    198.1600     57.8522   1.0353562408e+01   2.8185745541e+01    0.1771073     0.166325  41.68  0.001078068    1.341    0.254
       355 -12.0009     40.9359     53.0005   5.3504409271e+01   6.4115836474e+01    0.2378751    0.1938343  14.57 0.0003126573    1.232    0.188
       356 -11.0168     18.4753     57.4842   6.7026588216e+01   6.5411188113e+01    0.1328165    0.1166412 -40.11 6.713321e-06    1.025    0.024
       357 -11.9041     35.8736     57.8469   5.7740146657e+01   6.3658202919e+01    0.2939165    0.1710202 -42.05 0.0009432667    1.671    0.401
       358 -10.5114    100.3010     56.6354   3.0110706203e+01   5.2223887769e+01    0.1558463    0.1178479 -81.07 0.0007034827    1.729    0.422
       359 -12.5076     23.9182     55.3803   6.3453846365e+01   6.5454572475e+01    0.3196158    0.2381251 -12.60 0.0009364428    1.400    0.285
       360 -11.7462     19.9108     53.0323   6.5052458083e+01   6.6337213468e+01     0.217501    0.2085326  31.18 0.0003265771    1.172    0.147
       361 -10.5682    126.3236     54.2811   2.2090632856e+01   4.6329903979e+01    0.1494572    0.1155834  30.44 0.0001976052    1.592    0.372
       362 -12.5036    114.9772     48.6067   2.3013447978e+01   5.0101097018e+01    0.3245068    0.2518098 -16.76  0.001095849    1.624    0.384
       363 -11.4856    120.4758     51.9895   2.2766950985e+01   4.8174736819e+01    0.2272833    0.1936281  63.11 0.0003486904    1.098    0.089
       364 -11.2166      2.5370     51.6949   7.4777315964e+01   6.7693149086e+01    0.1925738    0.1583862   3.60  0.000389519    1.308    0.235
       365 -11.9476    173.8041     50.2477   1.1760888397e+01   3.5064144666e+01    0.4173002     0.232085 -68.97  0.001745997    2.225    0.551
       366 -12.2360    100.1773     49.7823   2.7663400796e+01   5.3480412236e+01    0.3456635    0.2633204 -85.98  0.001364204    1.688    0.407
       367 -13.0761     30.0506     49.4656   5.8214582999e+01   6.6191879817e+01    0.3411235    0.2840566  84.84  0.001063712    1.556    0.357
       368 -11.5585     41.8780     47.6391   5.1085972882e+01   6.5139488122e+01    0.2861388    0.2247101 -59.38  0.001585935    1.404    0.288
       369 -11.5757     19.2192     48.0624   6.4038866966e+01   6.7526541089e+01      0.28753    0.1424345 -49.81  0.001191909    1.759    0.432
       370 -11.8408    142.6862     43.1933   1.4946289539e+01   4.3932114366e+01    0.4634102   0.07544236 -40.21  0.001225276    5.013    0.801
       371 -11.7024     96.0458     44.8089   2.7082240756e+01   5.5296466850e+01    0.2273363    0.1979372  87.03 0.0007045958    1.271    0.213
       372 -12.6994    115.5971     43.0151   2.0863634813e+01   5.0842261809e+01    0.2948715    0.2709381  72.93 0.0004369195    1.015    0.015
       373 -11.7247    119.8069     39.8893   1.8713147865e+01   5.0259973150e+01    0.2647956    0.2404006  70.85 0.0003919364    1.008    0.008
       374 -10.8496    194.9851     43.7562   7.2242233221e+00   3.0955447673e+01     0.175313    0.1080643  71.85 0.0008861982    1.606    0.377
       375 -12.1992     23.8826     42.3266   5.9409504973e+01   6.8378846915e+01    0.2189538    0.1796296 -64.99 0.0009214958    1.341    0.254
       376 -12.1589     34.3500     40.0923   5.2368370070e+01   6.7689902091e+01    0.3229034    0.1752156  17.26  0.001491303    2.077    0.519
       377 -11.0566    103.4835     39.4683   2.2801204594e+01   5.4379679934e+01    0.1471704    0.1349389  72.03 7.277094e-05    1.059    0.056
       378 -12.4682     28.1435     36.9821   5.4841313849e+01   6.9059955130e+01    0.3540332    0.1534993 -50.22  0.001565085    2.138    0.532
       379 -12.9302     31.8693     31.8858   5.0447572289e+01   6.9631861604e+01    0.3645804    0.3181717 -15.33  0.001285466    1.036    0.035
       380 -10.7148     80.5255     37.0229   2.9226396838e+01   6.0097354356e+01    0.1984587     0.120016 -61.05 0.0008099388    2.547    0.607
       381 -10.9618    218.7554     33.0032   2.2249894701e+00   2.7090606394e+01     0.175617    0.1381342 -58.08 0.0003250982    1.053    0.051
       382 -11.3410    120.3991     32.5807   1.5957443024e+01   5.1154959096e+01    0.2457686    0.2130823  71.11 0.0005239032    1.043    0.041
       383 -11.6182    106.8600     32.3958   1.9160819076e+01   5.4591750743e+01    0.3076605    0.2255659 -86.95 0.0008152898    1.637    0.389
       384 -11.1707     42.6496     33.3125   4.4800437607e+01   6.7866520558e+01     0.128903    0.1060321  67.58 0.0007045844    1.722    0.419
       385 -10.6957     14.6812     33.0585   6.2045271282e+01   7.1154891312e+01    0.1731254    0.1441958 -34.82 0.0003454836    1.056    0.053
       386 -12.0008     77.9383     30.6652   2.7429824587e+01   6.1659337026e+01    0.1998799     0.169351  49.73 0.0003890687    1.102    0.092
       387 -11.4774    114.5749    248.7853   6.5027163664e+01   7.5402658005e+00    0.1862822    0.1301721 -70.68 0.0009389513    1.951    0.487
       388 -11.6249      2.4619     30.5408   6.9717752425e+01   7.2451705666e+01    0.2119684    0.1766608 -30.92 0.0005593618    1.040    0.038
       389 -11.3723    114.6500     27.3325   1.5323878676e+01   5.3317637980e+01    0.2355729    0.1983553 -83.42 0.0006538891    1.223    0.183
       390 -11.0352      1.6822     25.6801   6.8793892316e+01   7.3518170227e+01    0.1451616    0.1367409  49.71  0.001027358    1.334    0.251
       391 -10.8807    126.5365     25.4674   1.2128034001e+01   5.0510401653e+01    0.1435129    0.1273503  74.96 3.885909e-05    1.018    0.018
       392 -12.8213     85.2013     24.0881   2.2006539790e+01   6.0950445959e+01    0.3195417    0.2492447 -42.09 0.0009601216    1.425    0.298
       393 -10.6188     66.2854     23.2980   2.8561916730e+01   6.5235182375e+01    0.1357851   0.09884892  18.76 0.0006968544    1.549    0.355
       394 -11.9578     70.2758     20.8402   2.5774900463e+01   6.4734906977e+01     0.229818    0.1646341 -34.28  0.001239542    1.524    0.344
       395 -11.3373     98.5423     19.7868   1.6267647900e+01   5.8294121428e+01    0.2191608    0.1781144  84.33 0.0006852309    1.290    0.225
       396 -10.7026     60.5135     20.4965   2.9643770176e+01   6.6812093874e+01    0.1345341    0.1199522  28.68 7.743567e-05    1.002    0.002
       397 -11.9555     79.8097     18.6171   2.1287553443e+01   6.2903464072e+01    0.3264642    0.2471535  58.60 0.0009564618    1.232    0.188
       398 -11.2949     92.6197     18.1332   1.7160217906e+01   5.9938788416e+01    0.2034635    0.1644727 -51.57 0.0005288957    1.402    0.287
       399 -11.6479     99.3646    246.7427   6.8107395628e+01   9.9214496799e+00      0.29789    0.1281072  26.24  0.001355687    2.228    0.551
       400 -11.5789    116.9684     15.1420   1.0228542776e+01   5.4177508921e+01    0.2088437    0.1994095 -51.60 0.0003332419    1.172    0.147
       401 -10.7435    162.7001    246.0345   5.4681563698e+01   1.5421066511e+00    0.1603457    0.1303837  14.32 0.0004007576    1.058    0.055
       402 -12.0668     50.6836    245.6568   7.8622554780e+01   1.6242913739e+01    0.2513742    0.2062405   2.71  0.001662706    1.677    0.404
       403 -11.8965     54.0293    242.4512   7.7694618065e+01   1.6460250333e+01    0.1978166    0.1652836  28.17 0.0003606018    1.293    0.227
       404 -10.9365    206.1172    243.9932   4.6130287904e+01  -3.5867752446e+00    0.2219952   0.09883237  33.99  0.001220917    2.028    0.507
       405 -10.8805    181.9373    244.3274   5.0676335801e+01  -6.8737842561e-01    0.1642728    0.1187488  22.02 0.0002738253    1.115    0.103
       406 -10.9865    119.3287    244.3198   6.3530904735e+01   7.6512407351e+00    0.1226076   0.08878389   1.62 0.0007047766    1.687    0.407
       407 -10.5860     77.8503    243.2044   7.2510296884e+01   1.3374186844e+01     0.158594    0.1297421  24.60 0.0007795346    1.266    0.210
