#   1 NUMBER                 Running object number                                     
#   2 MAG_AUTO               Kron-like elliptical aperture magnitude                    [mag]
#   3 X_IMAGE                Object position along x                                    [pixel]
#   4 Y_IMAGE                Object position along y                                    [pixel]
#   5 X_WORLD                Barycenter position along world x axis                     [deg]
#   6 Y_WORLD                Barycenter position along world y axis                     [deg]
#   7 A_WORLD                Profile RMS along major axis (world units)                 [deg]
#   8 B_WORLD                Profile RMS along minor axis (world units)                 [deg]
#   9 THETA_WORLD            Position angle (CCW/world-x)                               [deg]
#  10 FWHM_WORLD             FWHM assuming a gaussian core                              [deg]
#  11 ELONGATION             A_IMAGE/B_IMAGE                                           
#  12 ELLIPTICITY            1 - B_IMAGE/A_IMAGE                                       
         1  -9.4329     26.1313     35.1811   6.5579887032e+01   7.1186800579e+01    0.3274302    0.2539264 -80.48 0.0009572511    1.660    0.398
         2  -9.0881     96.6546     13.9301   2.3325890096e+01   5.9133224960e+01    0.4040538    0.1829215 -54.93  0.001563739    2.709    0.631
         3  -8.0498     83.4132     11.1388   2.5055694528e+01   6.2878143526e+01     0.187365    0.1234653 -44.53 0.0005839193    1.625    0.385
         4  -8.4302     55.8306      9.9985   3.3400192923e+01   6.9863165116e+01    0.2033914    0.1757697 -79.08 0.0006298518    1.327    0.246
         5  -7.8327     47.6503      9.8844   3.7080550250e+01   7.1754840916e+01    0.1832256    0.1209012 -44.45 0.0004821439    1.745    0.427
         6  -8.1702     28.2690      9.6689   4.9053195566e+01   7.5729923739e+01    0.1210798    0.1054127  88.32 0.0003634699    1.584    0.369
         7  -7.7129     13.2949      8.6919   6.1946121238e+01   7.8228119958e+01    0.1197664   0.09942328  58.86 0.0007002384    1.587    0.370
         8  -8.7452      6.0069      8.4704   6.9991698907e+01   7.9087394448e+01    0.1790646   0.08817117  43.02 0.0005741736    2.485    0.598
         9  -7.5391    101.3347      7.7310   1.9701870277e+01   5.8543942034e+01    0.1441391   0.09408601 -71.51 0.0004397754    1.592    0.372
        10  -8.1066     70.3972      6.1858   2.5980603997e+01   6.6720469917e+01    0.1795734    0.1233842 -42.56 0.0005106541    1.599    0.374
        11  -8.5110     33.4936      4.9425   4.1699036541e+01   7.5422381686e+01    0.3255333    0.1992081 -57.92  0.001501152    2.619    0.618
        12  -8.4520     79.1721      3.5800   2.2238244063e+01   6.4727961948e+01    0.2763774    0.1491793 -44.71  0.001103934    2.015    0.504
        13  -7.7877     15.5255      2.9904   5.5161874867e+01   7.8916941679e+01    0.1803157    0.1231023 -40.89 0.0007712785    1.558    0.358
        14  -7.7898     44.5235      2.5446   3.3521614982e+01   7.3344460737e+01    0.1331069    0.1182861  52.03 0.0002138912    1.036    0.035
        15  -8.1361     62.6878      1.5147   2.5594264272e+01   6.9109264739e+01    0.1818779    0.1215248  79.43 0.0009261236    1.513    0.339
        16  -7.4645     39.3353      1.2793   3.5282886564e+01   7.4644987867e+01    0.1378863   0.08928503  32.35 0.0002427037    1.613    0.380
        17  -8.8481    201.9904    242.6575   5.6577614134e+01   1.2271894283e+00    0.1683768    0.1340251 -35.48  0.000686072    1.692    0.409
        18  -9.4933    246.5930    228.3766   4.7731361783e+01  -1.1073585052e+00    0.3814416    0.1301581 -28.50   0.00216426    2.513    0.602
        19  -9.2760    248.2392    234.3077   4.8319294738e+01  -1.8822153055e+00     0.299517    0.1193161 -37.02  0.001904545    2.365    0.577
        20 -10.1111    248.7044    242.2988   4.9333033342e+01  -2.7570361374e+00    0.3528125     0.147006 -36.90    0.0019439    2.340    0.573
        21  -8.8146    232.4911    247.0380   5.2312415318e+01  -1.9553873278e+00    0.1778952    0.1126428 -26.93 0.0008168245    1.455    0.313
        22  -8.4189    234.3922    243.3849   5.1545901622e+01  -1.7197778554e+00    0.2200105   0.09708897   1.73  0.001238675    2.751    0.636
        23  -9.2540    211.0682    246.8625   5.5629600917e+01  -9.9785335552e-02    0.2765488    0.1446502 -47.30  0.001671006    3.071    0.674
        24  -7.1589     72.3381    250.6959   8.3680749727e+01   1.3642156311e+01    0.1262583   0.06793901  45.42 0.0003962566    1.672    0.402
        25  -9.0192     77.6898    242.4124   8.1832158475e+01   1.4516851456e+01     0.243628    0.1573956 -89.46  0.001095412    2.215    0.548
        26  -8.3500      9.5167    243.0157   9.7672768837e+01   2.0922314596e+01    0.1764156   0.05743261  59.92 0.0008099253    2.738    0.635
        27  -9.2726    194.1068    240.0199   5.7575309271e+01   2.3067527622e+00    0.2548536    0.1474745 -45.98  0.001294652    2.314    0.568
        28  -9.2048    183.1692    240.0994   5.9519347717e+01   3.3832020098e+00     0.321757    0.2166259  48.32  0.001957381    2.753    0.637
        29  -9.2676    160.1569    240.0458   6.3825219132e+01   5.7884315698e+00    0.2475892     0.209248  69.84  0.001490513    2.238    0.553
        30  -7.8570     88.3113    242.1341   7.9372651770e+01   1.3413221883e+01    0.1414792     0.110948  85.78 0.0006249453    1.738    0.425
        31  -7.6533    153.3092    241.6746   6.5370510888e+01   6.2930460929e+00    0.1051764   0.08071586  41.50 0.0007038233    1.654    0.396
        32  -9.2310    241.8014    237.6167   4.9685892480e+01  -1.7101966255e+00    0.4423212    0.1477011 -21.15  0.002014655    4.199    0.762
        33  -8.7651    135.7640    238.7437   6.8594386943e+01   8.6591926996e+00    0.2560761    0.1416512  46.17  0.001112772    2.327    0.570
        34  -9.2725    230.9441    236.4921   5.1133423378e+01  -6.7129716200e-01    0.2676851     0.146589 -38.51  0.001389071    2.022    0.505
        35  -9.4555    216.9955    235.5202   5.3161842010e+01   6.8350483362e-01    0.2096189    0.1982527 -26.40  0.001460015    1.926    0.481
        36  -9.3454    213.6760    231.6482   5.3161440177e+01   1.4546629162e+00     0.240408    0.2128467  44.68  0.001400683    2.181    0.542
        37  -8.0341    209.3473    238.2294   5.4765719311e+01   1.0700515800e+00    0.1282926   0.08672546 -36.80 0.0004373773    1.716    0.417
        38  -8.3005    128.8181    238.0340   6.9980222852e+01   9.5517746868e+00    0.1727397    0.1283004  57.80 0.0008697182    1.971    0.493
        39  -9.2750    146.6906    245.5208   6.7148678812e+01   6.4525333051e+00    0.1918984    0.1583956  49.41 0.0007970046    1.732    0.423
        40  -9.0308    203.0467    234.4851   5.5304388813e+01   2.1262972347e+00    0.2119953     0.147622 -48.18  0.001026952    2.235    0.553
        41  -9.6641    175.6213    233.1204   5.9982582044e+01   5.1000953603e+00    0.3773825    0.2254493 -54.06  0.002207428    2.666    0.625
        42  -8.3642    170.4277    235.5185   6.1274841570e+01   5.3227184446e+00    0.1575644    0.1089945 -53.97 0.0006093257    2.199    0.545
        43  -8.9958    109.0086    234.2589   7.3910435275e+01   1.2436222100e+01    0.3901095    0.1704572  44.23  0.001440463    2.443    0.591
        44  -8.1466    122.9756    233.9986   7.0781423125e+01   1.0867678141e+01    0.1833309    0.1271151  46.91 0.0008846314    1.678    0.404
        45  -8.1302     99.8422    234.2588   7.5994385168e+01   1.3489161686e+01    0.2033722    0.1015535  53.06 0.0009397034    2.727    0.633
        46  -8.5641     78.6612    233.7477   8.0888694649e+01   1.5970538743e+01       0.2213    0.1314227  68.40  0.001150988    2.361    0.576
        47  -9.2977     68.8659    232.6603   8.3134927358e+01   1.7245384924e+01    0.4606076    0.1615644  51.10  0.001811703    3.383    0.704
        48  -9.0353    141.9817    231.0929   6.6370671914e+01   9.1381686045e+00    0.5662504    0.1864583  44.15  0.001902521    5.424    0.816
        49  -9.5444    186.4748    230.5108   5.7642971556e+01   4.3088362176e+00    0.2601012    0.2305427 -78.81  0.001396436    2.348    0.574
        50  -8.2116    132.4310    232.2543   6.8532205260e+01   1.0057104246e+01    0.1361938    0.1205143 -74.82 0.0005394246    1.667    0.400
        51  -8.3560     92.3435    231.3611   7.7446357252e+01   1.4862249094e+01    0.2408688    0.1311827  50.72 0.0007858787    2.073    0.518
        52  -9.3970    236.1967    229.3235   4.9361360672e+01  -3.2286861160e-01    0.3931904    0.1133709 -32.20  0.001867646    3.019    0.669
        53  -9.0595    151.3011    228.6415   6.4136160292e+01   8.4448962239e+00     0.222986     0.187821  69.81  0.001182321    2.033    0.508
        54  -9.4944    148.4538    224.2854   6.4151423514e+01   9.4506818504e+00    0.3361086    0.2410965  56.55  0.001906037    2.268    0.559
        55  -8.0405    229.7799    228.9286   5.0263840938e+01   2.9043344928e-01    0.1340188    0.1098779 -39.25  0.001064979    1.935    0.483
        56  -8.8462    162.2471    227.6582   6.1814703501e+01   7.3459608121e+00    0.2191384    0.1720487  45.25  0.001145001    1.758    0.431
        57  -8.9724    127.9534    227.2735   6.8901783027e+01   1.1394024366e+01    0.2934782    0.1863389  50.01  0.001382949    2.039    0.510
        58  -7.9090    119.8620    227.5914   7.0730372464e+01   1.2301228295e+01    0.1744873   0.09287427  35.27 0.0005325287    1.618    0.382
        59  -7.9911     49.7866    227.1740   8.7388518618e+01   2.0318630980e+01     0.234929   0.08109191  51.16 0.0009551438    2.881    0.653
        60  -8.5998    205.9653    225.5849   5.3578006988e+01   2.9561957760e+00    0.2166438    0.1351778 -36.92  0.001017491    1.675    0.403
        61  -8.0241    200.1735    226.2277   5.4646790614e+01   3.4585691381e+00    0.1325522    0.1145271   1.73  0.000483109    1.347    0.258
        62  -8.7118     94.2070    224.1389   7.6282850966e+01   1.5966327646e+01    0.3360569    0.1693141  56.30  0.001375366    2.862    0.651
        63  -8.8069    216.4400    223.1463   5.1519115814e+01   2.2277595861e+00    0.1916731    0.1630817 -43.26  0.001004271    1.902    0.474
        64  -8.7419    180.3776    224.0838   5.7864748015e+01   5.8414826499e+00    0.1956599    0.1411583  24.68 0.0006974757    1.323    0.244
        65  -7.9864    113.9728    223.9504   7.1638453373e+01   1.3636054723e+01    0.1906004    0.1328923  49.79 0.0006532202    1.660    0.398
        66  -8.7175    104.8112    223.5342   7.3711826996e+01   1.4813087360e+01    0.2877843    0.2019122  67.99  0.001606782    2.070    0.517
        67  -7.8134     38.3240    224.6652   9.0081581525e+01   2.1964404046e+01    0.1393146   0.07012884  49.64 0.0006873691    1.712    0.416
        68  -8.8028      1.6580    230.5192   9.9218069207e+01   2.3959267675e+01    0.2145993   0.09940768  58.35  0.001168886    1.800    0.444
        69  -9.3501    192.5866    221.3469   5.5270791655e+01   4.8965868401e+00    0.2610111    0.2235135  50.49 0.0009971999    2.031    0.508
        70  -8.4654    172.9304    222.7259   5.9072180557e+01   6.8624320730e+00     0.184926    0.1549357 -58.80 0.0007911562    1.901    0.474
        71  -8.5330    163.0261    222.5217   6.0964844142e+01   8.0220093711e+00    0.2897244    0.1335995  40.49  0.001441887    2.509    0.601
        72  -8.5195    159.1538    220.2520   6.1423524021e+01   8.8183094478e+00    0.1809133    0.1647108  43.82 0.0007695273    1.522    0.343
        73  -8.4229    194.4543    232.4704   5.6499800807e+01   3.2319954148e+00    0.1498696   0.09952984 -45.01 0.0005595817    1.994    0.498
        74  -9.2394    239.2892    220.9315   4.7721415782e+01   3.5793979065e-01    0.2775721    0.1647477 -29.72  0.001621591    1.444    0.308
        75  -9.3031    225.4427    221.5462   4.9877251147e+01   1.5592096034e+00    0.1895266    0.1707995   6.17  0.001139386    1.621    0.383
        76  -7.7892    140.4781    222.5279   6.5597214661e+01   1.0679560463e+01    0.1220805    0.1002902  19.26 0.0004927908    1.093    0.085
        77  -8.5176     83.1326    220.6367   7.8612866816e+01   1.7934531172e+01    0.3132314    0.1316454  46.83  0.001362335    2.437    0.590
        78  -8.2082     73.5492    221.0365   8.1018256583e+01   1.8963801632e+01    0.2794489   0.09692887  49.68  0.001035899    3.388    0.705
        79  -7.6895     27.4240    220.7979   9.2615417086e+01   2.3785208195e+01    0.1559315    0.1137018 -64.79 0.0009495149    1.661    0.398
        80  -8.0697      8.0016    222.0000   9.7495381682e+01   2.5193389046e+01    0.2014389   0.05827744  20.93 0.0008028332    2.945    0.660
        81  -8.3230    202.5239    219.9678   5.3352731858e+01   4.0324885877e+00    0.1507843   0.09269845 -31.86 0.0004103865    1.511    0.338
        82  -9.0797    120.3732    219.1045   6.9596358679e+01   1.3709574164e+01    0.4271047    0.2093248  49.40  0.001902625    2.795    0.642
        83  -8.4622    210.0614    218.9936   5.1953299057e+01   3.3840085786e+00    0.1623556    0.1253914  -6.23 0.0005059773    1.081    0.075
        84  -8.5131    249.0807    218.1494   4.5934580106e+01  -1.8926674524e-01     0.184206    0.1235057  44.58  0.001242773    3.153    0.683
        85  -9.2610    133.0927    215.8928   6.6330297107e+01   1.2691207949e+01    0.4374933    0.2760542  66.82  0.001938908    3.646    0.726
        86  -8.7907     51.7726    217.3555   8.6219687917e+01   2.2103737954e+01    0.3000808     0.169109  54.53  0.001104075    1.729    0.422
        87  -8.6604    169.3143    215.9218   5.8805208283e+01   8.2834666530e+00    0.2319201    0.1976194 -78.77 0.0009419694    2.154    0.536
        88  -8.5969    142.9435    216.4034   6.4256953746e+01   1.1385107174e+01    0.1942856    0.1786028  85.43 0.0008171558    1.617    0.382
        89  -8.1970     61.8065    216.9435   8.3624530464e+01   2.1104999965e+01    0.2177753    0.1201833  58.76  0.001073472    2.005    0.501
        90  -7.9679    111.3574    216.6583   7.1383534951e+01   1.5265731215e+01    0.1335233   0.08697317  51.43 0.0007037348    1.823    0.451
        91  -8.9255    243.1967    215.2280   4.6336195198e+01   6.6260195855e-01     0.124835   0.09967011 -17.08 0.0004973717    1.344    0.256
        92  -8.9238    232.1750    214.3904   4.7815891234e+01   1.7809734719e+00    0.2066753    0.1414645 -40.07 0.0009838799    1.811    0.448
        93  -8.1261    154.5883    215.2211   6.1651076411e+01   1.0152319475e+01    0.1678083    0.1404872  57.18  0.001076812    1.788    0.441
        94  -8.4130    185.5051    214.1510   5.5496954761e+01   6.6762777310e+00    0.1673144    0.1451877  21.46 0.0008988192    1.373    0.272
        95  -8.7061     93.0838    213.6571   7.5438238837e+01   1.8097032384e+01    0.3255587    0.1723995  50.44   0.00154216    2.130    0.530
        96  -9.3049     73.0028    211.6949   8.0296016179e+01   2.0908088262e+01    0.6689273    0.1828512  48.84   0.00198697    5.030    0.801
        97  -9.3843    213.8421    212.0191   5.0308725632e+01   3.8943295366e+00    0.2587123    0.1966481  38.69  0.001693744    1.907    0.475
        98  -8.4897    161.7808    212.3260   5.9776380812e+01   9.7364831046e+00    0.1742688    0.1630844 -30.10 0.0007334055    1.370    0.270
        99  -8.0009    225.1429    212.2053   4.8556218359e+01   2.7284685845e+00     0.130927    0.1074255 -18.38 0.0004593947    1.326    0.246
       100  -9.0247    204.2357    210.7306   5.1700810379e+01   5.0793090136e+00    0.2119734    0.1608972 -43.13 0.0007940635    1.714    0.417
       101  -9.4910    175.4293    209.8600   5.6741408935e+01   8.4744680040e+00    0.3415388    0.2503279  60.21  0.001691607    2.758    0.637
       102  -8.0196    106.6163    212.3592   7.1992114251e+01   1.6659812280e+01    0.1957734    0.1350522  51.55 0.0008282408    1.649    0.394
       103  -8.3429    192.4819    210.4465   5.3690964471e+01   6.4142951349e+00     0.171396    0.1044602 -48.50 0.0008540371    2.162    0.537
       104  -8.6937    148.1129    210.4163   6.2324526198e+01   1.1735738152e+01    0.2517212    0.2085197  71.88  0.001453506    1.977    0.494
       105  -8.8859    116.2681    210.1995   6.9427668982e+01   1.5836815791e+01    0.2897224    0.1825545  61.59 0.0009405725    2.510    0.602
       106  -9.2041    236.7585    208.3450   4.6243674346e+01   2.0708854884e+00    0.2490194    0.1898301 -53.20  0.001278238    2.563    0.610
       107  -7.9955     32.3319    210.0296   9.0804508900e+01   2.5616947140e+01    0.2091147   0.07098246  68.42 0.0007035063    4.227    0.763
       108  -8.3807     85.2772    209.1165   7.6898697191e+01   1.9960499880e+01    0.2527096    0.1345664  48.76  0.001057804    1.943    0.485
       109  -7.7134     46.3231    209.6201   8.7086075305e+01   2.4310582302e+01    0.1482328   0.07626779  52.74  0.000702234    1.834    0.455
       110  -9.3186    246.4411    207.0062   4.4668096748e+01   1.3201627190e+00     0.237214    0.1326959 -26.25  0.000690659    1.379    0.275
       111  -9.3440    250.1187    201.9010   4.3397324171e+01   1.5762817202e+00    0.3152444    0.1231082 -31.60  0.001549534    2.026    0.507
       112  -8.2917    138.9475    207.7176   6.3922579394e+01   1.3361349317e+01    0.1864562    0.1687024 -81.04 0.0006983184    1.573    0.364
       113  -7.9267    126.6077    208.3820   6.6786375733e+01   1.4837537339e+01    0.1856705    0.1393317  50.64 0.0008325977    1.603    0.376
       114  -9.1210     99.4376    206.0119   7.2981252190e+01   1.8803201173e+01    0.3380205    0.2099545  64.10  0.001190119    2.352    0.575
       115  -8.4578     56.3488    205.2285   8.4082928585e+01   2.4182807137e+01     0.311466    0.1291776  50.53  0.001069674    2.404    0.584
       116  -8.1387     12.0029    206.7449   9.6011621426e+01   2.8132430126e+01    0.1667636   0.09393637  25.03 0.0008780928    1.540    0.351
       117  -9.0321    183.7534    203.8013   5.4260906979e+01   8.3897308088e+00    0.2446457    0.2030593  49.74  0.001165662    1.834    0.455
       118  -8.0494    109.0229    204.9967   7.0495262807e+01   1.7760986204e+01    0.2021253    0.1461447  55.08 0.0007605242    1.646    0.393
       119  -9.3274    194.7516    203.2593   5.2194143019e+01   7.1757104506e+00    0.3091192    0.2427177 -19.47  0.001340864    1.143    0.125
       120  -9.2356    192.4348    197.1455   5.1645216570e+01   8.3354334121e+00    0.3126113     0.234654 -51.64  0.001537717    1.866    0.464
       121  -9.5692    163.6871    202.8026   5.7981325812e+01   1.1017218942e+01    0.3746142     0.226005  44.50  0.001423583    2.075    0.518
       122  -8.8156    131.4154    203.8567   6.5063620555e+01   1.5028203478e+01    0.2407008    0.1811719  48.51   0.00114288    1.563    0.360
       123  -9.1226    243.1543    200.5896   4.4158254618e+01   2.3899124004e+00     0.268675    0.1185405 -34.42  0.001103388    1.863    0.463
       124  -8.5690    210.8941    201.6228   4.9202691233e+01   5.5831975931e+00    0.1908573     0.133794 -45.53 0.0008121725    1.845    0.458
       125  -8.8888    140.5131    200.9834   6.2606902381e+01   1.4338333826e+01    0.2938798    0.2212853  61.81  0.001142049    2.013    0.503
       126  -8.0902     48.3269    202.0063   8.5987240044e+01   2.5766588289e+01    0.2136886    0.0852676  72.38 0.0007047481    4.280    0.766
       127  -7.8704     10.3415    202.2939   9.6298747407e+01   2.9256627339e+01    0.1194035   0.09439867 -27.56 0.0007029418    1.657    0.396
       128  -8.1529    222.0470    201.0710   4.7342809645e+01   4.4568395789e+00    0.1413712    0.1291111 -35.92 0.0005802503    1.667    0.400
       129  -8.3249     79.8923    200.8264   7.7392967922e+01   2.2348890065e+01     0.253481    0.1551261  65.10  0.001206916    2.107    0.525
       130  -9.4332    149.7096    198.6358   6.0252007675e+01   1.3527534826e+01    0.3623713    0.2767454  69.92  0.001497315    2.307    0.567
       131  -8.9209    123.9848    199.0834   6.6109318465e+01   1.6903952850e+01    0.2897977    0.2163031 -86.11  0.001162376    2.132    0.531
       132  -9.2033    112.9865    198.2002   6.8628619136e+01   1.8561396161e+01    0.4133849    0.2414153  56.66   0.00187591    2.450    0.592
       133  -9.1735    237.1445    198.3569   4.4668199626e+01   3.2515631082e+00    0.2170557    0.1192441 -36.46 0.0009552877    1.656    0.396
       134  -8.3833    177.0252    198.9503   5.4770045146e+01   9.9495005044e+00    0.1615087    0.1495832  63.17 0.0006182291    1.683    0.406
       135  -8.9667     88.7279    198.3410   7.4790192414e+01   2.1751867168e+01    0.3735361    0.2104498  58.85  0.001533339    2.331    0.571
       136  -8.5499    202.2968    197.7194   5.0021952228e+01   7.0911791759e+00    0.1892858    0.1653399 -43.30  0.001061011    1.591    0.371
       137  -8.9003     60.9458    195.9929   8.2011595016e+01   2.5699180748e+01    0.5104414      0.28555  84.70  0.002313756    2.390    0.582
       138  -7.8466     12.6503    197.3601   9.5495889211e+01   3.0190293146e+01     0.152541   0.06802561  51.00 0.0007026857    1.856    0.461
       139  -9.2856    245.7468    193.5258   4.2711024578e+01   2.9909540773e+00    0.2414244    0.2003933 -55.78  0.001803405    2.299    0.565
       140  -8.6445    215.9751    195.4880   4.7419954053e+01   5.8511810466e+00    0.1922148    0.1387028 -42.41  0.000730021    1.663    0.399
       141  -7.9316    133.3552    196.0845   6.3494709504e+01   1.6190528580e+01    0.1619834    0.1257652 -66.46 0.0006304832    1.735    0.424
       142  -7.7426     53.4465    195.9450   8.4083371775e+01   2.6567313221e+01    0.1928246   0.09759042  67.53 0.0008076375    2.492    0.599
       143  -8.6321    224.7974    194.1621   4.5837830383e+01   5.0648654372e+00    0.2183453    0.1344268 -44.32  0.001397335    1.946    0.486
       144  -7.6498    209.5015    195.4988   4.8466813453e+01   6.5759665665e+00    0.1118309   0.09016877 -10.19 -1.51508e-05    1.076    0.070
       145  -8.9904    185.1820    194.7552   5.2575953503e+01   9.5791920067e+00    0.2089235    0.1733367 -27.38 0.0007541199    1.228    0.186
       146  -8.9012    160.8603    194.0380   5.7196414476e+01   1.2828595721e+01    0.2462502    0.2023657  64.69  0.001030532    1.925    0.481
       147  -7.9884    230.7929    193.9756   4.4909808993e+01   4.4527820211e+00    0.1393225    0.0693532 -33.44 0.0003838605    1.674    0.402
       148  -8.5106     76.8854    193.7304   7.7409383655e+01   2.4261390794e+01    0.2342062    0.1949779  79.35 0.0005742013    1.369    0.269
       149  -8.9947     43.8826    193.4323   8.6554677833e+01   2.8183345552e+01    0.3730738    0.1724585  60.77  0.001567389    2.416    0.586
       150  -8.4251    172.1764    191.6073   5.4536827208e+01   1.1734884814e+01    0.1965362     0.160758 -43.57 0.0008600713    1.421    0.296
       151  -9.0693    139.4680    190.3989   6.1236574656e+01   1.6395623958e+01     0.316554    0.2494558  79.93  0.001157731    2.074    0.518
       152  -7.9216    205.4322    191.5090   4.8499301446e+01   7.6057070564e+00    0.1137396   0.09194585 -11.38 0.0001507873    1.055    0.052
       153  -8.1335    198.9748    191.5140   4.9595308940e+01   8.3737151964e+00    0.1579349    0.1043355  28.87 0.0004882343    1.526    0.345
       154  -8.2203    179.1649    191.1914   5.3123768764e+01   1.0893314899e+01     0.148782    0.1411525 -16.15 0.0004820423    1.319    0.242
       155 -10.1592     92.2632    188.7403   7.2658036467e+01   2.3331565016e+01    0.9308606    0.2271693  39.93     0.002844    3.517    0.716
       156  -8.4391    237.1656    188.3196   4.3089431042e+01   4.5065664427e+00    0.1833595    0.1100466 -24.21 0.0005599621    1.319    0.242
       157  -8.9595    216.6074    187.9082   4.6100893387e+01   6.8117570762e+00    0.2330472    0.1714891 -44.38  0.001006273    1.676    0.403
       158  -7.6151    210.3531    189.6678   4.7389131614e+01   7.2896490157e+00   0.09708147   0.09241518 -70.73  0.000704596    1.782    0.439
       159  -8.3451    148.2012    188.7136   5.9029763305e+01   1.5480923560e+01    0.2054188    0.1716586 -54.29 0.0006783166    1.460    0.315
       160  -8.9592    129.2532    188.5019   6.3302078385e+01   1.8194730787e+01     0.264439    0.2042928  62.77 0.0008469412    1.766    0.434
       161  -8.5407     34.7882    188.4635   8.8783540448e+01   3.0278046295e+01    0.2837067    0.1234046  56.08  0.001181057    2.291    0.564
       162  -8.9443    191.5410    187.1842   5.0188780841e+01   9.9348999048e+00    0.2679907     0.217815 -75.08  0.001359499    2.386    0.581
       163  -9.2983    155.9439    187.2656   5.7132247353e+01   1.4658874877e+01     0.270996    0.2403112 -66.65 0.0009711045    1.545    0.353
       164  -9.6064    120.6449    186.0459   6.4996922196e+01   1.9907615489e+01    0.4365624    0.2847146 -80.36  0.001984541    2.653    0.623
       165  -8.9272     54.8340    186.8422   8.2863287022e+01   2.8507875833e+01    0.4298716    0.1983264  59.45  0.001476233    2.604    0.616
       166  -9.0595    249.3697    185.6796   4.0991061874e+01   3.5865684382e+00    0.2140436    0.1408681 -38.76 0.0008519676    1.592    0.372
       167  -8.3215    230.6392    187.1161   4.3838754961e+01   5.3555364548e+00    0.1629987    0.1149849 -37.34 0.0009395387    1.473    0.321
       168  -8.8824    164.9845    186.4369   5.5123997931e+01   1.3554705659e+01    0.2471526    0.2013818 -69.46  0.001015394    1.892    0.471
       169  -9.0682    109.6351    185.8582   6.7722419661e+01   2.1521867681e+01    0.3637946    0.2568593  70.71  0.001175504    2.058    0.514
       170  -8.6614    210.0547    184.1789   4.6535663143e+01   8.0995692267e+00    0.1890818     0.135747 -26.70  0.000458457    1.187    0.158
       171  -8.8132    202.7058    184.5177   4.7808132155e+01   8.9415151769e+00    0.2070365    0.1658489 -36.17 0.0007686531    1.349    0.259
       172  -8.8768    182.9058    184.6532   5.1341248627e+01   1.1440181184e+01    0.2236873    0.1638688 -42.14 0.0007432887    1.459    0.315
       173  -9.2873     66.3293    184.2979   7.9300018997e+01   2.7723071166e+01    0.4570051    0.1980149  53.41 0.0009644612    2.694    0.629
       174  -8.5073    224.1858    183.4586   4.4203741232e+01   6.5546053976e+00    0.1930225    0.1247093 -29.96 0.0004962374    1.287    0.223
       175  -8.2000    197.1956    183.5339   4.8585559024e+01   9.7726632882e+00    0.1917808    0.1323176 -56.71 0.0007273302    2.272    0.560
       176  -8.9437    174.2739    183.3660   5.2766773484e+01   1.2801062708e+01    0.2407111    0.2011178 -52.10 0.0007397425    1.525    0.344
       177  -9.0281     44.3680    182.5807   8.5528919124e+01   3.0690791302e+01    0.3191521    0.1740459  54.16 0.0008980081    1.778    0.437
       178  -7.8774      1.7650    183.5675   9.8081217216e+01   3.4242600747e+01    0.1914567   0.09596178  35.01 0.0009418235    1.622    0.384
       179  -9.2822    147.5205    180.4918   5.7832794482e+01   1.7074719277e+01    0.2750292    0.2264346  59.03 0.0009468768    1.618    0.382
       180  -7.8856     90.7711    181.3918   7.2077526342e+01   2.5149850245e+01    0.2027678    0.1270351  16.89  0.000939864    1.695    0.410
       181  -9.4366     25.6361    178.7676   9.0833791030e+01   3.3491238000e+01    0.7140986    0.2360945  67.60  0.002272558    4.144    0.759
       182  -8.5960    137.9286    179.4108   5.9820285355e+01   1.8686382656e+01    0.2895075    0.2170468  71.44  0.001197194    2.132    0.531
       183  -9.2753    191.3564    178.1561   4.8698131071e+01   1.1346776303e+01    0.2173301    0.2055255   3.93 0.0006152563    1.290    0.225
       184  -9.4689    183.1521    176.3759   4.9882779202e+01   1.2731137326e+01    0.3341828    0.1977025 -41.13  0.001141464    1.640    0.390
       185  -8.1755    169.5081    178.5334   5.2881364567e+01   1.4267553857e+01    0.2035819    0.1195519 -54.10 0.0008360846    2.211    0.548
       186  -9.1116     36.1923    176.8536   8.7504908731e+01   3.2943970688e+01     0.549043    0.1987751  67.05   0.00172406    4.158    0.759
       187  -8.5291    250.5278    172.5364   3.8724602281e+01   5.0904922260e+00    0.1904917   0.09842217 -34.74 0.0004947023    1.536    0.349
       188  -9.1622    248.9931    177.0289   3.9655826068e+01   4.6912452147e+00    0.2248818    0.1632254 -34.52 0.0007686554    1.363    0.266
       189  -8.7780    247.4466    173.5167   3.9286615940e+01   5.2940498491e+00    0.1716895    0.1110649 -33.10 7.537618e-05    1.295    0.228
       190  -8.8572    205.1806    177.4910   4.6208906014e+01   9.6655055646e+00    0.2496406    0.1660497 -47.53  0.001173814    1.792    0.442
       191  -8.6797    129.1372    176.9190   6.1482002298e+01   2.0485767975e+01    0.2485127    0.1934982 -71.08 0.0006024132    1.700    0.412
       192  -8.5448    231.1364    176.7043   4.2060786806e+01   6.6730334491e+00    0.1820395    0.1236422 -35.20  0.000598978    1.349    0.259
       193  -8.4295    217.3228    176.8692   4.4155836556e+01   8.2619208630e+00    0.1888643    0.1513313 -42.02 0.0007471652    1.487    0.328
       194  -8.0763     97.0569    177.4649   6.9806286228e+01   2.5130524774e+01    0.1976169    0.1199675   1.97 0.0008074972    2.416    0.586
       195  -8.6436     89.2064    176.6978   7.1858690285e+01   2.6425313576e+01    0.3050806    0.2030605  57.76 0.0008092036    1.721    0.419
       196  -9.2213     58.3308    174.9928   8.0621672172e+01   3.0922531449e+01    0.4801012    0.2090525  64.56  0.001598794    3.623    0.724
       197  -9.3191     56.0012    171.0012   8.0888890348e+01   3.2183574244e+01     0.907135    0.3376307  61.45  0.002493597    5.176    0.807
       198  -8.6436     12.7825    176.4807   9.4578432570e+01   3.5148341069e+01    0.3287611    0.1379213  67.83  0.001357115    2.413    0.586
       199  -8.2580    211.5289    176.4704   4.5001240100e+01   9.0236107519e+00    0.1155486   0.09340873 -15.25 0.0001624578    1.029    0.028
       200  -9.3233    158.9232    174.8690   5.4411710095e+01   1.6428583249e+01    0.3293081    0.2541181  70.38  0.001199689    2.168    0.539
       201  -9.4468    104.2212    174.4098   6.7414416095e+01   2.4753604384e+01    0.5560732    0.2993653  58.79  0.001846672    2.866    0.651
       202 -10.6813     75.6850    169.4405   7.4746869804e+01   3.0010694445e+01      1.30264    0.5395884 -80.01  0.003902467    4.722    0.788
       203  -8.3260    224.6310    174.1670   4.2587930872e+01   7.7677267656e+00    0.1673245    0.1211782 -39.07 0.0007142829    1.426    0.299
       204  -9.5074    175.7366    172.1573   5.0545918739e+01   1.4462455130e+01    0.3145365    0.2394308 -40.70  0.001148137    1.336    0.251
       205  -7.6926    194.3101    172.3126   4.7161145018e+01   1.1863090617e+01    0.1247133   0.08279297  -7.91 0.0006367434    1.628    0.386
       206  -8.0565    143.1520    172.2696   5.7407503010e+01   1.9272661773e+01    0.1750764    0.1580183  62.49 0.0006536246    1.384    0.277
       207  -8.4222    134.8261    171.3472   5.9179886728e+01   2.0729536834e+01    0.2152133    0.1934722 -67.46 0.0007721565    1.347    0.257
       208  -9.5287    121.4062    170.4409   6.2304183319e+01   2.2990086169e+01    0.3590332    0.2659486 -88.73  0.001029313    2.051    0.512
       209  -8.9829     45.1682    171.0810   8.4241423298e+01   3.3422984649e+01     0.400165    0.2159443  71.37    0.0015198    2.196    0.545
       210  -8.4022    205.9707    170.4551   4.4861870942e+01   1.0607238464e+01    0.2132607    0.1493672 -47.09 0.0008050126    1.656    0.396
       211  -8.5076    198.6228    170.1337   4.6033005969e+01   1.1622640404e+01     0.219132    0.1757893 -70.20 0.0009893921    2.163    0.538
       212  -8.1514    237.5422    169.6934   3.9984181037e+01   6.8759383609e+00    0.1426748    0.0860924 -38.83 0.0007157581    1.520    0.342
       213  -9.0170    230.4644    169.3384   4.0917207628e+01   7.7402681521e+00    0.2974932    0.1565746 -40.31  0.001787167    1.741    0.426
       214  -8.5563    149.8909    169.4329   5.5397375342e+01   1.8781157041e+01    0.2304263    0.1892632 -67.08 0.0007239906    1.606    0.377
       215  -8.1019    244.3797    169.1603   3.8971309838e+01   6.1807919158e+00    0.1473189    0.0806262 -40.06 0.0004887443    1.684    0.406
       216  -9.2446    166.9035    168.3607   5.1610383069e+01   1.6403152755e+01    0.2927293    0.2369585  59.15 0.0009204985    1.717    0.418
       217  -8.5310    218.8093    168.1664   4.2434979895e+01   9.3106951585e+00    0.1632771    0.1371302 -29.69 0.0005633457    1.226    0.185
       218  -7.8393    211.5403    167.8295   4.3504429266e+01   1.0276966513e+01    0.1581948   0.09858035 -44.18 0.0007196482    1.674    0.403
       219  -8.7968    111.6821    167.3590   6.4294405061e+01   2.5158989503e+01    0.2945094     0.215129  63.07 0.0009579509    1.733    0.423
       220  -8.1642     88.7945    168.5958   7.0801166790e+01   2.8347844796e+01    0.2133269    0.1187672  40.94  0.000770107    1.654    0.396
       221  -9.0979    191.9328    166.1983   4.6489982042e+01   1.3150885102e+01    0.3483654    0.1501263 -41.23 0.0009889095    2.149    0.535
       222  -8.7152    184.9496    166.2202   4.7748362886e+01   1.4132511999e+01    0.2067829     0.166603 -54.63 0.0007490102    1.577    0.366
       223  -8.5861     20.7957    166.3219   9.1540714263e+01   3.7038885475e+01    0.3802428    0.1260391  41.82  0.001343895    2.423    0.587
       224  -9.5438    137.6810    164.6938   5.7328541739e+01   2.1606489243e+01    0.6471539    0.2629764  49.39  0.002232227    3.573    0.720
       225  -9.9632     95.0144    162.5238   6.8076484015e+01   2.8829436505e+01     0.895393    0.4658315  67.25  0.002797493    4.294    0.767
       226  -8.0226    234.0746    164.8221   3.9636103988e+01   7.9258161036e+00    0.1581509    0.1284147 -32.93 0.0006436993    1.272    0.214
       227  -9.7100     33.7200    163.2056   8.7152791683e+01   3.6634029736e+01    0.6327071    0.1896051  46.99  0.002134151    3.051    0.672
       228  -8.0382    240.0181    164.0128   3.8685904896e+01   7.3417764261e+00    0.1510911    0.1208646 -47.95 0.0005428146    1.644    0.392
       229  -8.6768    212.8784    163.5460   4.2536978530e+01   1.0732078564e+01    0.2200368    0.1423972 -39.49 0.0005874469    1.438    0.304
       230  -8.5655    159.3827    163.9323   5.2352926413e+01   1.8339274846e+01    0.2295611     0.202421 -79.01  0.001137834    1.559    0.359
       231  -8.6777    246.1999    162.5886   3.7629813616e+01   6.8246598111e+00    0.1988609    0.1146317 -31.98 0.0006270544    1.343    0.256
       232  -8.7124    204.9292    162.4672   4.3612433892e+01   1.1946903937e+01    0.2118493    0.1496128 -46.00 0.0006711563    1.549    0.354
       233  -9.3868      3.4853    162.2298   9.6855458102e+01   3.9403708392e+01    0.4851519    0.1817068  41.20  0.001647061    2.153    0.536
       234  -9.1291    177.3708    160.3813   4.8089142610e+01   1.6219899695e+01    0.2621232    0.2046626 -53.59 0.0007521439    1.532    0.347
       235  -8.8654    151.7918    160.7478   5.3392306381e+01   2.0125549089e+01    0.2493867    0.1872507 -59.74 0.0009583076    1.637    0.389
       236  -8.8832     60.7803    160.0754   7.8088768150e+01   3.4316238233e+01    0.3739656    0.1995106  60.03  0.001496706    2.231    0.552
       237  -7.9434    242.0052    159.9264   3.7723601072e+01   7.6505318148e+00    0.1496055    0.1023885 -14.33 0.0004883874    1.309    0.236
       238  -8.7775    245.4421    158.4954   3.7031617956e+01   7.4412952345e+00    0.1792982    0.1133014 -34.26 0.0005474536    1.280    0.219
       239  -9.7499    250.1836    157.5620   3.6271787325e+01   7.0226132603e+00    0.2761703    0.1265483 -37.39 0.0008207699    1.739    0.425
       240  -9.3665    246.7411    155.3498   3.6326557234e+01   7.7010258236e+00    0.1504184    0.1082937 -31.62 0.0005527856    1.149    0.130
       241  -8.7675    227.2670    158.8289   3.9551702679e+01   9.5730921511e+00    0.2423211    0.1518302 -49.10  0.001022377    1.940    0.485
       242  -8.5673    236.9869    158.9248   3.8219507205e+01   8.3739608401e+00    0.1555308    0.1223049 -48.83 0.0006882393    1.624    0.384
       243  -8.8221    196.7940    157.7968   4.4112515511e+01   1.3799168953e+01    0.2634309    0.1573009 -49.67 0.0009601915    1.929    0.482
       244  -8.3630    128.2178    159.0585   5.8587663567e+01   2.4286533865e+01    0.2668682    0.1736686  57.51  0.001210352    2.029    0.507
       245  -9.5473    105.7813    157.7456   6.4241110339e+01   2.8234119927e+01    0.4547079    0.2973526  67.78  0.001268862    2.237    0.553
       246  -8.5220    188.1159    157.6795   4.5602057602e+01   1.5074090967e+01    0.2086656    0.1570926 -43.28 0.0005588732    1.351    0.260
       247  -9.1484    167.7359    157.2163   4.9375930912e+01   1.8252774130e+01    0.2836122     0.232922  82.00  0.001334914    1.908    0.476
       248  -8.7073    217.8926    156.2658   4.0464382342e+01   1.1139638697e+01    0.2445121    0.1388495 -46.24  0.000810047    1.873    0.466
       249  -9.0748    157.5087    155.8899   5.1236002201e+01   2.0123537400e+01    0.2370266    0.2126812  87.28 0.0009727367    1.488    0.328
       250  -9.1716    119.6446    154.9456   6.0007009475e+01   2.6581900841e+01    0.3947363    0.2829969  83.51   0.00148111    2.191    0.544
       251  -9.4512     81.8082    154.4917   7.0689030818e+01   3.2758731322e+01    0.5321786    0.3066874  63.65   0.00164184    2.381    0.580
       252  -9.2554     49.8261    155.0715   8.1029021822e+01   3.6968023940e+01     0.485552    0.2021553  51.72  0.001750133    2.591    0.614
       253  -9.3007    239.8432    152.8061   3.6772523820e+01   8.8521283259e+00    0.1438246    0.1105484 -38.82 0.0004963391    1.312    0.238
       254  -8.2802    204.8181    155.1038   4.2285056094e+01   1.3086804158e+01    0.1764344     0.147804 -40.02 0.0005624756    1.264    0.209
       255  -8.7846    144.4274    154.5796   5.3871284617e+01   2.2519487080e+01    0.2579359    0.2073656  67.04 0.0009598442    1.658    0.397
       256  -9.7444    132.9344    152.7937   5.6243778247e+01   2.4807280481e+01     0.451692    0.3516426  85.52  0.001322001    1.880    0.468
       257  -9.3079    133.5859    148.1764   5.5181150442e+01   2.5656327453e+01    0.4176041    0.2152431 -47.67  0.001799435    1.962    0.490
       258  -9.4108     67.8257    153.3316   7.4906543008e+01   3.5077885112e+01    0.4341112    0.2375177  60.52  0.001415245    2.271    0.560
       259  -7.9809    232.7538    153.5783   3.7856361897e+01   9.6167765752e+00    0.1231376     0.109099  42.87 0.0006192102    1.546    0.353
       260  -8.4247    151.9549    152.7355   5.1825601059e+01   2.1630291626e+01    0.2358532    0.1783263 -60.14 0.0008593308    1.599    0.374
       261  -9.4920     29.4149    150.4820   8.7470394287e+01   4.0387441565e+01     0.611562    0.2361976  62.08  0.002061048    3.190    0.687
       262  -9.2708     20.2482    152.1659   9.0760224330e+01   4.0767014140e+01    0.2957324    0.1320634  47.60  0.001186874    2.021    0.505
       263  -8.4056      9.0599    153.0000   9.4615143470e+01   4.1413059336e+01     0.221771   0.07579339  16.68   0.00079902    2.919    0.657
       264  -9.3077    243.2092    149.8974   3.5828037905e+01   8.8341036853e+00    0.2318354    0.1163282 -41.68  0.001375176    1.781    0.439
       265  -8.9294    189.5846    150.1056   4.3904529187e+01   1.6099636875e+01    0.2480098    0.1912459 -57.38 0.0008430908    1.640    0.390
       266  -8.2923    182.3259    150.9665   4.5372662223e+01   1.7067122535e+01    0.1827353    0.1460316 -35.46 0.0005147151    1.163    0.141
       267  -8.4102    162.6803    150.5572   4.9115693846e+01   2.0272220221e+01    0.2064111    0.1626585 -64.30 0.0005649776    1.637    0.389
       268  -8.6308     98.3269    150.6314   6.5089609766e+01   3.1091195885e+01    0.3129179    0.2266147  66.40 0.0009254005    1.701    0.412
       269  -9.3910    248.9168    149.0602   3.4968323636e+01   8.2654444249e+00    0.2595815    0.1225639 -34.52 0.0007636561    1.627    0.385
       270  -8.2928    213.0952    149.7933   4.0002581608e+01   1.2740770944e+01     0.169088    0.1445485 -38.25 0.0004836989    1.235    0.190
       271  -8.6413    198.7361    148.6158   4.2059363094e+01   1.4972696306e+01    0.2227484    0.1780036 -44.78 0.0005981433    1.313    0.238
       272  -9.8612     89.4382    146.2843   6.6957459591e+01   3.3577659239e+01    0.6877568      0.39957  82.21  0.002378175    3.321    0.699
       273  -9.6981     40.1809    148.1151   8.3499881374e+01   3.9908348125e+01     0.573975    0.2243407  50.01  0.002044754    2.620    0.618
       274  -8.0676      3.2943    149.6688   9.6411745147e+01   4.2672307481e+01    0.1524266   0.08361533  54.41 0.0004141621    1.634    0.388
       275  -9.0888    233.3465    147.3329   3.6659788048e+01   1.0403260675e+01    0.2499471    0.1214601 -33.26  0.001001969    1.665    0.400
       276 -10.3161    148.9044    144.9451   5.0949983608e+01   2.3660620476e+01    0.5629599    0.3983875 -87.20  0.001544973    2.624    0.619
       277  -8.9396    150.5238    136.1175   4.8754739556e+01   2.5108642707e+01    0.5078568    0.2987117  14.73  0.001966028    3.002    0.667
       278  -7.6743    121.3027    148.3368   5.8314146683e+01   2.7742132597e+01    0.1495078    0.1121846 -12.89 0.0004761167    1.666    0.400
       279 -10.3564     54.9658    144.6044   7.7936593809e+01   3.9068807747e+01    0.9186895    0.4253402  64.28  0.002939559    3.245    0.692
       280  -9.6646     55.9621    135.5254   7.6248535623e+01   4.1345856707e+01    0.4947025    0.2621744  -2.66  0.001565168    3.770    0.735
       281  -8.6263    223.4224    146.9189   3.7953014825e+01   1.1757657283e+01    0.1734622    0.1658674  78.14 0.0006117898    1.508    0.337
       282  -9.8161    139.1248    144.9462   5.3200589262e+01   2.5360780955e+01    0.4047015    0.2889676 -80.16  0.001312914    2.239    0.553
       283 -10.1853    106.7448    143.9959   6.1427510690e+01   3.1229467236e+01    0.7736776    0.5106843  83.48  0.002478766    2.545    0.607
       284  -8.9198     78.0580    146.8696   7.0613457553e+01   3.5218330908e+01    0.2425047    0.1910069  60.97 0.0006160266    1.331    0.249
       285  -8.0016    206.4798    146.4721   4.0401570169e+01   1.4178683008e+01    0.1213466     0.102439 -24.96 2.402583e-05    1.032    0.031
       286  -8.1779    175.8951    145.9923   4.5596624836e+01   1.8941001082e+01    0.1928149    0.1599537 -75.39 0.0006556456    1.705    0.413
       287  -9.0206     13.3777    145.7834   9.2709074467e+01   4.3012424564e+01     0.368511    0.1751751  48.72     0.001085    1.911    0.477
       288 -10.0585    241.6516    143.4595   3.4885497944e+01   9.8842923946e+00    0.4328618     0.231517 -11.67  0.002212583    2.802    0.643
       289  -9.8067    124.9983    142.3597   5.6163045167e+01   2.8396918485e+01    0.5001916    0.3440699 -87.42  0.001381421    2.470    0.595
       290  -8.0105    194.4464    143.9252   4.1869529650e+01   1.6369489634e+01    0.1665234    0.1016062 -57.82 0.0007868459    2.366    0.577
       291  -8.8068    165.5386    143.7464   4.7171616400e+01   2.1050148404e+01    0.2424994    0.2154188 -64.42  0.000759875    1.343    0.255
       292 -10.9811     69.4545    139.1199   7.2135729696e+01   3.8489813140e+01    0.9508945    0.4377007 -67.79   0.00296689    2.417    0.586
       293  -9.2376      2.9595    141.5915   9.6169124642e+01   4.4834102944e+01    0.5391266    0.1978906  63.38  0.001718354    2.715    0.632
       294  -8.4276    182.0871    141.5750   4.3564789050e+01   1.8705355613e+01     0.220006    0.1630395 -46.41 0.0005867869    1.356    0.263
       295  -7.8215    250.5114    140.5155   3.3280256074e+01   9.1873374510e+00    0.1095265   0.08228751 -28.38 -1.511147e-05    1.026    0.026
       296  -9.9462     23.1184    137.9921   8.8591244378e+01   4.4328616793e+01    0.6293581    0.2557482  46.21   0.00241826    2.285    0.562
       297  -9.1636    139.2564    137.5630   5.1638966573e+01   2.6850934380e+01    0.4292901    0.2641113  -5.74  0.001565343    3.318    0.699
       298  -7.5410    235.2866    138.6298   3.4823094850e+01   1.1354975324e+01     0.110638   0.07723674 -51.84 0.0007020104    1.708    0.414
       299  -7.7905    218.5229    138.4785   3.7073234059e+01   1.3661425389e+01    0.1187268      0.09767 -30.02 0.0001430007    1.053    0.051
       300  -8.2631    207.5000    137.5693   3.8529611346e+01   1.5401759101e+01    0.2077727    0.0992218 -46.51 0.0007926985    2.109    0.526
       301  -8.6020    197.6167    137.4110   4.0059581389e+01   1.6932515117e+01    0.2343363    0.1637452 -54.17 0.0009360121    1.678    0.404
       302  -8.6857    172.0649    137.6531   4.4637076442e+01   2.1051945019e+01    0.2418816    0.1768478 -55.83 0.0006643471    1.565    0.361
       303  -8.9329    248.5208    134.8497   3.2507618389e+01   1.0173133803e+01    0.2582864    0.1085198 -36.90 0.0008810755    1.821    0.451
       304  -9.1563    250.7847    129.7709   3.1333334037e+01   1.0556016134e+01    0.4553416   0.08211505 -36.40  0.001674956    4.190    0.761
       305  -8.2571    162.6429    136.1926   4.6198668095e+01   2.2943447481e+01    0.2053229    0.1631693 -57.54 0.0006016464    1.414    0.293
       306  -8.7613    247.0261    143.7013   3.4261567345e+01   9.1918817284e+00    0.2033112    0.1216214 -37.01 0.0005504552    1.344    0.256
       307  -9.0593     39.1041    135.7171   8.2422019593e+01   4.3363757323e+01    0.3213097    0.1958265  63.64 0.0008934665    1.761    0.432
       308  -8.3445    187.9458    135.2682   4.1250845471e+01   1.8823024734e+01    0.1771906    0.1550065 -25.15 0.0003913281    1.015    0.015
       309  -8.7781    179.5223    133.9592   4.2475372079e+01   2.0441705243e+01    0.2549698    0.1963898 -58.44 0.0007761641    1.526    0.345
       310  -8.0980     95.6785    135.1320   6.2928204184e+01   3.5244172373e+01    0.2326112    0.1895927 -85.99 0.0006798517    1.423    0.297
       311 -10.4393     83.5618    133.0560   6.6341334327e+01   3.7817601536e+01    0.5502191     0.375013 -84.68  0.001451697    1.889    0.470
       312  -7.8758    231.3761    133.7989   3.4435349289e+01   1.2549938940e+01    0.1625363   0.08886173 -28.92 0.0002734869    1.586    0.369
       313  -9.2242    112.7433    132.9206   5.7477564927e+01   3.2711567113e+01     0.328617    0.2552755  76.32 0.0009041614    1.637    0.389
       314  -7.6974    237.5276    133.4963   3.3594199685e+01   1.1766750411e+01    0.1137979   0.08880858 -32.28  0.000809174    1.066    0.062
       315 -10.2256    132.3820    131.3475   5.1965199601e+01   2.9411581419e+01    0.5289487    0.3815712  83.97  0.001288997    2.171    0.539
       316  -9.2886    143.0221    131.6443   4.9484386222e+01   2.7368967200e+01    0.2888628    0.2456091  89.64 0.0007926163    1.478    0.323
       317  -9.5451     13.0636    129.2858   9.1667213979e+01   4.7510538760e+01     0.559372    0.2129938  56.05  0.001760847    2.728    0.633
       318  -8.5811    247.0501    129.7125   3.1752146313e+01   1.1037546138e+01    0.1922178    0.1163151 -40.11 0.0006574044    1.365    0.267
       319  -8.2472    204.5423    130.0269   3.7490108055e+01   1.7025199068e+01    0.1893734    0.1054321 -39.46 0.0005271808    1.549    0.354
       320  -8.0467    192.5368    129.9843   3.9391896618e+01   1.8950557201e+01     0.193101    0.1121362 -40.00 0.0004458175    1.528    0.345
       321  -9.4186    168.3464    129.2369   4.3580026631e+01   2.3217705915e+01    0.2830938    0.2152619 -65.41 0.0007115329    1.657    0.397
       322  -9.3669    152.9770    128.8986   4.6657734734e+01   2.6071165876e+01     0.387282    0.2103402 -53.61  0.001052715    2.066    0.516
       323 -10.1757     99.2826    127.6380   6.0266311187e+01   3.6409155432e+01    0.6438822    0.4149604  86.05  0.001688699    2.628    0.619
       324  -8.1343     98.6944    120.6073   5.8888255489e+01   3.8202813831e+01    0.2461965     0.187942 -14.29 0.0007086513    1.764    0.433
       325  -9.5983     73.1568    129.2583   6.9102600341e+01   4.0476789197e+01    0.4180813     0.268725  68.28  0.001114927    1.991    0.498
       326  -8.2764    211.5695    128.8095   3.6199187474e+01   1.6131021548e+01    0.1727599    0.0979564 -45.60 0.0007565616    1.668    0.401
       327 -10.9870     44.4550    124.1851   7.8792006795e+01   4.5889434011e+01     1.142615    0.6033822  61.07  0.003274051    2.274    0.560
       328 -10.4286     60.1486    125.0642   7.2978179865e+01   4.3555150692e+01    0.7953457    0.4284879  67.65  0.002746808    2.729    0.634
       329  -9.6991    117.9549    125.2334   5.4348500895e+01   3.3473998569e+01    0.5114834    0.3303928  69.18  0.001419981    2.346    0.574
       330  -8.3291    228.5110    125.4942   3.3232227076e+01   1.4123457517e+01    0.1174431   0.09388318 -32.50 0.0008103963    1.029    0.028
       331  -9.0310    179.0532    124.5834   4.0576735945e+01   2.2151428397e+01    0.2597715    0.2205089  83.40 0.0007960688    1.542    0.351
       332 -10.3164     28.4784    122.2662   8.4868023371e+01   4.8163147723e+01    0.9125837    0.3686574  64.88  0.002894892    3.489    0.713
       333  -7.9847    188.5081    123.9313   3.8799237368e+01   2.0626460798e+01    0.1956836    0.1148605 -40.88 0.0005679632    1.522    0.343
       334  -9.0236    171.7077    121.8851   4.1334500314e+01   2.3940189478e+01    0.3959073    0.1995165 -32.97  0.001438101    2.095    0.523
       335  -9.3588    158.7985    121.6415   4.3813281267e+01   2.6375525774e+01    0.3459726     0.253396 -82.63 0.0009551775    2.084    0.520
       336  -8.4364     84.2061    122.5733   6.3988891001e+01   4.0344353035e+01    0.2779027    0.1996468  26.81 0.0009931584    1.464    0.317
       337  -7.9044    202.8234    121.7952   3.6075749661e+01   1.8590746609e+01    0.1659969    0.1336693 -52.77   0.00040313    1.312    0.238
       338  -9.9834    141.4959    118.1297   4.6775043405e+01   3.0400440540e+01     0.503934    0.2911524 -58.18  0.001647965    2.076    0.518
       339 -10.0097    130.9367    118.5525   4.9411748829e+01   3.2399295326e+01    0.5218285    0.3631151 -82.52  0.001849568    2.234    0.552
       340 -10.1678    133.5006    109.3333   4.6545879458e+01   3.3810630498e+01     0.629792    0.3503709 -47.70  0.002304508    1.781    0.438
       341  -9.5353     70.7406    119.4514   6.8019594317e+01   4.3412295260e+01    0.4101151    0.2754225  75.63  0.001079926    1.934    0.483
       342  -9.5198      2.8983    116.8089   9.4868522445e+01   5.1574224836e+01    0.5810047    0.2198939  63.58   0.00210151    2.813    0.645
       343  -7.7266    231.6476    117.3270   3.1262540926e+01   1.4827200455e+01    0.1156008   0.07999728 -58.18 0.0007047485    1.766    0.434
       344  -8.0967    185.7834    115.8238   3.7509330796e+01   2.2459023280e+01    0.1811093    0.1417432 -55.69 0.0004796863    1.348    0.258
       345  -9.9265    109.3781    113.9524   5.4114742416e+01   3.7701280315e+01    0.5578511    0.3617324 -79.58  0.001457782    2.423    0.587
       346  -8.9793    109.7574    106.9584   5.2262936123e+01   3.9216805369e+01    0.3967562    0.2482679  12.43  0.001371889    3.191    0.687
       347 -10.2507     92.7279    112.3537   5.8851888265e+01   4.1319176057e+01    0.6409319    0.3692527 -69.26  0.001606422    2.286    0.563
       348  -8.7726     93.3993    104.3947   5.6658121450e+01   4.3106526056e+01    0.2994236    0.1466108  26.06 0.0009507844    3.163    0.684
       349  -8.8686    250.0415    114.6979   2.8660563331e+01   1.2626819471e+01    0.2896892    0.1544075 -54.80   0.00161208    2.453    0.592
       350 -10.0676    248.3351    108.1282   2.7614163044e+01   1.3720158062e+01    0.3339026    0.1924939 -33.33  0.001535072    1.342    0.255
       351 -10.1997    249.6710    103.5190   2.6607747203e+01   1.4138810528e+01       0.4216    0.1870756 -45.69  0.002342112    1.962    0.490
       352  -8.0968    193.1559    115.1778   3.6172384561e+01   2.1272243613e+01    0.1754367    0.1364625 -54.16 0.0004703306    1.335    0.251
       353  -7.5996    153.2931    115.3090   4.3503221425e+01   2.8639356828e+01    0.1397822    0.1111944  -4.24 0.0002571012    1.585    0.369
       354  -9.9257     79.0709    112.4395   6.3511455769e+01   4.3805735894e+01    0.6114777    0.3912748  73.71  0.001824749    2.272    0.560
       355  -8.6679     59.7792    114.8649   7.1190171070e+01   4.6333033447e+01    0.3928256    0.2143073   7.75  0.001328435    3.045    0.672
       356  -8.4437    167.3004    114.0533   4.0403792566e+01   2.6169648642e+01    0.1967819    0.1690531 -43.80 0.0005056001    1.089    0.082
       357  -9.9882    122.1109    112.4089   5.0200434200e+01   3.5487534288e+01    0.3390341    0.2582924 -66.84 0.0004833731    1.489    0.328
       358  -8.5689    174.8650    111.6389   3.8458567143e+01   2.5170606826e+01    0.2651321    0.1755737 -48.45 0.0006580506    1.453    0.312
       359  -8.9490    159.3861    111.7892   4.1421920048e+01   2.8112880181e+01    0.2597956    0.2107578 -74.05  0.000776162    1.471    0.320
       360  -9.8366     14.1193    111.0901   8.9644697552e+01   5.2472819325e+01    0.4454809    0.2359741  56.63  0.001368093    1.943    0.485
       361 -10.0666     66.5671    109.5217   6.7455909149e+01   4.6684865592e+01    0.6239607    0.3434583 -60.64  0.002173283    1.849    0.459
       362  -8.1911      2.3207    110.3046   9.4698119255e+01   5.3396650776e+01    0.1475416    0.0965727 -43.96 0.0007029825    1.634    0.388
       363  -7.9014    183.2436    109.6251   3.6558214858e+01   2.3961134910e+01    0.1345424   0.09392495 -59.27 0.0005617973    1.629    0.386
       364  -8.9080     43.2961    108.9835   7.6740860305e+01   5.0199782941e+01    0.3851819    0.1739746  11.55  0.001247476    3.235    0.691
       365  -7.9915    189.4476    107.8831   3.5162126262e+01   2.3120941154e+01     0.197616     0.113955 -40.94 0.0007659319    1.526    0.345
       366  -8.8549    108.3105     92.0761   4.8686763196e+01   4.2833844693e+01    0.4795069    0.2667577  30.60  0.001770117    2.494    0.599
       367 -10.7532    109.4628     98.9400   5.0245151139e+01   4.1075480957e+01    0.9081405    0.4823961  66.48  0.002921024    3.400    0.706
       368 -10.4365     45.8145    102.1669   7.4365695380e+01   5.1734720769e+01    0.8985116    0.4256745  62.43  0.002881081    3.333    0.700
       369 -10.7084     22.6512    102.3476   8.4794604976e+01   5.4237253145e+01    0.8319435     0.388462  64.45   0.00222831    2.696    0.629
       370  -9.5977    150.5672    102.9399   4.1089369925e+01   3.1554945039e+01       0.4456    0.2454413 -57.27  0.001214001    2.187    0.543
       371  -9.3923    139.9293    104.3893   4.3788906586e+01   3.3482245708e+01    0.3436537    0.2524215 -84.21  0.000825404    1.869    0.465
       372  -8.5721     78.2780    104.8554   6.1996615213e+01   4.5863515371e+01    0.2852092     0.209531  -2.48 0.0007770595    1.969    0.492
       373  -8.4757    166.8012    104.0643   3.8159194507e+01   2.8062991609e+01    0.2167015    0.1749554 -64.18 0.0006680849    1.338    0.253
       374  -9.9979    128.2243    101.7443   4.5917807895e+01   3.6486515861e+01    0.3381564    0.2700144 -84.30  0.001138134    1.506    0.336
       375  -8.8010      6.7752    102.8826   9.2152181996e+01   5.5217851653e+01    0.2810954    0.1751634  68.76  0.001020446    1.622    0.384
       376  -7.8806    175.8201    102.1721   3.6102236250e+01   2.6628909626e+01    0.1754212    0.1548754  -8.91 0.0003573215    1.276    0.216
       377  -8.4720    159.8580    100.6123   3.8638388576e+01   3.0080574882e+01    0.2736152    0.1651967 -55.10 0.0005946694    1.794    0.442
       378  -9.3538     82.2021     99.9222   5.9336256566e+01   4.6361142783e+01    0.4076958    0.2836407 -81.82 0.0009783257    1.879    0.468
       379 -10.1705     63.8656     96.0742   6.5358716046e+01   5.0628832811e+01    0.7243106    0.4283913 -79.27  0.001901001    2.329    0.571
       380  -8.5400     65.1984     87.2202   6.2474379274e+01   5.2650823637e+01    0.3938776    0.2413846   6.12  0.001373157    2.996    0.666
       381  -9.4668     94.9376     96.7260   5.4124169787e+01   4.4608099390e+01    0.3852392    0.2659544 -64.74 0.0007327959    1.627    0.386
       382  -8.7633    151.0278     95.2614   3.9051404162e+01   3.2904233171e+01    0.2883932    0.1857116 -14.05   0.00116462    2.643    0.622
       383  -9.7303    246.7451     93.6903   2.5022840511e+01   1.5835226992e+01    0.2317682   0.09768109 -42.66  0.001255423    1.843    0.457
       384  -8.1317    164.5384     93.9438   3.6108122578e+01   3.0314347515e+01     0.210296    0.1275371 -42.87 0.0004241181    1.524    0.344
       385  -9.1720    120.3554     93.1961   4.5648308128e+01   3.9966725002e+01    0.2718332    0.2285542 -51.56  0.001145099    1.184    0.155
       386  -9.8030    124.6282     90.8199   4.3881703637e+01   3.9516250902e+01    0.4135473    0.3280825 -76.96  0.001190916    1.444    0.308
       387  -7.4375    188.6783     93.3317   3.1975535987e+01   2.5623780854e+01    0.1363884   0.09383845 -64.64 0.0007049566    1.699    0.411
       388  -8.1725    176.4670     93.0034   3.3812534131e+01   2.8056480395e+01    0.2084302    0.1211882 -41.49 0.0005234997    1.547    0.353
       389  -9.6463    139.0249     91.4236   4.0612825100e+01   3.6221578098e+01    0.5343634    0.2611157 -48.57  0.001227588    2.049    0.512
       390  -9.1422     46.5473     91.8715   7.1824421148e+01   5.4406757578e+01    0.4271961     0.210917  15.76  0.001508728    2.681    0.627
       391  -9.4944     34.8940     89.7548   7.6847906404e+01   5.6468161581e+01    0.5232823    0.2894489  81.34  0.001815565    2.547    0.607
       392  -7.8487    157.8553     91.6121   3.6765461901e+01   3.2124309284e+01    0.1857503    0.1344036  70.02 0.0005249383    1.590    0.371
       393  -9.1549     22.7938     90.0634   8.2867680616e+01   5.7625250218e+01    0.3896661    0.2817277   5.39  0.001533779    1.515    0.340
       394  -7.9638    151.2245     88.9646   3.7373449293e+01   3.4022515841e+01    0.1911922    0.1129598 -42.18 0.0004192092    1.610    0.379
       395 -10.2127     86.4451     85.8294   5.3904483370e+01   4.8890258615e+01    0.6609821    0.4305649 -66.34  0.001784191    1.832    0.454
       396  -9.7754     48.4821     84.0456   6.9018255153e+01   5.6191317278e+01    0.5980546    0.3359222  65.29  0.001621541    2.672    0.626
       397  -7.6254    179.2891     85.6088   3.1568504956e+01   2.8709436939e+01    0.1447766   0.09340265 -62.33 0.0007006756    1.768    0.434
       398  -9.8020    104.7937     83.0715   4.7100035702e+01   4.5551458915e+01    0.4445478     0.321794 -80.65 0.0009565118    1.802    0.445
       399  -8.5172    157.9405     83.7549   3.4710990545e+01   3.3495710949e+01    0.2458781    0.1887777 -46.12 0.0005027427    1.216    0.178
       400  -8.0046    250.3054     83.3331   2.2691149711e+01   1.6645921152e+01    0.1043808   0.07783464 -11.02 0.0007038751    1.663    0.399
       401  -9.0259    140.8534     82.4187   3.7744694733e+01   3.7517446234e+01    0.3518068    0.1965736 -48.79 0.0009511917    1.766    0.434
       402  -9.2823      4.8757     91.6059   9.2027556364e+01   5.8436815114e+01    0.3625178    0.1679093  47.20  0.001018204    2.210    0.548
       403  -9.6606     24.7090     80.5591   8.0159802932e+01   6.0041202523e+01    0.4685519    0.2721939  73.97  0.001448709    2.200    0.545
       404  -9.0946     10.0315     80.8187   8.8110060360e+01   6.1116334276e+01    0.4355104    0.1684852  47.28  0.001581109    2.836    0.647
       405  -8.4814    150.7038     80.8185   3.5295474712e+01   3.5601121983e+01    0.2825748    0.1779715 -56.21   0.00127062    1.666    0.400
       406  -8.8260     74.8464     80.2674   5.6535305791e+01   5.2536872039e+01    0.3339814    0.2221875 -71.69  0.001073799    1.891    0.471
       407  -8.3582    119.1881     79.7588   4.2084444116e+01   4.2971179381e+01    0.2663537    0.1959528 -59.00 0.0006708311    1.423    0.297
       408  -8.0900    166.9784     79.3250   3.1969184126e+01   3.2301032437e+01     0.186077    0.1712883 -65.23 0.0004653751    1.030    0.029
       409  -7.7825    174.7782     78.0124   3.0381807683e+01   3.0863102812e+01    0.1803769    0.1021213 -38.91 0.0004176041    1.607    0.378
       410  -8.1735    157.0551     76.3452   3.2896427203e+01   3.4964813981e+01     0.194778    0.1773789 -79.11 0.0005090719    1.066    0.062
       411  -9.3537    128.0510     74.9418   3.8451692459e+01   4.1847560314e+01    0.4095418    0.2442613 -57.36 0.0007581042    1.873    0.466
       412  -8.2673    140.6260     75.1901   3.5747093085e+01   3.8885209479e+01    0.2333267    0.1689615 -60.81 0.0005950293    1.435    0.303
       413  -9.8988     63.2670     73.4034   5.9178853265e+01   5.6384013860e+01    0.5291659    0.2938703 -64.24   0.00117066    2.160    0.537
       414  -9.6867     82.5297     72.5334   5.1139515265e+01   5.2723468655e+01    0.4245724    0.2966875 -79.01 0.0009797891    1.962    0.490
       415  -8.1941    151.4081     73.1984   3.3063578738e+01   3.6767308397e+01    0.2047189     0.122377 -50.23 0.0004229826    1.624    0.384
       416  -8.3294    115.7005     72.9163   4.0899673793e+01   4.5124411743e+01    0.2126695    0.1891602 -59.94 0.0004693642    1.114    0.102
       417  -8.2244     42.6979     72.5316   6.8728620081e+01   5.9999998188e+01    0.2597649    0.1840157  86.23 0.0009608034    1.806    0.446
       418  -9.1927    105.8985     71.6127   4.3190817308e+01   4.7670960018e+01    0.2937498    0.2154612 -57.91 0.0007553225    1.433    0.302
       419  -9.2002     95.1995     71.0137   4.6266782308e+01   5.0252810497e+01    0.4038188    0.2526133 -63.02  0.001090416    1.963    0.491
       420  -9.7149     51.4834     69.6608   6.3443945741e+01   5.9357008882e+01    0.5516255    0.3161407 -77.36   0.00151937    2.663    0.624
       421  -8.8061     16.6439     69.9097   8.2561838987e+01   6.3603567534e+01    0.2803702    0.1951656  65.26 0.0008032821    1.624    0.384
       422  -7.8006    157.2709     69.6650   3.1035280317e+01   3.6031448797e+01    0.1467142   0.09963303 -64.83  0.000301665    1.596    0.373
       423  -8.9562    147.2003     68.0664   3.2396815535e+01   3.8602342825e+01      0.29388     0.207144 -57.52 0.0006712886    1.414    0.293
       424  -9.0548     30.9748     69.1524   7.4112001472e+01   6.2398674667e+01    0.3640425     0.189324  -7.22  0.001239026    3.337    0.700
       425  -8.6749    138.7671     65.9026   3.3403884011e+01   4.0945968836e+01    0.2748067    0.1794167 -57.15 0.0006553121    1.588    0.370
       426  -8.7203    121.7638     65.7177   3.7093568612e+01   4.5037618810e+01    0.2946222    0.1907706 -53.58  0.000584188    1.593    0.372
       427  -8.2044    163.4268     73.2302   3.0959939133e+01   3.4075662768e+01    0.2048892    0.1162143 -49.00 0.0009415595    1.667    0.400
       428  -8.8291     37.3435     64.0507   6.9084416692e+01   6.2887187511e+01    0.3048857    0.2236277  83.84 0.0009698934    1.730    0.422
       429  -8.9040    110.2450     63.5278   3.9307215779e+01   4.8206965100e+01    0.3151732    0.2273703 -76.54 0.0005706212    1.687    0.407
       430  -9.3658     97.2751     61.0768   4.2198656702e+01   5.1763749082e+01    0.4611044    0.3261132 -25.76  0.001632158    1.815    0.449
       431  -8.6983     64.6665     62.9735   5.5015113766e+01   5.8528893125e+01    0.4321796    0.2726413  -1.47  0.001419168    3.750    0.733
       432  -8.4106    158.4011     62.1736   2.8765329231e+01   3.6977398218e+01    0.1988036    0.1162964 -48.46 0.0004600321    1.597    0.374
       433  -9.6846     73.3852     59.2318   4.9956755089e+01   5.7546928463e+01    0.4382126    0.2743676 -60.30 0.0009753696    1.894    0.472
       434  -7.9179     88.8323     58.8874   4.4129771239e+01   5.4165132301e+01    0.2118547    0.1763082 -78.75 0.0005584661    1.328    0.247
       435  -8.2592    130.7084     57.4237   3.2437370964e+01   4.4312808488e+01    0.2560647    0.1630889 -50.61  0.000562997    1.556    0.358
       436  -9.7878     23.3870     56.1098   7.5067971442e+01   6.6565815608e+01    0.5152497    0.3048088  76.39  0.002110271    2.552    0.608
       437  -9.3936      7.5983     57.0553   8.5725819410e+01   6.7597608573e+01    0.3568162    0.2115517  58.21   0.00102098    1.986    0.496
       438  -8.1366    140.0219     55.9820   3.0146147508e+01   4.2286462194e+01    0.2325968    0.1585679 -68.75 0.0005000659    1.609    0.378
       439  -9.2689     63.0998     54.6317   5.2572085841e+01   6.0659706226e+01     0.345786    0.2427219 -65.13 0.0006724588    1.713    0.416
       440  -8.9236     54.0393     53.5020   5.6439794527e+01   6.2663221156e+01    0.3614345    0.2186034 -68.57   0.00108508    2.324    0.570
       441  -8.4722    105.8769     53.1179   3.6864935768e+01   5.1150440439e+01    0.2358398    0.1923626 -79.45 0.0005661522    1.302    0.232
       442  -9.4254     92.4712     50.2545   3.9690862850e+01   5.4925511241e+01    0.4120551    0.2453028 -52.73  0.001199309    1.851    0.460
       443  -8.4557     75.3294     51.2368   4.6074447823e+01   5.8740411881e+01     0.326456    0.1718148  25.25 0.0009518994    4.400    0.773
       444  -8.8060    119.3259     55.6963   3.4385699361e+01   4.7393680177e+01    0.3100048    0.2169635 -73.10 0.0007081699    1.669    0.401
       445  -8.3655    129.9752     49.2330   2.9932411894e+01   4.5812237751e+01    0.2046713    0.1847927 -85.53 0.0005485096    1.012    0.012
       446  -8.6238     44.0937     55.5184   6.2446840766e+01   6.3937675886e+01    0.2683291    0.2095433 -80.58 0.0007419541    1.560    0.359
       447  -8.3132    120.6553     47.2176   3.1187839265e+01   4.8453219197e+01    0.1972447     0.140704 -27.08 0.0008795756    1.645    0.392
       448  -8.2753    112.1439     46.6557   3.2934222345e+01   5.0678034644e+01    0.2588406    0.1884676 -55.43 0.0007287792    1.407    0.289
       449  -8.9800     82.3206     46.4977   4.1558619072e+01   5.8022845293e+01    0.3012443    0.2375257 -72.69 0.0007045772    1.469    0.319
       450  -8.3772     45.1070     44.6778   5.7552782322e+01   6.6186996278e+01    0.2362122    0.1978794 -66.63 0.0005401365    1.352    0.260
       451  -9.2143     16.7586     44.6424   7.6124871821e+01   7.0048688479e+01    0.2559713    0.2183273  81.97 0.0007266444    1.355    0.262
       452  -8.6186     92.6139     42.9387   3.6761211823e+01   5.6156203614e+01    0.2895012    0.2072354  -9.77  0.001292589    2.083    0.520
       453  -8.3184    132.7749     42.8433   2.7291456240e+01   4.6080496260e+01    0.2063103     0.153438 -66.77 0.0004374276    1.338    0.253
       454  -9.1824     69.7994     41.4582   4.4140571374e+01   6.1824294080e+01    0.4236084    0.2752539 -74.65  0.001176552    2.495    0.599
       455  -8.9197     58.3236     42.6285   4.9745648498e+01   6.4081109305e+01    0.2989597    0.2335235  89.22 0.0008577437    1.705    0.414
       456  -9.5850      5.2386     41.8709   8.4136130075e+01   7.1578540774e+01    0.3933101    0.2385193  80.22  0.001865166    2.074    0.518
       457  -8.8358    106.0281     41.4258   3.2490644378e+01   5.3047347916e+01    0.2812996    0.1913994 -55.89  0.000666493    1.559    0.358
       458  -8.3025     36.8801     40.4165   6.0602701831e+01   6.8476455011e+01    0.2257317    0.1975798 -70.65 0.0006250989    1.306    0.234
       459  -7.8011    160.6331     39.7718   2.2048579580e+01   3.9720202810e+01    0.1973496    0.1073888 -45.04 0.0004002405    1.648    0.393
       460  -8.5275     95.5097     37.9995   3.3916539820e+01   5.6231898748e+01    0.2129761    0.1439746 -41.54 0.0005023797    1.546    0.353
       461  -8.4721     80.7365     36.4026   3.7798640632e+01   6.0133640107e+01    0.2649006    0.1707676 -50.96  0.000762416    1.710    0.415
       462  -7.7424    191.3838    249.6801   5.9296936193e+01   1.3760613079e+00    0.0950793   0.07438074  35.25  0.000174371    1.836    0.455
       463  -8.3878    111.9668     34.4801   2.8465415995e+01   5.2567397128e+01    0.2775705    0.1813835 -55.47 0.0006909376    1.599    0.374
       464  -8.1676    104.4617     34.4731   3.0176771935e+01   5.4491461299e+01    0.1476508     0.132802  86.53  0.000116258    1.025    0.025
       465  -7.9946     88.7737     34.0262   3.4193048546e+01   5.8530460600e+01    0.1875459    0.1223019 -36.96 0.0008727591    1.644    0.392
       466  -8.7924     48.5736     33.1479   5.0206674841e+01   6.7854136052e+01    0.2508306     0.211465  73.95  0.000714765    1.415    0.293
       467  -8.0863    119.2082     33.2273   2.6508235527e+01   5.0883539832e+01      0.20405    0.1525655 -70.44 0.0004758044    1.352    0.260
       468  -8.7001     60.9171     32.5066   4.3742497185e+01   6.5386470871e+01    0.2558077    0.1992122 -61.47 0.0006056758    1.515    0.340
       469  -8.8267     72.3890     31.0553   3.8313106997e+01   6.2991932887e+01    0.2942446    0.2033015 -58.54  0.000722977    1.725    0.420
       470  -8.8844     13.1012     29.9782   7.3739510908e+01   7.3830324378e+01    0.3356368    0.2237566 -84.08  0.001521039    1.998    0.500
       471  -8.4983    101.6580     29.1771   2.8714675683e+01   5.5956210595e+01    0.2300405     0.167521 -59.96 0.0006969836    1.447    0.309
       472  -7.6897     42.2691     29.6538   5.2005725702e+01   6.9714990794e+01    0.1350103    0.1116454  87.32 0.0004261201    1.616    0.381
       473  -8.8700     81.5802     27.2025   3.3330665048e+01   6.1332011980e+01     0.317555     0.216582 -64.63 0.0008829283    1.783    0.439
       474  -9.0456      3.6437     27.3387   8.1341135022e+01   7.5158127175e+01    0.2690178    0.1909427  52.97 0.0008677985    1.699    0.411
       475  -7.4528    110.2974     27.2998   2.6054437378e+01   5.3973927056e+01    0.1406174    0.1066304  38.29 0.0004049233    1.576    0.365
       476  -8.8443     91.9185     26.2659   2.9919437085e+01   5.8851609076e+01    0.2949752    0.1842172 -52.54 0.0007217473    1.756    0.431
       477  -8.4049    104.6010     22.7989   2.5437705153e+01   5.6024785593e+01    0.2015275    0.1218546 -45.98 0.0006255512    1.695    0.410
       478  -8.6511     48.5919     21.5516   4.3876659775e+01   6.9860984706e+01     0.244619    0.2272574  82.62 0.0005729945    1.213    0.176
       479  -8.1206     34.3163     22.6444   5.3192556980e+01   7.2447814052e+01    0.1353924    0.1092816  78.98 0.0007045392    1.746    0.427
       480  -8.2149    120.6164     21.5058   2.1933549980e+01   5.2015505475e+01    0.1404049    0.1232857 -79.37 6.868548e-05    1.035    0.034
       481  -8.8790     63.5335     20.7006   3.6462344660e+01   6.6639850822e+01    0.2872539    0.2238561 -68.45  0.001040796    1.558    0.358
       482  -7.9224    126.0190     35.4922   2.6028144068e+01   4.8831208851e+01     0.206263    0.1327513  68.31 0.0003741966    1.462    0.316
       483  -9.0068     74.3023     19.3660   3.1838155766e+01   6.4212473911e+01    0.3039657    0.2196162 -56.22 0.0008129039    1.571    0.364
       484  -7.9812     11.7074     20.3301   7.0611623541e+01   7.6084967771e+01    0.1270307   0.09944393  57.87 0.0003326868    1.629    0.386
       485  -8.3015     87.9027     17.3490   2.6912937863e+01   6.1017045033e+01    0.2311253    0.1832342 -53.14  0.000557549    1.332    0.249
       486  -8.0072     38.9767     18.2827   4.7459593852e+01   7.2339663015e+01     0.189941    0.1695706  38.38 0.0005631197    1.045    0.043
       487  -7.4965    112.5942     16.5573   2.1394864862e+01   5.4671694745e+01    0.1408386    0.1223333 -84.54 8.579205e-05    1.035    0.034
       488  -7.9948     30.0248     15.7815   5.1986361686e+01   7.4411517218e+01    0.1759948    0.1483589 -71.47 0.0004757346    1.589    0.371
       489  -8.6423    132.3938    247.8609   7.0327408327e+01   7.6500788928e+00    0.2253149    0.1664575  54.89   0.00094546    1.981    0.495
       490  -7.9777     16.8612     13.6389   6.1738849386e+01   7.6834202134e+01    0.1863144    0.1088069  38.89 0.0007220251    1.711    0.416
       491  -8.2667     93.8383    249.2428   7.8752181774e+01   1.1615109312e+01    0.2013707   0.09120709  50.69 0.0009472485    2.793    0.642
       492  -7.4201    119.3864     10.6950   1.8060090060e+01   5.3519712504e+01    0.1540423    0.0888152 -67.40 0.0001303674    1.799    0.444
       493  -9.1972    243.1762    246.0770   5.0618981864e+01  -2.7139407211e+00    0.3191326    0.1170069 -26.70  0.001960394    2.350    0.575
       494  -8.7719    218.6519    246.6678   5.4390888158e+01  -7.4569650738e-01    0.2978153   0.08989161 -34.94   0.00159921    3.017    0.669
       495  -8.0825      7.6720     15.3491   7.2125494378e+01   7.7523368494e+01     0.129541   0.09544285  54.95 0.0007049015    1.760    0.432
       496  -9.2517    175.4400    247.3564   6.1850561367e+01   3.2173075475e+00    0.2218389    0.1989919  48.90  0.001236398    1.913    0.477
       497  -8.5264    156.2470    248.0910   6.5565484078e+01   5.0801159593e+00    0.1970792    0.1198979  41.37 0.0007632186    2.022    0.506
       498  -7.9160    113.2053    248.2328   7.4421428175e+01   9.6785362211e+00    0.1451163    0.0981753 -76.79 0.0008655642    2.439    0.590
       499  -9.0855    103.8852    247.0012   7.6329805888e+01   1.0892414150e+01    0.3086411    0.2057537 -83.67  0.001825351    2.490    0.598
       500 -10.0258    223.9940    243.9928   5.3203649392e+01  -9.0871242469e-01     0.354403    0.1778529 -42.12  0.002304359    2.515    0.602
       501  -8.4291    146.4388    239.5139   6.6485957958e+01   7.3565136968e+00    0.1330726    0.1180622 -64.44  0.000197929    1.723    0.420
       502  -9.1431    120.2846    245.2062   7.2591145936e+01   9.3776154745e+00    0.2954153    0.1853737  54.65  0.001558736    2.321    0.569
       503  -8.6978    169.0968    243.2055   6.2510229406e+01   4.4111551790e+00    0.1707224    0.1542114   4.61 0.0005719086    1.386    0.279
       504  -8.0175    139.6909    244.3507   6.8431196358e+01   7.3795732763e+00     0.109643   0.08019011  45.04 0.0007044075    1.714    0.417
       505  -7.9449     67.5101    244.4966   8.4338648398e+01   1.5224011456e+01    0.1228817   0.09499122  29.42 -2.879984e-05    1.020    0.020
