#   1 NUMBER                 Running object number                                     
#   2 MAG_AUTO               Kron-like elliptical aperture magnitude                    [mag]
#   3 X_IMAGE                Object position along x                                    [pixel]
#   4 Y_IMAGE                Object position along y                                    [pixel]
#   5 X_WORLD                Barycenter position along world x axis                     [deg]
#   6 Y_WORLD                Barycenter position along world y axis                     [deg]
#   7 A_WORLD                Profile RMS along major axis (world units)                 [deg]
#   8 B_WORLD                Profile RMS along minor axis (world units)                 [deg]
#   9 THETA_WORLD            Position angle (CCW/world-x)                               [deg]
#  10 FWHM_WORLD             FWHM assuming a gaussian core                              [deg]
#  11 ELONGATION             A_IMAGE/B_IMAGE                                           
#  12 ELLIPTICITY            1 - B_IMAGE/A_IMAGE                                       
         1 -14.0073     68.4359    144.8810   8.7112051116e+01   3.6973865219e+01     4.075488     1.910854  81.00  0.002701542    4.495    0.778
         2 -12.7926    230.6365     28.3437   2.2866535621e+01   2.3456993724e+01    0.8808366    0.8707677  46.80  0.002658546    1.140    0.123
         3 -13.4123    213.4813     42.6590   2.9010084259e+01   2.5958457424e+01     2.464218     1.672002  23.88  0.008999857    2.027    0.507
         4 -11.0746      2.1574     51.8897   8.9883500233e+01   6.3331189950e+01    0.5873014   0.03949651 -63.61  0.001854807    5.508    0.818
         5 -10.8697    249.9426      6.9551   1.5539836193e+01   2.1248245752e+01    0.6575599    0.2312411 -28.37  0.002618636    2.775    0.640
         6 -10.3792      2.1905      3.6942   7.5876906212e+01   7.2268341590e+01    0.3192095    0.1288531 -51.69  0.001845946    1.988    0.497
         7 -12.3631     15.9664    248.8978   1.0499692749e+02   2.3299680680e+01    0.2451929     0.149204  76.04  0.001084403    1.114    0.102
         8 -15.6432     33.4083    184.7048   9.8550371621e+01   3.2803435522e+01      9.97628     3.764111  70.26   0.04219033    3.172    0.685
         9 -10.0073    127.3832    217.2810   8.4701802398e+01   1.3536405654e+01    0.2263443    0.1311037  39.49  0.001252954    1.703    0.413
        10 -11.0981    108.8913    213.8145   8.7622055244e+01   1.7128083691e+01    0.2620552    0.2409661 -69.72  0.001903183    1.399    0.285
        11  -9.6726     31.9000    222.9692   1.0138174249e+02   2.5874852983e+01    0.2757671    0.1484543 -74.81  0.001934065    1.736    0.424
        12  -8.0063    224.0359    207.0165   6.5818173234e+01  -2.1169481062e+00    0.1466908    0.1204658  26.46 0.0003246356    1.013    0.013
        13  -8.8761     87.0227    206.0782   9.0739971445e+01   2.1850457265e+01    0.1804054    0.1359265  72.67 0.0004275157    1.063    0.059
        14 -12.7985     26.3839    197.0569   1.0066969481e+02   3.1166085786e+01    0.5981274    0.3629168  51.35  0.002569677    1.503    0.335
        15  -8.8285    123.9925    202.5117   8.3483105117e+01   1.6643160926e+01    0.1836022    0.1531595 -79.58 0.0005619487    1.264    0.209
        16 -10.1108    193.1971    195.5648   6.9378637234e+01   5.1333477182e+00    0.5221667    0.2770569 -63.33  0.001890228    4.672    0.786
        17 -14.6184      7.9263    211.2890   1.0447061781e+02   3.0397002788e+01      2.35884    0.7747846 -77.83   0.01368268    2.471    0.595
        18  -8.8182     99.3170    181.0526   8.5475659765e+01   2.4773999074e+01    0.2038646    0.1610066  48.07 0.0006110691    1.289    0.224
        19 -10.5367    233.9815    174.4402   5.8034921046e+01   4.2361343300e-01    0.2377751    0.1662481   1.19  0.001173063    1.608    0.378
        20 -11.2992     56.9031    172.5370   9.2972138323e+01   3.2542033972e+01    0.3255229    0.2625969 -35.74  0.002095192    2.032    0.508
        21 -11.2673     62.4838    167.5037   9.1292982229e+01   3.2882434822e+01    0.3058038    0.2565621 -50.05  0.001367742    1.595    0.373
        22  -8.8761    115.3050    173.3421   8.1116625884e+01   2.3666247986e+01    0.1219271     0.107742 -13.46 0.0007041172    1.684    0.406
        23 -12.8712     59.7386    153.9740   9.0258727935e+01   3.6113209905e+01    0.6052901    0.3888296 -73.16  0.001364912    1.349    0.258
        24 -11.6819     83.6832    138.0123   8.2509200901e+01   3.6343739472e+01    0.3476535    0.2408901 -61.37 0.0004375626    1.337    0.252
        25 -11.7586     73.2755    158.3982   8.7900516727e+01   3.3373460957e+01    0.5515242    0.4421062  71.65 0.0006041022    1.114    0.102
        26 -11.9286     80.7718    152.4937   8.5436478166e+01   3.3584626528e+01    0.7215518    0.5153056 -48.63   0.00180313    1.649    0.394
        27 -13.8887     54.2209    233.5628   9.8566795975e+01   2.1444241111e+01     1.327235    0.8279903  86.14  0.005975726    1.352    0.261
        28  -8.9205    110.7828    167.5146   8.1175467379e+01   2.5627657174e+01     0.248055    0.1593364 -81.00 0.0006814232    1.792    0.442
        29 -11.2380     35.2062    159.3151   9.6006117413e+01   3.7783848448e+01    0.6060213    0.2587193  75.61  0.002740418    2.989    0.665
        30  -8.0537    174.6929    149.3264   6.4199363055e+01   1.6759202430e+01    0.1470803    0.1155266  89.10 0.0006164765    1.652    0.395
        31  -9.2814    134.0066    147.0257   7.2527154499e+01   2.5635793609e+01    0.5074492    0.1213398 -52.71  0.001423847    4.685    0.787
        32  -9.7186     96.0164    140.2346   7.9985290318e+01   3.3929937762e+01    0.2975448    0.2404232  60.42 0.0008229995    1.208    0.172
        33  -9.0882     99.0211    136.9789   7.8694937421e+01   3.4157179768e+01    0.3575423    0.2579061 -22.38  0.001677589    2.354    0.575
        34 -10.1989    106.7640    130.4956   7.5606861142e+01   3.4273438265e+01    0.3737425    0.3274681  17.47  0.001444171    1.473    0.321
        35 -10.8398    240.2377    169.6433   5.5978877866e+01  -9.0362810609e-02    0.2196408    0.1815728 -10.04 0.0004587892    1.165    0.142
        36  -8.1762    115.3040    124.2888   7.2249399085e+01   3.4103419063e+01    0.1358194    0.1160036 -12.31 0.0002957926    1.567    0.362
        37 -14.9934      7.3168    245.5023   1.0604252979e+02   2.4711583642e+01      2.02194    0.8860573  33.27  0.008121005    3.871    0.742
        38  -9.0808    105.5264    118.6179   7.3455254790e+01   3.7129403849e+01    0.2128395    0.2077598  68.49 0.0004104656    1.120    0.107
        39  -9.5599    231.3080    114.1065   4.5090891755e+01   1.0294607971e+01    0.2800463    0.2604547 -30.08  0.000782965    1.067    0.063
        40  -9.2370    205.3514    110.6308   4.8926473256e+01   1.6917704760e+01    0.3214453    0.2593094  27.84 0.0009428613    1.339    0.253
        41  -8.3840    169.0174    236.2526   7.9771258569e+01   3.6465026482e+00     0.158415    0.1239554  47.92 0.0003141693    1.023    0.022
        42  -8.4164     71.1900    107.4249   8.0068843743e+01   4.5013510870e+01    0.1760725    0.1179019  55.31 0.0006009092    1.684    0.406
        43  -8.9174    240.6603    102.3213   4.0641797607e+01   1.0081309062e+01    0.1498175    0.1121742 -65.75 0.0001446155    1.718    0.418
        44  -9.0045     64.5811    101.7590   8.0726490631e+01   4.7157675043e+01    0.1835335    0.1129115 -70.30 0.0003657863    1.583    0.368
        45 -10.2610     53.8760     97.6996   8.2897271068e+01   4.9357088617e+01    0.3029233    0.1255717 -60.05  0.001373082    1.998    0.499
        46  -9.8977     53.1053     90.5273   8.1664108153e+01   5.1041140809e+01     0.221659    0.1539466 -46.97  0.001206691    1.344    0.256
        47  -9.6267     44.8748     90.7867   8.4107147607e+01   5.1866221640e+01    0.2644874    0.1601998  67.01  0.001352651    2.320    0.569
        48  -9.0221     72.2807     87.3884   7.5348202443e+01   4.9334874106e+01    0.3324909    0.2036798  72.49  0.001431043    2.856    0.650
        49  -9.7849     57.3211     76.5235   7.7208573991e+01   5.3618127202e+01    0.2484699     0.212582 -57.55 0.0007801464    1.047    0.045
        50 -10.2427     50.6310     72.1569   7.8235617387e+01   5.5316625192e+01    0.4722555    0.2289832  55.24  0.001952869    3.700    0.730
        51 -10.2750    149.3095    229.1474   8.2272019325e+01   7.9877894562e+00    0.2199439    0.1405668  40.32  0.001331679    1.404    0.288
        52 -12.4846    204.6326     48.6046   3.2041773753e+01   2.7419603418e+01     1.212379    0.6067034  43.50  0.003404325    2.287    0.563
        53  -9.9559     70.3532    247.9814   9.7061890702e+01   1.7047140484e+01    0.2226493    0.1374154 -69.00  0.001083215    1.850    0.459
        54 -10.4033     13.4205     60.0280   8.7693962635e+01   6.1042788819e+01    0.2292834    0.1582429 -61.77 0.0004316657    1.112    0.101
        55  -9.8561     25.6021    213.8132   1.0183777301e+02   2.8170664530e+01    0.2544982    0.1779413  51.86  0.001404906    1.439    0.305
        56 -10.8226     11.5929     52.4570   8.6688008577e+01   6.2705886553e+01    0.2651883    0.1777329  45.38  0.001768221    2.030    0.507
        57  -9.0896     23.9864     44.4989   8.0170918077e+01   6.3459237714e+01    0.1419143    0.1136466  14.78 0.0005111975    1.526    0.345
        58  -9.3921     30.4855     53.7831   8.0315893685e+01   6.1086188470e+01    0.1833228    0.1730736 -80.66 0.0004623225    1.287    0.223
        59 -11.6346    222.3112     35.5156   2.5819230365e+01   2.4648102281e+01    0.5664101    0.4021249  36.79  0.001147418    1.692    0.409
        60  -9.1841    198.0787     24.3667   2.5934221108e+01   3.2426346876e+01    0.2817495    0.2089113   1.93  0.001357966    1.705    0.414
        61  -8.2321    189.5101     15.4664   2.4471869349e+01   3.5749380673e+01    0.1448077    0.1347207  83.32 7.753338e-05    1.019    0.018
        62 -10.3202     28.1894    218.7974   1.0171872273e+02   2.7010000229e+01    0.3699902    0.1828248  54.35 0.0009566315    1.577    0.366
