#   1 NUMBER                 Running object number                                     
#   2 MAG_AUTO               Kron-like elliptical aperture magnitude                    [mag]
#   3 X_IMAGE                Object position along x                                    [pixel]
#   4 Y_IMAGE                Object position along y                                    [pixel]
#   5 X_WORLD                Barycenter position along world x axis                     [deg]
#   6 Y_WORLD                Barycenter position along world y axis                     [deg]
#   7 A_WORLD                Profile RMS along major axis (world units)                 [deg]
#   8 B_WORLD                Profile RMS along minor axis (world units)                 [deg]
#   9 THETA_WORLD            Position angle (CCW/world-x)                               [deg]
#  10 FWHM_WORLD             FWHM assuming a gaussian core                              [deg]
#  11 ELONGATION             A_IMAGE/B_IMAGE                                           
#  12 ELLIPTICITY            1 - B_IMAGE/A_IMAGE                                       
         1 -10.0930    223.5340      6.2187   2.8919644546e+02   6.4178730846e+00   0.02296208   0.01461509  79.81  0.001088788    2.253    0.556
         2 -11.3497    233.0698      4.6428   2.8907599839e+02   6.3805569436e+00   0.04208922   0.02671295  64.05  0.003721497    2.073    0.518
         3 -12.7594    219.2939     33.6783   2.8941106159e+02   6.1243855078e+00    0.2096899    0.1052412  74.10   0.01279034    5.367    0.814
         4 -11.5554    232.8637     14.0307   2.8913492492e+02   6.2730163441e+00   0.02570958   0.01729312 -21.47  0.001583472    1.857    0.461
         5 -12.9495    223.2425     19.7363   2.8928121473e+02   6.2629665017e+00     0.142161   0.06334595  45.51   0.01174853    2.507    0.601
         6 -11.6379    196.2171     48.5200   2.8976892585e+02   6.0865859829e+00   0.05467815    0.0269166  58.15  0.001746435    3.176    0.685
         7 -11.9688    177.6317     67.1552   2.9009731385e+02   5.9784363536e+00   0.07597327   0.04320772  86.86  0.005729922    2.897    0.655
         8 -10.8765    216.1717      6.0469   2.8928109866e+02   6.4627522896e+00   0.03759974   0.02008912  74.17  0.002656935    3.783    0.736
         9  -8.8254    171.2101     16.7994   2.8986945427e+02   6.5997625749e+00   0.01378688  0.009222073 -87.05  0.001208776    1.888    0.470
        10  -8.4089    167.6976     11.5887   2.8987904440e+02   6.6805767185e+00   0.01127736  0.007935086  88.16 0.0007578546    1.780    0.438
        11  -8.4747    115.7999     12.4149   2.9048920152e+02   6.9722347389e+00   0.01321358   0.01052763   9.14  0.001487312    1.348    0.258
        12 -10.3350    120.5503      9.1022   2.9041386833e+02   6.9831040414e+00   0.01993809   0.01960188 -16.15  0.001968061    1.013    0.013
        13 -10.5077    174.0036      5.1053   2.8976654975e+02   6.7190609341e+00   0.04181962   0.02364539  84.52  0.003357866    3.034    0.670
        14  -8.5228    205.6300      6.2508   2.8940504804e+02   6.5217788453e+00   0.01048976  0.007796394 -68.94  0.000442773    1.390    0.281
        15  -8.7191    151.0187      5.0124   2.9003391326e+02   6.8537028237e+00   0.00996413  0.009476551  83.08 0.0005197974    1.095    0.087
        16  -9.0717    248.8627      2.0905   2.8887693026e+02   6.3180337313e+00   0.02120777   0.01093607  42.25  0.001932107    2.000    0.500
        17 -10.3828     15.3544     12.3191   2.9166160299e+02   7.5538653172e+00   0.01842486   0.01154531 -76.03  0.001386841    1.844    0.458
        18  -8.2405    201.7010      1.3879   2.8942152301e+02   6.6009891830e+00   0.01147584  0.006065435  31.50 0.0006498228    1.845    0.458
        19  -9.3034      9.9117    153.5020   2.9256901018e+02   5.9453155946e+00   0.01021832  0.008837254 -58.92 0.0005491612    1.142    0.124
        20  -7.8276    177.6214    147.3021   2.9057820766e+02   5.0480347669e+00  0.007198459  0.004842472  58.48 0.0007025649    1.769    0.435
        21  -8.8174     11.5169    147.4984   2.9251450664e+02   6.0058743206e+00  0.006587366  0.006406597 -32.66 -5.269912e-05    1.020    0.020
        22 -10.1637     67.6768    144.3489   2.9184100772e+02   5.7187155636e+00   0.02536056   0.01708024  47.07  0.001813845    1.578    0.366
        23  -8.8270    234.1778    145.2012   2.8990791473e+02   4.7440688264e+00  0.009316419  0.007702395  63.89 0.0008587933    1.338    0.253
        24  -7.6414    192.5156    144.4350   2.9038774399e+02   4.9949131240e+00  0.006625018  0.006319238  59.71 0.0001018723    1.083    0.077
        25  -8.7911    126.8252    143.4593   2.9114653683e+02   5.3870579562e+00   0.01052092  0.008870688 -59.83 0.0002751459    1.173    0.147
        26 -10.0232    241.4821    141.7207   2.8980215246e+02   4.7420172388e+00   0.01380921   0.01032121 -73.09  0.001502741    1.421    0.296
        27  -8.5807    191.8557    133.9893   2.9033280500e+02   5.1200408268e+00  0.009642789  0.009541438 -55.92 0.0004301397    1.013    0.013
        28 -11.3661    244.0304    100.5482   2.8952537216e+02   5.2049546719e+00   0.03817711   0.01530202 -48.55  0.003093562    2.473    0.596
        29 -11.3933    241.0915    108.0639   2.8960467240e+02   5.1348573667e+00   0.03304277    0.0269473  11.44  0.003798967    1.296    0.229
        30 -11.7435    243.6262    122.2493   2.8966038427e+02   4.9555197059e+00   0.04631969   0.01395309 -64.16  0.003176048    3.491    0.714
        31 -11.5758    243.7047    114.8916   2.8961529874e+02   5.0404377955e+00   0.03624847   0.01725426 -57.16  0.003244933    1.993    0.498
        32  -7.9712    160.0000    127.9083   2.9066710325e+02   5.3754831495e+00    0.0110438  0.003741188 -62.73 0.0007788103    2.930    0.659
        33  -8.5941    124.0005    128.3390   2.9108893308e+02   5.5790830540e+00  0.008814286  0.008141766  19.74 0.0004131639    1.092    0.085
        34 -10.2302    237.8218    125.9842   2.8975026166e+02   4.9459288566e+00   0.01534065    0.0122817  30.06  0.001750753    1.249    0.199
        35  -8.6599    201.8425    125.8281   2.9016768445e+02   5.1568114250e+00  0.009284658  0.007728722  64.26 0.0004459028    1.326    0.246
        36  -8.9289    185.1935    125.5606   2.9035978685e+02   5.2565823036e+00  0.009559866  0.006474978   7.66 0.0006686694    1.726    0.421
        37  -7.7573    181.6331    122.7168   2.9038416884e+02   5.3102683731e+00  0.007022047  0.004949693 -22.70 0.0007017226    1.692    0.409
        38  -9.8448    186.0558    118.7680   2.9030901923e+02   5.3304455970e+00   0.01504313  0.009648971 -75.97  0.001482294    1.783    0.439
        39  -8.7815    200.4226    116.2677   2.9012685051e+02   5.2760457282e+00     0.011777  0.007456612  48.92 0.0009047628    1.730    0.422
        40  -9.0977    167.9141    113.5228   2.9048873332e+02   5.4966366987e+00   0.01217628  0.009729321 -81.56  0.000639266    1.371    0.271
        41 -10.0235    185.1473    111.5179   2.9027610437e+02   5.4198936905e+00   0.02380229   0.01172592  39.02  0.001914089    2.019    0.505
        42 -11.1776    187.8272    104.1808   2.9020089425e+02   5.4895087410e+00   0.04283671    0.0112477 -62.01  0.002844367    3.668    0.727
        43  -9.2640    205.0419    110.1988   2.9003669523e+02   5.3196578351e+00   0.01652548  0.009493884  21.72  0.001573847    1.837    0.456
        44 -10.2442    186.7456     93.8350   2.9015139450e+02   5.6158798104e+00   0.01904345    0.0126496 -78.74  0.001654737    1.753    0.429
        45 -10.0930    186.4836     88.3604   2.9012158090e+02   5.6809410418e+00   0.01858988   0.01263724 -88.01  0.001656804    1.846    0.458
        46  -9.2676    150.6094     91.8558   2.9056031796e+02   5.8485963133e+00   0.01737414   0.01108753 -34.86  0.001068271    1.773    0.436
        47  -9.5798    231.9797     79.7125   2.8954028964e+02   5.5167678769e+00   0.01398862  0.009431713  15.47  0.001114261    1.620    0.383
        48 -11.8573    242.2575     84.7601   2.8945112298e+02   5.3984096316e+00   0.05075919   0.02505375 -76.49  0.004103245    2.752    0.637
        49  -8.4912    135.9183     90.9337   2.9072595332e+02   5.9444837528e+00   0.01065447  0.007630442  61.31 0.0007264129    1.644    0.392
        50 -10.6627    239.9024     72.9908   2.8940776502e+02   5.5486157131e+00   0.02315744   0.01132035 -52.18  0.002088983    1.960    0.490
        51  -9.8019    159.7595     83.1369   2.9040142068e+02   5.8967291616e+00   0.01707286    0.0121095 -20.53 0.0008256242    1.693    0.409
        52 -10.1090    163.4983     79.9845   2.9033895142e+02   5.9116198679e+00   0.01549636    0.0138132  78.73  0.001284594    1.214    0.176
        53 -11.0328    146.0042     41.4621   2.9031147791e+02   6.4601576462e+00   0.04901861  0.009773972  41.34   0.00271286    5.418    0.815
        54 -11.4005    163.4774     52.0620   2.9017152452e+02   6.2357561706e+00   0.07668461   0.02973292  55.45  0.004217136    6.120    0.837
        55  -9.8062    144.4015     80.3244   2.9056346905e+02   6.0184720224e+00   0.01577858   0.01172057 -65.99 0.0007016186    1.364    0.267
        56  -7.5099     96.5074     73.5315   2.9108106889e+02   6.3747965730e+00  0.006716694  0.006260054  62.71 0.0001517192    1.123    0.109
        57 -11.0785    159.9013     68.8574   2.9031405552e+02   6.0616391145e+00   0.01746112   0.01110692 -48.47 0.0007300808    1.555    0.357
        58  -9.0708    230.2418    249.0294   2.9057537335e+02   3.5614487075e+00  0.008980074  0.005519095 -61.50  0.000420802    1.604    0.377
        59  -9.7803     75.9711    248.7007   2.9236667026e+02   4.4576926489e+00   0.01266853  0.008850711 -82.41  0.001299234    1.677    0.404
        60  -9.4640     59.5193    248.8206   2.9255879082e+02   4.5511919921e+00   0.01197953   0.01100624 -18.49 0.0005530967    1.122    0.109
        61  -8.5261     97.6604    247.3189   2.9210612998e+02   4.3485551092e+00  0.007080349  0.004933878  61.08 0.0007049536    1.711    0.416
        62  -8.1131    222.3412    243.3150   2.9063295279e+02   3.6735930594e+00  0.007113097  0.004910619 -26.56 0.0007047816    1.706    0.414
        63  -9.1089    187.7677     37.4017   2.8980046666e+02   6.2646493757e+00   0.01403669   0.01275306   6.11  0.001060234    1.134    0.118
        64  -9.5020    207.2406     65.7368   2.8974409517e+02   5.8227931912e+00   0.02175977   0.01205934  59.86  0.001855547    2.543    0.607
        65 -10.1862    208.4806     61.8736   2.8970644751e+02   5.8603910434e+00   0.04054051   0.01972153  64.30   0.00271816    4.288    0.767
        66 -11.6565      3.1081    235.8736   2.9313833448e+02   5.0265979617e+00   0.04290758   0.02055078 -62.36  0.003813258    2.058    0.514
        67  -7.7517    154.2689     67.3767   2.9037078799e+02   6.1115116696e+00   0.00712227  0.004738497 -34.28  0.000699333    1.682    0.406
        68  -8.5379    191.8228     63.8159   2.8991201300e+02   5.9347171472e+00  0.009399498  0.008484989 -29.30  0.000296351    1.133    0.118
        69  -9.3820    144.3385     59.3097   2.9043807844e+02   6.2627468249e+00   0.01336926   0.01115307  75.70 0.0007652988    1.350    0.259
        70 -10.0227    185.9014     58.1038   2.8994663676e+02   6.0353967436e+00   0.01249141   0.01201216 -50.26 0.0003578744    1.028    0.027
        71  -7.4071     72.7331     58.3304   2.9126731316e+02   6.6887772762e+00  0.006700619  0.005041356  68.47 0.0004696599    1.579    0.367
        72  -8.9089    132.0148     52.8079   2.9054269945e+02   6.4096709936e+00   0.01020658  0.008544167 -25.21   0.00047384    1.275    0.215
        73  -7.8926    139.8106     52.5980   2.9045055780e+02   6.3668944639e+00  0.009205584  0.005813579  40.32 0.0004514319    1.600    0.375
        74  -9.4512    247.0596     50.4659   2.8918909927e+02   5.7680931086e+00   0.01171806   0.01004288 -47.58 0.0006016309    1.155    0.134
        75 -11.9693    179.3459     45.8065   2.8994907941e+02   6.2161355726e+00   0.03053378   0.01332674 -49.00  0.001874797    2.254    0.556
        76  -7.9710    250.5251     46.9456   2.8912763180e+02   5.7887053038e+00   0.01020569  0.004590544 -41.47 0.0008093216    2.569    0.611
        77 -10.4094    203.3076     42.0052   2.8964720953e+02   6.1208907010e+00   0.01904295   0.01278458 -23.23  0.001878627    1.838    0.456
        78  -8.7352    171.4552     41.4858   2.9001502741e+02   6.3120979327e+00   0.01512664  0.009024052  64.17  0.001121683    2.350    0.575
        79 -10.2186    131.5326     38.3859   2.9046172018e+02   6.5797984777e+00    0.0212327   0.01012995  53.88  0.001663685    2.921    0.658
        80 -10.1770    121.7614     37.9876   2.9057327700e+02   6.6410723282e+00   0.01795797   0.01450245  68.36  0.002026943    1.407    0.289
        81  -9.0189     72.0000    236.9946   2.9234319116e+02   4.6167004827e+00   0.01116044  0.003739457 -62.88 0.0008052217    2.962    0.662
        82  -8.7372    161.5616     37.8328   2.9010834903e+02   6.4119361138e+00   0.01395001  0.009615126  70.38  0.001391288    1.861    0.463
        83  -9.6004    245.0736     35.4982   2.8912213314e+02   5.9531364932e+00   0.01543922  0.009872688  54.93  0.000870082    1.835    0.455
        84  -7.9849     72.3356     31.6620   2.9111203822e+02   7.0005952688e+00  0.007129504  0.004940072  62.49 0.0004046061    1.751    0.429
        85 -10.1735    142.1076     28.8109   2.9028089131e+02   6.6295122991e+00   0.01086494   0.01013122 -48.62 0.0002281129    1.059    0.056
        86  -9.7475    179.0029     24.2014   2.8982317781e+02   6.4686554800e+00   0.02567304   0.01699544  16.17  0.002626408    1.646    0.393
        87  -7.3896    152.6761     24.2685   2.9013038021e+02   6.6208392831e+00  0.006770146  0.004916014  57.71 0.0001921655    1.569    0.363
        88  -7.7982    193.4442     22.9708   2.8964756695e+02   6.3989377889e+00  0.008850388  0.005656323  79.22 0.0005768287    2.232    0.552
        89  -8.9269     37.3674    227.0753   2.9268724296e+02   4.9317107659e+00    0.0106213  0.009208241  -5.82  0.000493897    1.232    0.189
        90 -12.7730     21.8200    215.6778   2.9280045966e+02   5.1537886870e+00   0.04172734   0.03591179  69.14  0.002494686    1.273    0.214
        91  -8.7681     38.3540     16.3252   2.9141688818e+02   7.3747932925e+00  0.007218063  0.004871238 -26.66 0.0007046773    1.766    0.434
        92 -10.0392    201.4207     60.0313   2.8977754225e+02   5.9228171978e+00   0.04118209   0.01653553  55.94  0.002397621    5.448    0.816
        93 -10.6116     34.5541    215.3056   2.9264996997e+02   5.0847803846e+00   0.02123521  0.009976339 -50.49  0.001870556    2.060    0.515
        94 -13.0377     41.1582    197.3800   2.9246633811e+02   5.2551663590e+00      0.06233   0.04693428 -27.85  0.006810221    1.476    0.322
        95  -9.8290    181.2469    197.3312   2.9083552111e+02   4.4458733820e+00   0.01120023   0.01051607 -71.31  0.000265015    1.079    0.073
        96 -10.5815     61.7817    181.5935   2.9213201906e+02   5.3197831944e+00   0.03090651   0.02079111 -82.52  0.003112338    1.783    0.439
        97 -11.3652     53.9155    184.8926   2.9224332410e+02   5.3268061693e+00   0.02921007   0.02363573  40.05  0.003363145    1.250    0.200
        98  -8.0964    101.0442    175.9315   2.9164092875e+02   5.1588391055e+00  0.008753632  0.008152505  62.00    0.0010633    1.122    0.109
        99  -9.8622     54.1488    175.5334   2.9218479519e+02   5.4342753351e+00   0.01344707   0.01042568  66.56   0.00147257    1.490    0.329
       100  -8.3963    213.5655    167.4015   2.9028058562e+02   4.6060383928e+00     0.017008  0.007043643  51.62  0.001195412    3.537    0.717
