#   1 NUMBER                 Running object number                                     
#   2 MAG_AUTO               Kron-like elliptical aperture magnitude                    [mag]
#   3 X_IMAGE                Object position along x                                    [pixel]
#   4 Y_IMAGE                Object position along y                                    [pixel]
#   5 X_WORLD                Barycenter position along world x axis                     [deg]
#   6 Y_WORLD                Barycenter position along world y axis                     [deg]
#   7 A_WORLD                Profile RMS along major axis (world units)                 [deg]
#   8 B_WORLD                Profile RMS along minor axis (world units)                 [deg]
#   9 THETA_WORLD            Position angle (CCW/world-x)                               [deg]
#  10 FWHM_WORLD             FWHM assuming a gaussian core                              [deg]
#  11 ELONGATION             A_IMAGE/B_IMAGE                                           
#  12 ELLIPTICITY            1 - B_IMAGE/A_IMAGE                                       
         1  -8.8382     40.3913      1.7186   8.4927645813e+01   7.0690511864e+01    0.3004507    0.1868813  31.70  0.001483862    1.759    0.432
         2  -9.2571     39.6187      7.3160   8.8379413032e+01   6.9946128472e+01    0.3603457    0.2574721   6.65  0.002247166    1.502    0.334
         3 -10.3563     39.6261     29.9250   9.8767728996e+01   6.5958231589e+01    0.5467917    0.3219782 -56.92  0.002143725    1.713    0.416
         4 -12.0420     44.1114     21.3267   9.3211513451e+01   6.7020548225e+01     1.231343    0.9512806 -70.56  0.007225708    1.965    0.491
         5 -12.2230    130.1918     16.9833   6.3855269457e+01   5.0950677637e+01     1.643189     1.436306  28.94  0.009062544    1.110    0.099
         6 -12.1311     82.5960      7.3550   7.1742774820e+01   6.2827508407e+01     2.326295     1.266427   1.28  0.009866267    2.553    0.608
         7 -10.7907    120.8838      3.8932   6.0265644506e+01   5.4658228911e+01     0.740038    0.4926896  62.75  0.002715449    1.522    0.343
         8 -11.1770    131.6059      3.4660   5.7976732642e+01   5.2035965477e+01     1.363779     0.389667  62.92  0.004562918    3.171    0.685
         9 -11.6480    109.5489      4.4165   6.2996405460e+01   5.7311754840e+01     1.774628    0.7818729  50.82   0.00753085    2.085    0.520
        10 -13.7629    166.6178     11.3812   5.5247721629e+01   4.2112878622e+01     3.342524     2.127577  68.95   0.01451403    1.562    0.360
        11 -11.5677    155.4996     20.7997   6.0454906420e+01   4.4022123417e+01    0.9259053    0.6126466  72.84  0.003006901    1.638    0.389
        12 -10.5100     71.7443      5.2468   7.4225499717e+01   6.5169417005e+01    0.6532488     0.482843  19.39  0.003070464    1.331    0.249
        13 -10.3167    116.3818     16.0615   6.6575869408e+01   5.4402210816e+01    0.9937454    0.3898059 -36.82   0.00377199    2.520    0.603
        14  -9.1104    111.0964     16.1612   6.7912453089e+01   5.5619671683e+01    0.3427756     0.268291  31.70  0.001230933    1.258    0.205
        15  -9.6565     93.9468     17.7190   7.3287360010e+01   5.9176277768e+01    0.4265868     0.398622 -69.04  0.001943165    1.344    0.256
        16 -10.3973    248.2844     15.4580   4.7479637396e+01   2.0691433717e+01     0.429696    0.2891333 -13.37  0.002166657    1.586    0.370
        17  -9.9574     63.3383     16.0050   8.2801706357e+01   6.5124324478e+01     0.565309    0.4128966  56.73  0.003187385    1.900    0.474
        18  -8.4411     49.2717      6.7936   8.3770131725e+01   6.8692308602e+01    0.2807589    0.2055208  19.87  0.001620406    1.426    0.299
        19  -9.4631     55.7772      7.6354   8.1502103632e+01   6.7580689346e+01      0.48291     0.355166  69.32  0.002610316    2.505    0.601
        20 -10.0819     60.5849      2.6089   7.6861742977e+01   6.7479793090e+01    0.5946419    0.4524039  -1.40  0.003661373    1.192    0.161
        21  -8.9282     52.2743      1.9435   7.9811503036e+01   6.8921055925e+01     0.314867    0.2278796   9.79  0.001919447    1.375    0.273
        22  -8.9149     19.8887     14.1127   1.0141515654e+02   7.0917713377e+01    0.5434611    0.2048048 -36.10  0.002500325    2.582    0.613
        23 -10.1483    250.2566      7.2852   4.5214281836e+01   2.1066760761e+01    0.4613483    0.2358101 -32.26  0.001704222    1.683    0.406
        24 -10.2934    200.4201      7.9131   4.9843841822e+01   3.3447948880e+01    0.4363441     0.231224  64.93  0.001879387    1.814    0.449
        25  -9.2143    229.8971      5.8483   4.6439996911e+01   2.6098695290e+01    0.2047271    0.1887685  30.04 0.0009005787    1.226    0.184
        26  -9.1208     26.5926      3.0990   9.2525407055e+01   7.2171831567e+01     0.315701    0.1839693 -46.32  0.001857935    1.630    0.386
        27  -9.2609    216.6696      1.6655   4.6397061604e+01   2.9826389181e+01     0.305082    0.1525163  53.25  0.001332802    2.074    0.518
        28  -9.0273    222.7512      2.0454   4.5982202060e+01   2.8248317623e+01    0.2646644     0.175924 -16.76  0.001336626    1.573    0.364
        29  -9.2911     17.3827      2.6439   9.7237393337e+01   7.3174077517e+01    0.3551075    0.2579998 -64.67  0.002241454    2.023    0.506
        30  -9.2690     69.1339     61.2233   9.8482928254e+01   5.5780587960e+01    0.3156626    0.2146982 -50.25   0.00168655    1.285    0.222
        31  -8.2910     61.4891     63.0000   1.0160024126e+02   5.6472422282e+01    0.2647298   0.07769948  35.60  0.000938845    3.968    0.748
        32  -9.2528     13.3369     62.0673   1.1840943769e+02   6.1429109148e+01    0.3394284    0.1804063  21.09  0.001960967    2.451    0.592
        33  -8.6561     33.3978     69.0423   1.1281289590e+02   5.8297994581e+01    0.2538991    0.1781448 -12.18  0.001476389    2.023    0.506
        34  -8.5654     93.0337     56.9801   8.9389961673e+01   5.2696941710e+01    0.3471808     0.194455  57.24  0.001469673    2.397    0.583
        35  -9.1907    198.9521     55.2414   6.4649250521e+01   2.8058756381e+01    0.2963371    0.2397203  35.81 0.0005425023    1.315    0.240
        36  -9.1576     66.1437     53.4409   9.7013065334e+01   5.7843093895e+01    0.4928415    0.1793046 -53.53  0.001864295    2.706    0.630
        37  -8.2630     23.1974     52.3007   1.1260900737e+02   6.2871627429e+01    0.2195223    0.1285538 -54.20 0.0008863385    1.326    0.246
        38 -10.2055     84.2638     47.8837   8.8929808953e+01   5.6041270039e+01    0.7412079    0.5545198  65.02  0.003832077    1.817    0.450
        39  -8.3586    111.0996     46.1733   8.0190725017e+01   5.1101455033e+01    0.2369332     0.197171   4.25  0.001235591    1.317    0.241
        40  -8.9379     97.8478     43.2694   8.2921183222e+01   5.4347878274e+01    0.3626502    0.1826821 -23.40  0.001359938    2.664    0.625
        41 -10.3736      3.7720     40.2414   1.1752838636e+02   6.6745371322e+01    0.5093272     0.403679 -53.19  0.002571512    1.112    0.101
        42  -9.2891     12.0377     33.7972   1.1226546078e+02   6.7619971171e+01    0.4323502    0.2521766 -47.36  0.001782031    1.347    0.258
        43  -9.6144    183.2699    246.4461   1.0710110473e+02   3.1725071743e+00    0.2145725   0.07711548  39.73 0.0009081458    2.104    0.525
        44  -9.3849    169.5015    241.9147   1.0875163249e+02   5.7223981249e+00    0.1280082    0.1088479 -40.09  0.001029303    1.580    0.367
        45 -10.4423     50.9951     35.6377   9.6294892981e+01   6.3480829895e+01    0.7297458    0.4662989 -63.82  0.003754473    2.009    0.502
        46  -9.3468    160.2127    240.4100   1.1007088094e+02   7.2888022814e+00    0.1625919   0.07789686  48.98 0.0008394748    1.685    0.407
        47  -9.6165    206.0125    224.4646   1.0064285446e+02   2.0920496796e+00    0.2376449    0.1156262 -19.88  0.001199392    3.331    0.700
        48  -9.5638     81.9920     37.9624   8.5864738163e+01   5.8279550302e+01    0.4219002    0.3408614 -23.76  0.002391946    1.155    0.134
        49  -8.9947     40.4893     37.4052   1.0120111579e+02   6.4387322499e+01     0.348266    0.1845565  35.14  0.001836735    2.255    0.557
        50  -8.7494     66.7206     35.4662   9.0208154110e+01   6.1279166114e+01    0.2534135    0.1337175  40.47   0.00103089    2.147    0.534
        51  -9.5322     66.5336     29.5487   8.7813162488e+01   6.2373820323e+01    0.4858411    0.2603922 -29.39  0.002242595    1.881    0.468
        52  -8.5400     27.6340     35.2571   1.0587454986e+02   6.6109371565e+01    0.2215784    0.1631624  -7.47  0.001409288    1.633    0.388
        53  -9.4106     86.2944     31.3380   8.1710732534e+01   5.8632615392e+01     0.302339    0.2497654 -30.92  0.001494671    1.109    0.098
        54  -8.5237     90.1025     28.3092   7.9196740508e+01   5.8390711287e+01    0.3061494    0.2009587 -31.09  0.001544046    1.401    0.286
        55 -10.2897    224.8850     28.7074   5.3342193986e+01   2.4903139424e+01    0.4813234     0.447017  28.89  0.001516669    1.171    0.146
        56  -8.7342    246.7347    206.2426   9.1404040029e+01  -2.3257227575e+00    0.1862756   0.06730461  34.72 0.0008884682    2.402    0.584
        57  -9.8746    124.0006    205.9868   1.1230033209e+02   1.7629040409e+01    0.1653155    0.1336375  55.21            0    1.005    0.005
        58  -8.3077    238.4848    202.4803   9.2063772782e+01  -6.6458421491e-01    0.1810996    0.1018002 -39.21  0.001037402    2.345    0.574
        59 -12.6441    240.8496    132.8952   7.8139062901e+01   7.2575264210e+00     1.565024     1.087915  40.74  0.005494974    1.418    0.295
        60  -8.4948     40.9699    142.5218   1.2192601841e+02   4.1093187568e+01    0.1408752    0.1040261 -14.39  0.000810123    2.565    0.610
        61 -11.1607     11.3876    140.4890   1.2837273484e+02   4.4279007248e+01    0.5390078    0.2186809 -70.34  0.003005906    1.981    0.495
        62  -8.4633    125.8402     28.9478   6.9678527633e+01   5.0462269950e+01    0.3207407    0.1904146 -22.49  0.001408301    1.709    0.415
        63  -9.7397     11.1966    127.8625   1.2741673497e+02   4.6973665792e+01    0.2717121     0.109927 -69.68  0.001475077    1.936    0.483
        64 -10.2755     12.3901    118.5768   1.2630191579e+02   4.8894540419e+01    0.3900776    0.1683928 -87.98  0.002008333    2.094    0.522
        65  -8.7678     97.1260     28.5855   7.7168515352e+01   5.6935571319e+01    0.5942969    0.2279852 -22.99   0.00187138    3.804    0.737
        66  -9.3595    104.7892     25.5434   7.3662459735e+01   5.5767727014e+01    0.4668856    0.3815423  37.77  0.002560899    1.235    0.190
        67  -8.8617     10.2260     24.9791   1.1037573883e+02   6.9545601830e+01    0.3325066    0.1125244 -49.86  0.001643432    2.058    0.514
        68  -9.5085     17.1032    104.1975   1.2356022865e+02   5.1715435915e+01    0.3304272     0.214886 -77.07  0.002128279    1.193    0.162
        69  -8.7933     69.0097    104.2234   1.0918083696e+02   4.6243358219e+01    0.3466521    0.1479595 -47.02  0.001443367    2.497    0.600
        70  -8.9182     20.7280     22.5948   1.0448243577e+02   6.9236770458e+01    0.3362807    0.1645953  28.81  0.001863908    2.485    0.598
        71  -9.2334     29.2305    102.6590   1.2002527956e+02   5.1057729523e+01    0.3247275    0.1850404 -39.57  0.001730033    2.347    0.574
        72  -9.6575     47.1454     99.4979   1.1446426610e+02   5.0001354446e+01    0.4088308     0.146718 -62.11  0.001773098    2.262    0.558
        73  -8.9467     58.5635     99.8019   1.1125775928e+02   4.8602712466e+01    0.2669614    0.1046728 -58.06  0.001153863    2.142    0.533
        74 -11.8541     42.8991     82.2834   1.1249264279e+02   5.4376838296e+01     1.029347    0.9033834 -63.64  0.005952569    1.088    0.081
        75  -8.9650      2.1998     88.6182   1.2595014977e+02   5.6189945677e+01    0.2583113    0.1605932 -76.49  0.001694821    1.197    0.164
        76  -8.5728      9.8364     80.3481   1.2259417880e+02   5.7571358150e+01        0.222    0.1744111 -84.13  0.000760538    1.104    0.094
        77 -11.3533     14.0248     72.3377   1.2000846858e+02   5.9092783722e+01    0.8991687    0.7250002  87.05  0.006362979    1.232    0.188
        78 -10.2803      3.6486     76.0081   1.2394423830e+02   5.8910960749e+01    0.4830834    0.3470877 -85.86  0.002317364    1.178    0.151
        79  -8.1779     12.6366     14.5392   1.0533176469e+02   7.1424463415e+01     0.181759   0.09448182  38.74  0.001018981    2.681    0.627
        80 -10.2299     24.6065     65.5069   1.1510439429e+02   5.9844825093e+01    0.6861398    0.2408143 -61.03  0.002794686    2.101    0.524
        81  -9.3505    227.9078     79.0910   6.6950692657e+01   1.7554136403e+01    0.4540251    0.2947335   8.69  0.001987134    2.042    0.510
        82  -7.5013     71.3200     80.3190   1.0314197900e+02   5.1306673500e+01    0.1365147   0.09991936 -28.93  0.000573859    1.664    0.399
        83  -8.6916    139.1331     77.9802   8.3648613432e+01   3.9029553442e+01    0.3303248    0.2708048  -3.72  0.001344409    1.453    0.312
        84  -9.7265     74.7558     68.4135   9.8804060758e+01   5.3406461638e+01    0.4832782    0.4005844  -7.17  0.002746973    1.487    0.327
        85  -9.2551     47.5745     61.9213   1.0612208378e+02   5.8427576024e+01    0.4048242    0.3031572 -42.11  0.002441194    1.251    0.201
