#   1 NUMBER                 Running object number                                     
#   2 MAG_AUTO               Kron-like elliptical aperture magnitude                    [mag]
#   3 X_IMAGE                Object position along x                                    [pixel]
#   4 Y_IMAGE                Object position along y                                    [pixel]
#   5 X_WORLD                Barycenter position along world x axis                     [deg]
#   6 Y_WORLD                Barycenter position along world y axis                     [deg]
#   7 A_WORLD                Profile RMS along major axis (world units)                 [deg]
#   8 B_WORLD                Profile RMS along minor axis (world units)                 [deg]
#   9 THETA_WORLD            Position angle (CCW/world-x)                               [deg]
#  10 FWHM_WORLD             FWHM assuming a gaussian core                              [deg]
#  11 ELONGATION             A_IMAGE/B_IMAGE                                           
#  12 ELLIPTICITY            1 - B_IMAGE/A_IMAGE                                       
         1 -11.4322     78.6218     45.1146   5.8127142266e+01   5.8378078627e+01    0.8660192    0.6039001  -8.92  0.002474099    1.887    0.470
         2 -11.1501     86.8488     34.9237   5.1323249272e+01   5.8276908255e+01     1.239625    0.5901795 -30.89  0.005315561    2.299    0.565
         3 -11.8534     71.8023     27.7837   5.3377055619e+01   6.2430191433e+01     1.003078    0.7810923  19.87  0.005746557    1.327    0.246
         4 -10.4731     69.0108     11.5808   4.6880862454e+01   6.5037017504e+01    0.4192838    0.1968771  52.21  0.001004101    1.907    0.476
         5 -11.1086     18.3079     28.1564   7.9190367661e+01   7.0609499412e+01    0.4894189    0.3353198 -59.26  0.001774436    1.712    0.416
         6 -10.9332    131.6190     22.1497   3.5784773174e+01   4.9427321227e+01    0.6115284    0.3344063 -31.72  0.002786923    1.939    0.484
         7 -11.1538     61.7082     22.0720   5.4581428620e+01   6.5190127444e+01    0.5126662    0.4194527 -75.39  0.002942415    1.852    0.460
         8 -10.0821     31.5950     26.1451   7.0691232163e+01   6.9440638558e+01    0.5641773    0.2995687 -49.42  0.002871859    2.060    0.514
         9 -10.9531     40.7349     21.3424   6.3597510637e+01   6.8912180112e+01    0.5821985     0.446629  78.97  0.002827162    2.639    0.621
        10 -10.3676     35.6395     18.1087   6.4599733230e+01   7.0166645926e+01    0.3311824    0.2285002  12.58 0.0006881438    1.475    0.322
        11 -10.9321     50.4132     22.1664   5.9397462172e+01   6.7216087305e+01    0.3795737    0.2711523  -3.68 0.0009753313    1.542    0.352
        12 -12.1580    105.0263     21.1548   4.0855899543e+01   5.5959741046e+01    0.3344101    0.2857959 -11.21 0.0004763287    1.315    0.239
        13 -10.7175    151.8739     18.1303   3.1318972490e+01   4.4898241015e+01    0.2706312    0.2501627 -61.99  0.000269815    1.119    0.107
        14 -10.3775     63.4360     15.9811   5.1003411615e+01   6.5645751673e+01    0.6903734    0.3216352  55.71  0.003053077    2.285    0.562
        15 -10.7236    226.0012     16.2877   2.3454796118e+01   2.8098110368e+01    0.4490677     0.275528  44.51  0.001357712    2.540    0.606
        16  -9.8816    143.7831     16.5992   3.1997726650e+01   4.7049975220e+01    0.3754911    0.3107145  86.23  0.002242159    1.099    0.090
        17 -10.2555    166.6568     17.8843   2.9345252019e+01   4.1327367865e+01    0.3582119     0.206626  50.20  0.001389294    1.928    0.481
        18 -10.1231     72.4930     15.4584   4.7546112562e+01   6.3876051549e+01    0.2887353    0.2328088 -58.07 0.0005611427    1.606    0.377
        19 -11.1022    182.3831     18.2503   2.7689439230e+01   3.7540965040e+01     0.268729    0.2478662  85.85 0.0004062126    1.161    0.138
        20  -9.2720    184.2597     13.0405   2.6139593249e+01   3.7673140006e+01    0.2441962    0.1846161  66.19 0.0007383843    1.343    0.255
        21 -10.6225    174.7186     13.3361   2.7178373471e+01   3.9888422389e+01    0.5776585    0.4658799  27.65  0.003443491    1.700    0.412
        22 -11.4319    116.2510     15.1875   3.6189400572e+01   5.3934737913e+01    0.3821433    0.2756235  87.14 0.0003450527    1.481    0.325
        23  -7.8339     15.5853      8.1393   7.1184167090e+01   7.4285012086e+01    0.3935348    0.1581722  34.57   0.00195442    2.518    0.603
        24 -10.3462     14.2138      2.9854   6.9117995334e+01   7.5204492313e+01    0.4459965    0.2453625  30.16  0.002649635    1.755    0.430
        25 -10.9762      6.4987      9.1645   7.8064395055e+01   7.5040092752e+01     0.593946    0.3758148  21.69  0.002324086    1.571    0.364
        26 -11.0649      5.9544     16.2696   8.1915541737e+01   7.3867343478e+01    0.3980491    0.2717671   8.59   0.00259471    1.424    0.298
        27 -10.1650     24.4065      6.7138   6.4750343201e+01   7.3396095505e+01     0.202188    0.1609068  41.72 0.0006532262    1.545    0.353
        28 -10.6079     21.0378      5.7065   6.6242651265e+01   7.3981668029e+01    0.2589153    0.1767767  16.34 0.0008052347    1.352    0.260
        29  -9.8370    244.1008     13.8296   2.1749031794e+01   2.4754065646e+01    0.2980076    0.1820216  48.69   0.00170767    2.511    0.602
        30  -9.8460    124.9180     11.8260   3.3397135475e+01   5.2170326375e+01    0.4038321     0.193402  61.41  0.001539586    1.799    0.444
        31  -8.7246    127.3287     14.3131   3.3852062746e+01   5.1329943985e+01    0.2286036    0.1397115 -31.65 0.0002932699    1.758    0.431
        32 -11.4948    132.8621     12.5752   3.2349855643e+01   5.0150715597e+01    0.3118035    0.2610366 -40.36 0.0003774572    1.284    0.221
        33 -10.8052    207.8090      3.6389   2.1903201008e+01   3.3332796429e+01    0.4693421    0.2227918 -61.10   0.00242348    1.900    0.474
        34  -9.3003    210.4208     13.4895   2.3986334625e+01   3.1718750479e+01    0.2176515    0.1498101 -51.42 0.0006971048    1.242    0.195
        35  -9.7481    211.4214      9.7842   2.3057400088e+01   3.1904689897e+01    0.2918872    0.1867115 -40.63  0.001039336    1.443    0.307
        36 -10.2338     31.3190     12.1337   6.3792693939e+01   7.1669241897e+01    0.3878635    0.2963406  20.35  0.002187618    1.184    0.156
        37  -9.3366    219.5996     11.2651   2.2803555823e+01   2.9995222466e+01    0.4057346    0.1695546 -54.65  0.002007329    2.055    0.513
        38  -8.8755    198.8055     10.1308   2.4117947167e+01   3.4651856671e+01    0.1923355    0.1591539  78.33 0.0009917774    1.225    0.184
        39 -10.4940    106.6191      7.2459   3.5086650148e+01   5.7026107196e+01    0.4827895       0.2099  66.47  0.001823868    2.077    0.519
        40 -10.1463    106.5702      3.2095   3.3519464665e+01   5.7396447563e+01    0.4094198    0.2269208  36.72  0.002004866    2.024    0.506
        41  -9.5844     96.8940     12.8751   3.9480968015e+01   5.8764589176e+01    0.2275385    0.1913869  33.25 0.0003723548    1.194    0.163
        42 -10.8308    101.3739     11.0989   3.7722587982e+01   5.7898550098e+01    0.3450039    0.2624288  76.29 0.0004334747    1.325    0.245
        43 -10.0315    195.2068      3.6236   2.2823446861e+01   3.6132826733e+01    0.3266602    0.1914419  88.84  0.001044811    1.547    0.354
        44  -9.7403    199.3230      2.3644   2.2210034771e+01   3.5334070724e+01    0.3954819     0.123128  56.64  0.001576198    3.652    0.726
        45  -9.3297    191.5886     11.3309   2.5027519820e+01   3.6161658618e+01    0.3061579     0.209273 -33.54   0.00111007    1.530    0.346
        46  -9.6062    190.7950      7.0988   2.4037064096e+01   3.6784860644e+01     0.242518    0.1979149 -79.82 0.0004995185    1.033    0.032
        47  -9.5880     91.3612      8.9435   3.9180989618e+01   6.0431429541e+01    0.4542256    0.1840359  51.24   0.00161669    2.093    0.522
        48  -8.3760     87.6057      6.4853   3.9056190876e+01   6.1519938897e+01    0.1948908    0.1792183  49.51 0.0007111181    1.045    0.043
        49  -9.7041     54.6038      8.8320   5.0845000300e+01   6.8190306036e+01    0.2422817    0.2323882  85.91 0.0007384039    1.366    0.268
        50  -9.5293    150.4566      8.4583   2.8555844298e+01   4.6243230778e+01    0.4512246    0.3209774 -33.50  0.002302482    1.510    0.338
        51 -11.9509    156.0601      3.5609   2.6427885875e+01   4.5343155096e+01    0.2943413     0.217582  65.64 0.0004088129    1.269    0.212
        52 -12.1405    159.9901      1.7855   2.5489446283e+01   4.4556303818e+01     0.449296    0.3247674 -78.59  0.001416207    1.259    0.206
        53 -10.1838    123.7278      6.2698   3.1639668068e+01   5.2988503857e+01    0.4621248    0.2950945  39.43  0.002104523    1.741    0.426
        54  -9.0931    126.8548      1.4500   2.9473994988e+01   5.2648662118e+01     0.252215    0.1351438  65.26 0.0003929252    1.590    0.371
        55  -8.8476     44.2976      9.1529   5.5511011963e+01   7.0010493754e+01    0.2120128    0.1163655  12.24 0.0009129384    2.742    0.635
        56 -11.1421     74.2752      3.1626   4.1160540044e+01   6.4774474156e+01    0.5039759    0.4424728  -4.99  0.003334807    1.218    0.179
        57 -10.0443     79.3483      4.3658   4.0284155788e+01   6.3559367112e+01    0.2149867    0.1835622 -28.49 0.0004492541    1.312    0.238
        58  -8.8815     48.3605      7.9894   5.3032893959e+01   6.9436548374e+01    0.1691871    0.1438836  -5.54 0.0007735591    1.143    0.125
        59 -10.0271    170.8946      6.4137   2.5680979471e+01   4.1505790319e+01    0.2752568    0.2031177  63.65 0.0006615177    1.350    0.259
        60  -8.4480    117.4906      7.5662   3.3161019305e+01   5.4384889866e+01    0.1318456    0.1148789  65.56 0.0001445742    1.027    0.026
        61  -9.2244     46.3327      4.2842   5.1884532966e+01   7.0222249900e+01    0.1874111    0.1465896  17.74 0.0004720185    1.151    0.131
        62 -10.3613     38.0128      4.6567   5.6025391566e+01   7.1612818275e+01     0.277031    0.2405003  34.97 0.0008770627    1.236    0.191
        63  -9.9800     42.8922      1.4295   5.1806505434e+01   7.1145197412e+01    0.3645594    0.1434729  51.62 0.0008343138    2.578    0.612
        64 -11.8991    218.6052      3.1230   2.1070009907e+01   3.1068652251e+01    0.3157716    0.2152836 -83.49 0.0003916011    1.270    0.213
        65  -9.2182     98.7368      5.4490   3.6009871484e+01   5.9050455726e+01     0.258799    0.1914882  24.52  0.001085289    1.511    0.338
        66 -10.5420    239.5298      3.3811   1.9896355982e+01   2.6779700343e+01    0.3683073    0.1787687  74.89  0.001719387    2.045    0.511
        67 -10.2000    115.6277      2.1984   3.1508309197e+01   5.5309748970e+01    0.2530838    0.1921063  33.78 0.0003661895    1.453    0.312
        68  -9.8064     30.7843      2.7335   5.8693829799e+01   7.2995300411e+01    0.2488881    0.1700314 -42.48  0.001094802    1.836    0.455
        69  -9.8052    179.4935      2.0652   2.3715821800e+01   3.9897268087e+01    0.3275945    0.1768334  79.51  0.001413108    1.658    0.397
        70  -9.1530    143.0651      2.8297   2.7734008004e+01   4.8571582838e+01    0.2034963    0.1934509  32.49 0.0009734204    1.251    0.201
        71  -9.9847    135.6413      2.2267   2.8502454932e+01   5.0438035797e+01     0.359464    0.2332971  87.47  0.001950449    1.473    0.321
        72 -10.5910     91.9268      2.5226   3.6297412336e+01   6.0887910225e+01    0.4328953    0.2299149  75.83  0.001913525    2.108    0.526
        73 -10.8168    249.8825      1.5802   1.9003890143e+01   2.4976430772e+01     0.175795    0.1191843 -78.73 0.0003556871    1.267    0.211
        74  -9.3754    232.8833      2.3312   2.0048487527e+01   2.8209360656e+01    0.1882953    0.1085452 -70.43 0.0006394546    1.465    0.318
        75  -8.6951     55.0910      2.3131   4.7174619949e+01   6.8793243683e+01     0.170041    0.1059826  60.37 0.0009268201    1.766    0.434
        76  -8.0694     51.2804      2.3477   4.8700763180e+01   6.9518129194e+01    0.1273189   0.08172967  19.49 0.0005814521    1.642    0.391
        77  -9.2933      5.3345      1.8329   7.4862155966e+01   7.6313519595e+01    0.2449828    0.1272518   3.57 0.0009955198    2.276    0.561
        78  -9.1629     22.6787      1.3774   6.2601117481e+01   7.4346661642e+01    0.2080508    0.1005948  42.06  0.001099146    2.183    0.542
        79  -8.2741    140.6890    111.6806   6.0823102797e+01   3.1904743117e+01    0.1536237    0.1237126  -2.24 0.0003117137    1.645    0.392
        80 -10.1083    201.2978    249.6052   7.4154372498e+01  -3.7458398019e+00    0.2128745    0.1663187   4.02 0.0007040254    1.048    0.046
        81 -11.0730     31.6896    106.1539   9.4056355644e+01   5.1671869856e+01    0.5430892     0.308832 -31.91  0.002435901    2.200    0.546
        82  -9.4490      4.8668    110.9719   1.0443543374e+02   5.2521416075e+01    0.2451249    0.1626511 -49.58 0.0008399203    1.460    0.315
        83 -10.3828     21.2571    109.3355   9.8382178733e+01   5.1789666282e+01    0.3223003    0.3063633 -29.06  0.001938833    1.174    0.148
        84  -9.2614     91.5058    107.4185   7.3479205346e+01   4.2854651725e+01    0.4048017    0.2338683 -37.71  0.001022183    2.010    0.502
        85  -8.6356    116.5124    107.5268   6.6061917122e+01   3.7935204345e+01    0.1526583    0.1504665 -62.42 0.0008098372    1.023    0.023
        86 -11.0134     57.3757     99.4782   8.3188552692e+01   5.0330785456e+01    0.6720528    0.2965955 -38.17  0.002352481    3.027    0.670
        87  -8.0866     47.6257    105.7382   8.8129317251e+01   5.0033349480e+01    0.1449765    0.1048081 -25.83 0.0006980728    1.662    0.398
        88  -9.2643    142.1491    103.6553   5.8395105210e+01   3.3283961678e+01    0.2521371    0.2039429 -58.30 0.0006039801    1.260    0.206
        89  -9.3346     41.0834    103.6785   9.0117918239e+01   5.1320064489e+01    0.2431894    0.1845067 -82.28 0.0007288224    1.365    0.267
        90  -8.3820    161.5096    103.5352   5.4001487411e+01   2.9036325961e+01    0.1495167    0.1426223 -61.95 2.789818e-05    1.007    0.007
        91  -9.1480    100.6761    103.0016   6.9489373916e+01   4.2157490457e+01    0.2207227    0.1972651 -53.94 0.0006212961    1.100    0.091
        92 -10.2343     70.9263    102.3236   7.9035067098e+01   4.7614283690e+01    0.3390308    0.2430333 -53.05  0.001042294    1.330    0.248
        93  -9.6469     65.0019    102.7697   8.1220079324e+01   4.8417086306e+01    0.3822595    0.2340466  11.03 0.0008289601    2.406    0.584
        94  -9.5125     86.0043    101.5317   7.3740622234e+01   4.5255196457e+01    0.3943149    0.2481135  54.89  0.001533042    1.849    0.459
        95 -11.4018    117.6656     98.0460   6.3199061595e+01   3.9800166309e+01    0.2816731     0.277725   9.95  0.000337413    1.068    0.064
        96  -9.6499    105.8193     99.3772   6.6967604075e+01   4.1963591847e+01     0.419157    0.2621697 -22.07  0.001575551    2.591    0.614
        97  -9.7946     50.2969     99.9771   8.5915217002e+01   5.1149068836e+01    0.2651683    0.2250045 -24.12 0.0008014281    1.292    0.226
        98  -9.9771     45.0039     99.7743   8.7850003926e+01   5.1851447589e+01    0.3475763    0.2149119  27.84  0.001259744    1.746    0.427
        99  -9.3527     16.4710     98.6797   9.8539877443e+01   5.4862581730e+01    0.3400138    0.1629235 -55.02  0.001589386    1.781    0.438
       100  -9.1209    100.6080     98.1877   6.8214442810e+01   4.3275652786e+01    0.2216462     0.140587 -39.66 0.0009474256    1.665    0.399
       101  -8.7174      5.2590     98.2567   1.0275633331e+02   5.5695945299e+01    0.3192584    0.1044886  27.44  0.001318522    3.125    0.680
       102 -10.2105    125.1787     96.8817   6.0842007544e+01   3.8434585852e+01    0.3645056    0.2590375  67.45  0.001622406    1.689    0.408
       103  -9.4744    141.1732     96.0696   5.6599909097e+01   3.5064413427e+01     0.237591    0.2123444  -2.46  0.001218837    1.324    0.245
       104 -10.5616    133.9535     93.1717   5.7560797163e+01   3.7272996690e+01    0.5264941    0.3942823 -57.08  0.001544236    1.389    0.280
       105  -9.2946     90.4726     94.6821   7.0444270612e+01   4.6035128140e+01    0.2559602    0.1787108  42.54  0.001187932    1.457    0.314
       106  -9.8814     81.4686     95.2757   7.3593718697e+01   4.7539437284e+01    0.4300458    0.2418246  51.11  0.001765703    2.038    0.509
       107  -9.6412     42.0629     95.3497   8.8014403508e+01   5.3299454231e+01    0.2562408    0.1879977 -69.15 0.0004950102    1.322    0.244
       108 -10.3636     17.3910     91.2380   9.6952969820e+01   5.6655999763e+01    0.4507124    0.2309229 -10.31  0.000613448    2.838    0.648
       109  -9.0007     13.9726     88.3505   9.7839385534e+01   5.7615749999e+01    0.3110777    0.1523749 -47.85  0.001054843    1.843    0.457
       110  -9.2689     19.4477     81.6308   9.4307696854e+01   5.8861122037e+01    0.6650814    0.3617118  31.07  0.003314323    2.000    0.500
       111 -10.8228     32.1125     92.9497   9.1398686199e+01   5.4958398128e+01    0.4669901    0.3077234 -50.28  0.002204356    1.380    0.276
       112 -10.2081     23.7829     93.3166   9.4773291592e+01   5.5630153831e+01    0.4241279    0.2296698 -89.43  0.001830778    2.378    0.579
       113 -10.8190     25.9206     87.3019   9.2745756668e+01   5.6935096399e+01    0.4831635    0.3725786 -38.43   0.00122209    1.274    0.215
       114 -10.3241     47.9373     92.7646   8.5159972565e+01   5.3232708469e+01    0.4043852    0.3036191  37.31  0.001958402    1.418    0.295
       115  -8.8093     52.7799     90.9843   8.2865537534e+01   5.3039425227e+01    0.2385241    0.1634918  82.80  0.001072779    2.076    0.518
       116  -9.0490      3.1363     79.8547   1.0096091416e+02   6.0340033821e+01    0.4745691    0.1247952 -49.25  0.001472099    2.991    0.666
       117  -9.6137      2.1922     92.2382   1.0314549811e+02   5.7357222895e+01    0.4217778    0.2162601  71.37  0.001911259    2.455    0.593
       118 -10.0665      2.4627     85.7644   1.0213909923e+02   5.8936163159e+01    0.3388995    0.1799496 -60.43 0.0009971176    1.526    0.345
       119 -10.0930    109.3543     90.7097   6.3498225631e+01   4.3150669950e+01    0.5940365    0.2946704  32.02  0.002023055    2.773    0.639
       120  -8.7782     71.1460     91.1555   7.6079012728e+01   5.0263390810e+01    0.1999152    0.1730083  88.46 0.0005446301    1.319    0.242
       121 -10.7720     60.6390     90.2012   7.9681959611e+01   5.2122902666e+01    0.5711797    0.3350583  71.71  0.002042077    3.408    0.707
       122  -9.6065     86.4405     88.7576   7.0103008602e+01   4.8140539742e+01    0.3383501    0.2938648 -29.80  0.001773114    1.210    0.173
       123  -9.1927     97.6050     88.6026   6.6441724454e+01   4.6019562400e+01    0.3345861    0.2311019  86.53 0.0008538035    2.347    0.574
       124 -11.4996     65.0839     85.6513   7.6790035522e+01   5.2523211414e+01    0.8114338    0.6834517  -8.13  0.004074369    1.344    0.256
       125 -10.6160     81.0495     82.9928   7.0255996917e+01   5.0426216158e+01    0.3901482    0.2836385 -28.84 0.0004894962    1.572    0.364
       126 -10.1183     77.2076     83.3835   7.1719646653e+01   5.1026261285e+01    0.3279704    0.3214009  89.36 0.0008023637    1.067    0.063
       127  -9.7283     44.0582     88.3743   8.5637521874e+01   5.4781023628e+01    0.2486911    0.1741221 -49.28 0.0006517312    1.316    0.240
       128 -10.5148    131.0131     84.1971   5.5743829316e+01   3.9745827671e+01    0.5207123    0.3469917  20.04  0.002085286    2.415    0.586
       129 -10.8249    124.1244     85.7586   5.7964488811e+01   4.0983970290e+01    0.4772955    0.3499238  51.73  0.001493761    1.371    0.270
       130 -11.1127    120.3184     84.7328   5.8677797566e+01   4.2038737207e+01    0.4549463    0.3867649  86.50  0.002299318    1.330    0.248
       131  -9.8208    110.5242     85.4859   6.1634416411e+01   4.4015661626e+01    0.3134096    0.2181419  51.18  0.001444144    1.461    0.316
       132  -9.9834    155.2651     85.0478   5.0422686789e+01   3.4008657290e+01     0.279062    0.2545338  49.60  0.000239801    1.152    0.132
       133 -11.0008    155.1410     79.4529   4.8900582645e+01   3.5070037002e+01    0.4956441     0.349433  40.63  0.001335995    1.609    0.379
       134  -9.7495    150.6893     80.0079   4.9990005947e+01   3.6006043553e+01    0.3269282    0.2755951  85.30  0.001309921    1.265    0.210
       135  -9.8677    143.1667     83.3443   5.2595588366e+01   3.7125185842e+01    0.4243776    0.2126758 -40.43  0.001030615    1.984    0.496
       136  -9.1348    138.3088     84.3334   5.4007534472e+01   3.8052811767e+01    0.3077589    0.2363214  12.28  0.001405107    1.846    0.458
       137 -10.6191     51.5773     82.2774   8.1090282955e+01   5.5283459706e+01    0.3272328    0.2888501 -28.85 0.0008237697    1.131    0.116
       138 -10.7550     38.9480     81.5601   8.6055653448e+01   5.7019103265e+01    0.3121501    0.2576739 -52.11 0.0003970492    1.102    0.092
       139  -9.0854     44.5512     79.6954   8.3256015928e+01   5.6799897327e+01    0.2841317    0.2389947  -5.04  0.001605814    1.294    0.227
       140 -10.7052     73.1733     79.9953   7.2164296966e+01   5.2487487234e+01    0.6523961    0.3486132 -43.77  0.002426557    1.854    0.461
       141  -9.3601     93.6612     78.8458   6.4767958773e+01   4.8913894028e+01    0.3431589    0.2373005 -17.01  0.001124427    2.059    0.514
       142 -10.0707    166.9644     77.8659   4.6140928044e+01   3.2603651798e+01    0.2821234    0.2367217 -42.84 0.0003103446    1.166    0.142
       143 -10.0667    169.5041     74.0658   4.4646131835e+01   3.2673070617e+01     0.331556    0.2378429 -50.58 0.0008545854    1.339    0.253
       144 -11.2579    166.0458     69.9279   4.4142872641e+01   3.4183938344e+01    0.5101559    0.3617859 -21.80  0.001135635    1.752    0.429
       145  -9.7051    145.0129     75.9392   5.0057201884e+01   3.8080497402e+01    0.3743175    0.2821127 -16.63  0.001307031    1.720    0.419
       146  -8.7717    141.5151     75.5496   5.0722402317e+01   3.8971681543e+01    0.2335152     0.191699 -59.21 0.0005265711    1.239    0.193
       147  -8.9139     12.9207     78.0039   9.6409688516e+01   6.0212158779e+01     0.213063    0.1214526 -42.48 0.0004190544    1.638    0.389
       148 -10.1477    110.0622     73.8512   5.8211429455e+01   4.6482052431e+01    0.6220173    0.2825111 -49.51  0.002313643    2.378    0.580
       149  -9.6608    100.2878     76.3311   6.1894440610e+01   4.8080168709e+01    0.2768803    0.2421556 -31.79 0.0006542085    1.185    0.156
       150  -9.4029     47.6367     63.7376   7.7298742472e+01   6.0014910915e+01    0.2264664    0.2031317 -62.76  0.000570745    1.210    0.174
       151 -11.8931     53.0667     75.2016   7.8508963264e+01   5.6716959756e+01     0.289937    0.2386008 -49.10 0.0002179659    1.147    0.128
       152  -9.3985     53.2764     70.6588   7.7067802161e+01   5.7708839184e+01    0.2411355    0.1788247 -30.63   0.00025673    1.394    0.283
       153 -10.7439     50.8689     67.5961   7.7129902104e+01   5.8726568295e+01    0.5723151    0.3461313  30.64  0.002778457    1.726    0.421
       154  -9.9686     29.2894     75.2385   8.8624468150e+01   5.9535053948e+01    0.4190262    0.2004579 -53.06  0.001923035    1.791    0.442
       155  -8.2064    190.3053     76.7070   4.1839028824e+01   2.7491625775e+01    0.1442525    0.1012139 -68.95 0.0003081317    1.578    0.366
       156 -10.1913     97.6708     63.9000   5.8649234438e+01   5.1080173938e+01    0.2802793    0.2496109 -58.51 0.0003351521    1.191    0.161
       157  -9.2305     94.3620     59.3117   5.8107702605e+01   5.2636550170e+01    0.3058739    0.2596198  13.04  0.001626845    1.325    0.245
       158 -10.9971     88.7275     74.1077   6.4895413166e+01   5.0886320898e+01    0.7564147    0.4330419 -39.85 0.0007212407    1.797    0.443
       159 -10.3546     94.7770     72.3002   6.2339200451e+01   5.0041143810e+01    0.3397888    0.3140396  71.66 0.0007108881    1.158    0.137
       160 -10.0424     83.7887     65.7235   6.3814976960e+01   5.3559370184e+01    0.4797961    0.2879806  60.91  0.001998027    2.280    0.561
       161  -9.7205     82.3683     61.7850   6.2956495212e+01   5.4610013007e+01    0.3814718    0.2649314  16.26  0.001292696    1.903    0.474
       162 -10.1690     75.5095     66.0139   6.6859784251e+01   5.5064919099e+01     0.286671    0.2485453 -15.87 0.0005907023    1.215    0.177
       163  -9.7857     77.1649     62.0861   6.4912258197e+01   5.5546644243e+01    0.2732355    0.2344897  23.26 0.0006844387    1.194    0.162
       164  -9.4601    174.6426     75.2358   4.4047469017e+01   3.1284677101e+01    0.1957027     0.173942 -81.20  0.000531627    1.103    0.093
       165  -8.8912     77.8169     74.7862   6.8883397806e+01   5.2808066618e+01    0.1894646    0.1689433 -84.37 0.0002173802    1.299    0.230
       166  -9.9344     64.4809     74.8762   7.3876698482e+01   5.5070865249e+01    0.5850962    0.2854814  53.56  0.002145802    3.047    0.672
       167  -9.1143     68.4841     74.5073   7.2232227432e+01   5.4496328985e+01    0.2558813    0.1850847  20.39 0.0006405452    1.576    0.365
       168  -9.4153     18.6425     72.5416   9.2734809473e+01   6.1102795519e+01    0.3046274    0.2125309 -36.26  0.001715123    1.379    0.275
       169  -8.8989    136.9443     72.9160   5.0987978572e+01   4.0525506234e+01    0.2397069    0.1779779 -75.27  0.001113389    1.644    0.392
       170  -9.5547    117.7202     72.5330   5.5673181743e+01   4.5032032807e+01    0.3911573    0.1928334 -45.40  0.001120328    2.055    0.513
       171 -10.7197     15.1668     65.0078   9.2614590564e+01   6.3124864128e+01    0.8695216     0.345028   1.05  0.003008565    4.078    0.755
       172 -11.3982      8.3384     50.8587   9.2509159187e+01   6.6777217674e+01    0.6121202    0.5254655  -2.04  0.003398356    1.231    0.188
       173 -10.6955     33.4478     59.1223   8.2287356055e+01   6.2774020852e+01    0.6748204    0.3567032 -15.49  0.002707152    3.076    0.675
       174 -10.0526     35.3942     53.3084   7.9482051923e+01   6.3794698918e+01    0.4217311     0.309349  25.09  0.002409103    1.417    0.294
       175 -11.5131      2.4295     66.1429   9.8898100008e+01   6.3636583105e+01    0.6368321    0.2297914 -70.94  0.001425565    2.478    0.597
       176 -11.4635      5.8372     60.9558   9.6204479845e+01   6.4657989825e+01    0.6704715    0.3552247  22.58  0.002188958    2.086    0.521
       177 -10.2447     30.1827     68.5080   8.6504986272e+01   6.1015767082e+01     0.385195    0.2450486 -45.98  0.001476698    1.408    0.290
       178 -11.1949     25.0801     67.7294   8.8638056559e+01   6.1684176117e+01    0.4247501    0.3602819  20.49 0.0003610494    1.285    0.222
       179 -10.8577     24.7702     54.5659   8.5103240135e+01   6.4661623634e+01    0.3743995    0.2657946 -58.66 0.0009119136    1.364    0.267
       180 -10.6487     19.4519     54.6053   8.7788838038e+01   6.5132390133e+01    0.4625904    0.3341935  64.60  0.002551406    1.980    0.495
       181  -9.0907     28.4834     52.3398   8.2550357757e+01   6.4767985741e+01    0.1859689    0.1667022 -22.75 0.0001909566    1.039    0.037
       182  -9.6917    177.2944     71.7195   4.2661312526e+01   3.1265694494e+01    0.2182664     0.178657  84.93 0.0004876155    1.263    0.208
       183 -10.0535    173.5630     68.8960   4.2539166699e+01   3.2597544090e+01    0.2654158    0.2095356  72.22 0.0005316231    1.290    0.225
       184 -10.0206    124.7789     57.7383   4.9135169313e+01   4.6058057077e+01    0.4358513     0.368616   9.05  0.002277522    1.457    0.314
       185 -10.0370    136.3274     56.3793   4.6054391882e+01   4.3529648732e+01    0.5409378    0.2969675  34.90  0.001699048    2.625    0.619
       186 -10.5558    145.3536     69.0464   4.7967880362e+01   3.9233295619e+01    0.5799812    0.3306879 -52.34  0.002465599    1.884    0.469
       187 -10.2669    140.7231     68.3008   4.8751186450e+01   4.0462413696e+01    0.3972496     0.262439 -50.89  0.001613827    1.552    0.356
       188 -10.8275    134.9949     64.1947   4.8785738344e+01   4.2537547984e+01    0.5643049    0.3970574 -78.11  0.001002279    1.858    0.462
       189  -9.3219    129.9552     58.2199   4.8066004395e+01   4.4750790728e+01    0.3225951    0.2001555  66.27 0.0008211158    1.739    0.425
       190 -10.4148    218.7115     69.9032   3.6259890388e+01   2.2484660445e+01    0.2132573    0.1909507 -78.81 0.0002820359    1.122    0.109
       191  -9.1229    102.0362     70.0122   5.9340994291e+01   4.8974226164e+01    0.2724808    0.2244561 -29.71  0.001049823    1.291    0.225
       192  -9.0553    105.2910     65.9381   5.7037075522e+01   4.9050273870e+01    0.2840601    0.1931717  43.95  0.001335263    1.466    0.318
       193 -10.0104     45.4700     69.3312   7.9962896997e+01   5.9069306424e+01    0.2567988    0.2284947  75.93 0.0005934846    1.360    0.265
       194  -9.2006    120.2097     67.7378   5.3501563012e+01   4.5363487247e+01    0.3182184    0.2096145 -56.86  0.001423319    1.728    0.421
       195  -8.6769    248.9765     66.7524   3.2266272027e+01   1.7078317840e+01    0.1607472    0.1326955 -53.99  0.000222002    1.044    0.043
       196  -8.8885     36.0415     67.4736   8.3570410206e+01   6.0628002882e+01    0.1880897    0.1324258  21.45  0.000493858    1.520    0.342
       197  -9.7951    157.2755     68.4785   4.5380847987e+01   3.6500267058e+01    0.3413909    0.1759218 -33.35  0.001395955    2.080    0.519
       198  -9.5686    193.3121     61.7461   3.7616423998e+01   2.9203620120e+01    0.3994428    0.1794346 -32.65  0.001652366    2.300    0.565
       199 -10.1261     65.0599     61.9114   6.9439240955e+01   5.7738942180e+01    0.5935996    0.2556496  30.25  0.002209741    2.841    0.648
       200  -9.6781     71.0729     60.4042   6.6585533182e+01   5.6996565995e+01    0.3316124    0.2251412 -55.64  0.001164706    1.651    0.394
       201 -10.0007     54.1056     61.3794   7.3744073391e+01   5.9592827223e+01    0.3857472    0.2739789 -69.31  0.001271228    1.837    0.456
       202 -11.9145     56.0641     56.5768   7.1254474997e+01   6.0281648396e+01    0.4147506    0.3356595  71.56 0.0004175717    1.714    0.416
       203  -9.7239    155.3374     60.7928   4.3540525674e+01   3.8239504367e+01    0.2611191    0.2576454  37.59  0.000787983    1.143    0.125
       204  -9.1304     44.1236     60.8913   7.7933570823e+01   6.1098176631e+01    0.3821681     0.213646 -10.98  0.001470133    3.215    0.689
       205  -8.8967    213.1212     60.0123   3.4634650470e+01   2.5128818633e+01    0.1786034    0.1659608 -34.78 0.0003008797    1.233    0.189
       206  -9.4737    142.0532     59.0431   4.5659767179e+01   4.1718439372e+01    0.4017806    0.1862617  45.38  0.001542628    2.391    0.582
       207  -9.3113     93.5207     66.9969   6.1000297315e+01   5.1354492256e+01    0.3537583    0.2704592 -54.72 0.0009056912    1.405    0.288
       208 -10.6670    225.8154     55.4485   3.2165739060e+01   2.3145890234e+01    0.2446755    0.1785195 -52.76 0.0002586427    1.147    0.128
       209  -8.4705    190.1304     56.9161   3.6830200308e+01   3.0655224042e+01    0.1658179     0.160876  33.94  0.001014894    1.260    0.206
       210 -10.3784    161.9596     53.6928   4.0298189068e+01   3.7764265358e+01    0.5004532    0.2605122 -48.95  0.002166464    1.934    0.483
       211  -9.0938     92.5081     54.4592   5.6976088427e+01   5.3904063379e+01    0.2626359    0.2173178  36.49 0.0007481932    1.202    0.168
       212  -9.3415     95.4680     52.4888   5.5339738505e+01   5.3615235216e+01    0.2499411    0.2342908  35.28 0.0006576562    1.039    0.038
       213  -9.4279     83.8914     53.8189   5.9584965338e+01   5.5800160923e+01    0.2958255    0.2252795 -12.30  0.001487134    1.577    0.366
       214 -10.1054     86.5233     49.3046   5.7026045505e+01   5.6057103728e+01    0.5798631    0.2738358  44.69   0.00241535    2.058    0.514
       215 -10.4383    115.7844    248.1458   9.0623881064e+01   7.7586841001e+00    0.2480018    0.2014083  20.86  0.001162422    1.215    0.177
       216  -8.6710     57.1122    249.0986   1.0278463147e+02   1.5137925546e+01    0.1528067    0.1050418  56.50 0.0009880386    1.202    0.168
       217 -10.9964     85.9979     22.1909   4.6303024060e+01   6.0178523004e+01    0.4101904    0.2646459  73.02 0.0005363197    1.953    0.488
       218 -11.2648     80.0763     33.4687   5.2930849631e+01   5.9922651123e+01     0.610983    0.4450266  42.30  0.002317966    1.292    0.226
       219  -9.1983     30.6996    248.0054   1.0800556795e+02   1.8321358084e+01     0.164524    0.1239193  63.92 0.0009572802    1.079    0.073
       220 -10.9804     37.0529    109.4599   9.2684267776e+01   5.0285300431e+01    0.4689638    0.2462258 -68.50 0.0008911543    1.770    0.435
       221 -11.1520     70.6659     50.1725   6.3001405239e+01   5.9019234699e+01    0.6160893    0.5413257  77.00  0.002594372    1.435    0.303
       222 -12.9730     61.5428     44.3900   6.4364226650e+01   6.1697497697e+01    0.5147286    0.5034671   2.28 0.0005303817    1.119    0.107
       223  -9.7217     45.4583     42.9749   7.0882380955e+01   6.4525851788e+01    0.2858524    0.2018478  -9.48  0.001008878    1.628    0.386
       224 -10.3203     47.2123     47.2349   7.1722918470e+01   6.3460488996e+01    0.3296309    0.2666371  24.75 0.0008866998    1.236    0.191
       225  -9.2772     42.4900     50.5003   7.5126269268e+01   6.3476972512e+01    0.2493591     0.215694 -49.65 0.0008494302    1.204    0.170
       226  -8.2999    212.3114     54.2592   3.3373747997e+01   2.6134516708e+01    0.1160032     0.102149  31.37 0.0004145065    1.529    0.346
       227 -10.3373    146.2103     52.9779   4.2965591545e+01   4.1682215438e+01    0.4135605    0.3346286 -72.96   0.00185922    1.291    0.226
       228  -9.5241    192.4927     52.0450   3.5265771982e+01   3.0833703569e+01    0.3241867    0.2057908 -38.91  0.001665424    1.488    0.328
       229  -8.6003    107.3044     53.3101   5.2169249133e+01   5.0853081266e+01    0.1452893    0.1126167  17.05 0.0002762068    1.611    0.379
       230  -9.6921    181.4683     51.5576   3.6651886944e+01   3.3448846891e+01    0.3292297    0.2644286 -44.69  0.001200166    1.198    0.165
       231  -9.3555    122.3797     51.0523   4.7505826424e+01   4.7720000514e+01    0.3186978    0.2407568  66.45  0.001619841    1.335    0.251
       232  -8.9320    176.0041     61.2679   4.0081171998e+01   3.3255527741e+01    0.1975264    0.1768326 -68.90  0.001131882    1.024    0.023
       233  -8.3087    115.6841     55.3070   5.0606373994e+01   4.8595223998e+01    0.1477237    0.1133892 -79.18 0.0003263795    1.629    0.386
       234  -8.8031     57.4569     51.0006   6.8630270355e+01   6.1158338958e+01    0.2092674    0.1295496 -45.03  0.001029438    1.593    0.372
       235  -9.5605    175.6427     48.5052   3.6674808161e+01   3.5263169396e+01    0.2927836    0.2318047  22.35 0.0004904483    1.782    0.439
       236 -10.5519    136.6703     49.4175   4.3778528185e+01   4.4543788385e+01    0.4438948    0.2409813  62.38  0.000359023    1.817    0.450
       237 -10.2722    141.3413     48.9194   4.2670725626e+01   4.3485614210e+01    0.4057572    0.2143339 -44.18  0.001199861    1.907    0.476
       238 -10.4605    128.0390     47.9746   4.5172047076e+01   4.6848621118e+01     0.306382    0.2912962 -87.50 0.0004723154    1.033    0.032
       239  -9.1614    122.0092     45.5054   4.5720632013e+01   4.8668712326e+01    0.2877667    0.2210879  87.07 0.0008923228    1.494    0.330
       240  -9.2029    125.4835     44.4735   4.4576424692e+01   4.7990887754e+01    0.2465222    0.2236363 -71.96 0.0005511676    1.129    0.114
       241  -9.8596    154.0338     47.8055   3.9953409961e+01   4.0562889500e+01    0.3658006    0.2820375  70.15  0.001241344    1.252    0.201
       242  -9.3015     32.0589     47.4776   7.9110000684e+01   6.5387639916e+01    0.2061011    0.1648047 -41.33 0.0008061846    1.146    0.127
       243  -9.6855     22.7616     46.4135   8.3531710754e+01   6.6585422043e+01      0.40623    0.3135079  51.52  0.002134482    1.706    0.414
       244  -9.0023     18.1194     22.1479   7.6666589960e+01   7.1711643867e+01      0.18243    0.1494935  32.23  0.001212039    1.431    0.301
       245  -9.8070     17.1003     46.6169   8.6607904284e+01   6.7050029360e+01    0.3046804    0.1932777 -49.24 0.0007951687    1.360    0.265
       246 -11.4124     13.7155     37.6158   8.5510823529e+01   6.9188749812e+01     0.622323    0.4031484 -51.96 0.0008029173    1.388    0.280
       247  -9.9667     24.1944     31.4710   7.7156570826e+01   6.9382746165e+01    0.3027326    0.2393617  17.50  0.001938986    1.265    0.210
       248  -9.0745      1.4679    243.9891   1.1348641219e+02   2.1976165038e+01    0.1522352   0.09060851  87.84 0.0003732727    1.529    0.346
       249  -9.7408      4.4269     32.1953   8.9179168488e+01   7.0953219444e+01    0.4393644    0.1575287 -44.56  0.001548673    2.219    0.549
       250 -11.1565      7.2457     35.7984   8.8677754897e+01   7.0039418808e+01    0.4623749    0.3108231 -50.02  0.002097432    1.277    0.217
       251 -11.0393      9.7027     31.6305   8.5752215931e+01   7.0697582483e+01    0.2581806    0.2186547  13.08 0.0002211477    1.271    0.213
       252  -9.0908    235.0588     47.0901   2.9414931152e+01   2.2438452822e+01    0.1876339    0.1442543 -59.50 0.0004789992    1.069    0.065
       253  -9.6751    145.6888     46.3289   4.1023998032e+01   4.2812310258e+01     0.242081    0.2335703  72.05  0.000498124    1.085    0.078
       254  -8.8848     38.0893     46.5456   7.5783865432e+01   6.4843300619e+01    0.2037429    0.1762951 -51.22 0.0006028981    1.237    0.191
       255  -8.7522    164.2078     46.5757   3.7887288941e+01   3.8276312266e+01    0.1933277    0.1233318  54.06 0.0004755589    1.602    0.376
       256  -9.8867    115.1796     45.2856   4.7290334854e+01   5.0320740475e+01    0.3551558    0.2326275  53.27 0.0009414149    1.447    0.309
       257  -9.8974     43.3437     53.6734   7.5857223660e+01   6.2717640442e+01    0.2763182    0.2183824  58.77  0.001532896    1.674    0.403
       258  -9.0577    245.6585     44.8730   2.8017574308e+01   2.0677957039e+01    0.2252955    0.1585534 -82.52  0.001432109    1.427    0.299
       259 -10.1082    108.3798     42.0754   4.7881853082e+01   5.2394668452e+01     0.470163    0.2911635 -24.83   0.00140829    1.888    0.470
       260  -9.6391    104.0843     42.6299   4.9232985848e+01   5.3299237953e+01    0.4707375    0.2240938 -34.93  0.001968105    2.203    0.546
       261  -9.2889      2.7277     42.9247   9.3445136268e+01   6.8826564769e+01    0.2665085    0.1878438 -88.37  0.001569188    1.832    0.454
       262  -9.1971    185.0685     44.1801   3.4206713902e+01   3.3658690758e+01    0.1998163    0.1771484  55.44 0.0007095093    1.286    0.222
       263  -8.8499    179.5869     44.3185   3.4980175017e+01   3.4924161276e+01    0.2927257    0.1602819  87.17 0.0009746111    2.265    0.559
       264  -9.1111    201.0513     42.9303   3.1931754125e+01   3.0178654190e+01    0.2296307    0.1706729  63.58  0.001320143    1.425    0.298
       265  -8.3862    190.5849     43.5512   3.3337186529e+01   3.2468276501e+01    0.1352246    0.1163616 -67.83 5.313541e-05    1.017    0.017
       266  -9.0698     71.6791     42.8593   5.9763523385e+01   6.0114217216e+01     0.219591    0.1672035 -13.18 0.0007264128    1.477    0.323
       267  -9.5900     27.9558     42.8148   7.9537773092e+01   6.6787245088e+01     0.183213    0.1612117 -21.60 0.0003717696    1.018    0.018
       268 -10.2493    144.2920     41.0826   3.9651990428e+01   4.3905216258e+01    0.3604914    0.2515728  87.00  0.001091855    1.579    0.367
       269 -10.2611    229.1516     39.4360   2.8278052088e+01   2.4633550062e+01    0.3493722    0.2975136 -82.99  0.002364381    1.160    0.138
       270  -9.7353    222.6365     40.7873   2.9179025394e+01   2.5798932932e+01    0.2123801    0.1715115 -74.75 0.0003716302    1.115    0.103
       271  -8.9651     35.0745     41.8199   7.5492882642e+01   6.6149271834e+01     0.215172    0.1395794 -17.59  0.001114864    1.755    0.430
       272  -9.5568     51.0164     40.5179   6.7332470206e+01   6.4134449813e+01    0.2281569    0.1843976 -58.33 0.0007967739    1.524    0.344
       273  -9.5144    125.9119     30.7230   3.9795867333e+01   4.9786181042e+01    0.5283239    0.1933837  58.53   0.00134085    2.416    0.586
       274  -8.8353    129.6784     33.6753   4.0043906628e+01   4.8485891607e+01    0.2364675    0.1500163 -16.34  0.001096148    2.054    0.513
       275  -9.5854    128.5751     40.3910   4.2530007849e+01   4.7836760529e+01    0.4777227    0.1704112  66.52  0.001550249    3.443    0.710
       276  -9.1585    130.6210     36.7652   4.0891697667e+01   4.7842798813e+01    0.4678692    0.2653587  41.27 0.0007823378    2.033    0.508
       277  -9.7466    119.1831     31.4836   4.1479928790e+01   5.1317457983e+01    0.2977805    0.2246534  17.34   0.00110353    1.698    0.411
       278  -8.9206    102.2656     31.9133   4.5697176574e+01   5.5256392506e+01     0.191723    0.1788804 -89.38            0    1.145    0.126
       279 -10.7527    113.7928     35.1434   4.4021157373e+01   5.2118242344e+01    0.5976786    0.4390462 -40.13  0.003166619    1.432    0.302
       280 -12.1698    107.8316     29.4005   4.3336008218e+01   5.4290782838e+01    0.4806472     0.373513  22.21  0.001215691    1.504    0.335
       281  -9.3930    203.8207     39.2011   3.0711430006e+01   3.0060368347e+01    0.2012022    0.1509894 -64.63 0.0006378302    1.181    0.153
       282  -8.3113     40.2699     39.3388   7.1915653542e+01   6.5936837026e+01    0.1334682   0.09122677 -17.53 0.0006987087    1.602    0.376
       283  -9.2102     25.4201     38.1511   7.9145946185e+01   6.7980763395e+01    0.4604723    0.2171963 -18.23  0.001694112    3.950    0.747
       284  -9.6385    238.1380     36.5909   2.6896447805e+01   2.3199750290e+01    0.3936266      0.16198 -60.80  0.001772396    2.595    0.615
       285  -9.3993    158.4010     38.9983   3.6610587907e+01   4.0742996313e+01    0.2589908    0.1800669 -88.94 6.766211e-05    1.530    0.346
       286  -9.6153    177.9791     37.2856   3.3298556335e+01   3.6258469689e+01    0.3471532    0.1886293 -61.20  0.001220131    2.005    0.501
       287  -9.0340     93.6580     38.1776   5.0526369712e+01   5.6312523805e+01    0.1852536    0.1299609 -19.37 0.0002328294    1.658    0.397
       288  -9.5196    153.6678     37.0654   3.6795139326e+01   4.2158568959e+01    0.2478924    0.1890011  64.77 0.0003785287    1.248    0.199
       289  -9.8805    223.9989     34.6377   2.7670656802e+01   2.6309482306e+01    0.3204799    0.1366194 -51.82  0.001310832    2.045    0.511
       290  -8.9576    226.9596     33.2083   2.7095206151e+01   2.5877506610e+01    0.2447967    0.1310125  64.84 0.0008670926    1.989    0.497
       291 -10.2255     97.6245     35.0589   4.8170212641e+01   5.5880496281e+01    0.2505714     0.227108  36.09 0.0003931652    1.072    0.067
       292  -9.5424     60.8325     34.4895   6.0545538481e+01   6.3504107675e+01    0.2293354    0.1961789 -30.24 0.0004935584    1.185    0.156
       293  -9.9274     56.8073     35.8625   6.2828023880e+01   6.3985650774e+01    0.2176699    0.2083613  -0.45 0.0003184842    1.114    0.102
       294  -9.2794     46.9899     34.4951   6.6644556858e+01   6.5819199600e+01    0.2788261    0.1721406  49.33 0.0003866524    1.989    0.497
       295  -9.9861     52.2474     32.5657   6.3388978350e+01   6.5299681932e+01    0.4503917    0.2163201  36.06  0.001500888    2.067    0.516
       296  -9.3437    158.7335     32.5893   3.4668462107e+01   4.1505011275e+01    0.3310369    0.1809263  71.10  0.001038636    1.772    0.436
       297  -9.0521    152.7346     31.2531   3.5185933760e+01   4.3141818142e+01    0.3422326    0.1850225  88.75  0.001032721    2.353    0.575
       298 -10.2929    247.8227     30.9258   2.4976562778e+01   2.2034094363e+01    0.2963354    0.1798434 -35.55  0.001095165    1.536    0.349
       299  -9.8025    244.9447    242.2529   6.5664419273e+01  -7.8143752746e+00    0.2093114    0.1330415  22.80 0.0008147484    1.427    0.299
       300 -11.3209    145.6656     29.0569   3.5639848048e+01   4.5151951213e+01    0.6552133    0.3142895  50.26 0.0006934881    2.136    0.532
       301 -10.3792    133.5970     31.3479   3.8504014233e+01   4.7829298563e+01     0.494104    0.2698648  72.43  0.002206035    1.905    0.475
       302  -9.4485    247.2224    239.4136   6.4873401771e+01  -7.7197320856e+00    0.1863456    0.1411161 -28.86  0.001281493    1.472    0.320
       303 -10.1983    233.6096     30.8392   2.6031166582e+01   2.4820596642e+01    0.3779361    0.1786077  59.10 0.0005020498    2.431    0.589
       304  -9.1908    237.7170     27.0284   2.4904981535e+01   2.4467138528e+01    0.1804647    0.1380689 -60.24 0.0002082535    1.019    0.019
       305  -8.4411    203.2167     31.2126   2.8832661417e+01   3.1222356792e+01    0.1745736    0.1229564 -65.22    0.0003649    1.269    0.212
       306  -9.2536    179.0985     29.6239   3.1088094137e+01   3.6973631475e+01    0.2854936    0.1844478  48.63  0.001405619    1.815    0.449
       307  -8.5061    242.4368     34.5025   2.6115645827e+01   2.2623694479e+01    0.1218206   0.09394132 -58.03 5.384992e-05    1.010    0.010
       308  -8.8873     94.6794     29.5757   4.6843325592e+01   5.7299272243e+01    0.2852146    0.1139954  50.54  0.001144625    2.250    0.556
       309  -9.0651    211.8087     27.0205   2.7016795874e+01   2.9848420215e+01    0.2259934    0.1448174 -37.87   0.00128747    1.476    0.322
       310  -8.6893    189.9529     28.4592   2.9534388072e+01   3.4576761283e+01    0.1932919    0.1193967  74.99 0.0006702815    1.554    0.356
       311  -8.7919    173.7808     28.4244   3.1416855739e+01   3.8386986613e+01    0.1787301    0.1153119  60.67 0.0003440104    1.534    0.348
       312  -9.4783     44.5079     15.7652   5.8929520962e+01   6.9114482831e+01    0.6025029    0.1456317  42.80  0.002129414    3.878    0.742
       313 -10.6515     36.9200     26.2916   6.7924656374e+01   6.8691356392e+01    0.3052905    0.2305664  18.54 0.0004924614    1.264    0.209
       314  -9.2036    145.8529    242.1754   8.3764773061e+01   4.6180477308e+00    0.1695669    0.1287513  10.35 0.0005534564    1.333    0.250
       315  -9.5796    102.6129    242.1890   9.2731989780e+01   1.0589104005e+01    0.1567459    0.1122911 -46.55 0.0009496887    1.716    0.417
       316  -8.6100    189.5078    240.5127   7.5014454394e+01  -1.0200224243e+00    0.1174593   0.09598514  13.06 -4.03104e-05    1.045    0.043
       317 -10.6611     49.2137     26.9466   6.2214901533e+01   6.6698980775e+01    0.3368814    0.1773629  44.12 0.0005634082    1.938    0.484
       318  -9.7586    188.0681    235.4811   7.4551614550e+01  -1.0403542538e-01     0.179953    0.1011955  30.54 0.0005610444    1.554    0.356
       319  -8.6952     82.7101     26.0328   4.8943124526e+01   6.0403031610e+01    0.1740937    0.1615782  21.82 0.0002582265    1.046    0.044
       320 -10.0856      1.9523     25.1864   8.8280832955e+01   7.2492045609e+01    0.2877956    0.1514013 -57.08    0.0011388    1.732    0.423
       321  -8.0916    234.3112     24.3031   2.4578854257e+01   2.5472595298e+01    0.1028547   0.09341042  35.48 0.0003549695    1.610    0.379
       322 -10.5347    171.8831     22.9940   3.0149379093e+01   3.9490567019e+01     0.517574     0.267591  64.99  0.001879986    1.799    0.444
       323  -9.4589    221.9521    233.7769   6.8182625114e+01  -4.1549477803e+00    0.1596838    0.1265237  46.11 0.0008896379    1.916    0.478
       324  -9.4380    109.5011     23.1277   4.0577368263e+01   5.4670891683e+01    0.2476456    0.1694455 -42.55 0.0007204836    1.579    0.367
       325  -9.3263    245.9792     23.2929   2.3549708035e+01   2.3303629707e+01    0.1670285    0.1307123 -67.21  0.001171162    1.073    0.068
       326 -10.1895    231.3846     21.9752   2.4295899188e+01   2.6338414529e+01    0.3402275    0.2364573  23.60  0.001823404    2.876    0.652
       327  -8.5254    152.7121     13.7014   2.9861214972e+01   4.5165253547e+01    0.1854832    0.1573563  64.98 0.0006315166    1.163    0.140
       328  -9.7427    153.7631     22.7968   3.2469837865e+01   4.3910860412e+01      0.24199    0.2170499 -85.38   0.00061789    1.018    0.018
       329  -9.0920     31.9306    232.1460   1.0687905405e+02   2.1288879432e+01    0.1845149    0.1238542  59.61 0.0004408289    1.200    0.166
       330  -8.7578    121.9925     22.2801   3.7626316035e+01   5.1764485862e+01    0.2867554    0.1374204 -53.64  0.001156212    2.708    0.631
       331  -8.7707    116.7074     22.7770   3.8876389398e+01   5.2986650981e+01    0.1943509    0.1593425  14.04 0.0009241026    1.457    0.314
       332  -8.8224    228.9050    234.0088   6.7036459617e+01  -5.0081527931e+00    0.1834923    0.1095623  -0.92 0.0008150496    1.695    0.410
       333  -8.7594    163.3822    226.7730   7.8099096822e+01   4.6644842783e+00    0.1601051    0.1124186 -31.18 0.0006004475    1.547    0.353
       334 -10.1809    220.1830     21.0447   2.4942914170e+01   2.8766640560e+01    0.3413969    0.2020546 -84.76  0.001720605    1.646    0.393
       335  -9.4799    217.1728     17.8230   2.4452872549e+01   2.9777545436e+01    0.1922313    0.1637482 -87.10 0.0003619332    1.167    0.143
       336  -8.4894    208.3436     22.7016   2.6311497428e+01   3.1122016616e+01     0.136868   0.07716938 -64.82 0.0007035272    1.672    0.402
       337  -8.8036    188.5351     21.6904   2.7947411064e+01   3.5713397864e+01    0.1792446    0.1060199 -46.73 0.0006833302    1.535    0.349
       338  -8.9102     26.5387     21.9432   7.1546079429e+01   7.0789316729e+01    0.2269525    0.1050605 -39.71  0.001122131    2.025    0.506
       339  -9.1900    144.9306     20.9301   3.3196485154e+01   4.6292567534e+01    0.1986875    0.1746129 -80.80 0.0003160433    1.070    0.065
       340  -8.4896    207.4638    226.4958   6.9603891355e+01  -1.3473748916e+00    0.1198055   0.09542967   2.04 0.0001158357    1.028    0.027
       341 -10.0137    144.6096     12.8039   3.0677942242e+01   4.7242952734e+01    0.3840312    0.1506868  66.75  0.001158942    2.214    0.548
       342  -8.6488    236.5113     20.5049   2.3618082120e+01   2.5480230055e+01    0.1213632   0.09254768 -61.86 0.0008105187    1.016    0.015
       343  -8.8832    223.9856    225.0149   6.6464886745e+01  -3.2272999480e+00    0.1762173     0.137781  -0.15 0.0006494588    1.015    0.015
       344  -8.9185    140.1583     20.1584   3.3693178857e+01   4.7553127195e+01    0.2001713    0.1723553  55.02 0.0005507061    1.180    0.153
       345  -9.2956     79.8163     19.8230   4.7158540821e+01   6.1810055212e+01    0.1961385    0.1653242  26.45 0.0006468483    1.150    0.130
       346  -8.8623    132.1873    225.1811   8.4395690705e+01   9.4889575577e+00     0.170984    0.1392616  53.80 0.0003860603    1.302    0.232
       347  -9.2397    246.2862     19.3293   2.2725650872e+01   2.3707557146e+01   0.09666135   0.09104017  13.27 0.0001780505    1.614    0.380
       348 -10.2612    205.2648     18.4474   2.5571714964e+01   3.2294262538e+01    0.2343892    0.1788522 -61.28 0.0002249061    1.102    0.092
       349  -9.0479    200.0770     18.4067   2.6017898305e+01   3.3455968092e+01    0.2107174    0.1825363  -5.96  0.001044038    1.590    0.371
       350  -8.6292    125.5036    225.4723   8.5876770747e+01   1.0414895865e+01    0.1294307    0.1115262  36.64 6.349933e-05    1.024    0.024
       351  -9.4395     89.3759    220.8102   9.3331635751e+01   1.6503338161e+01     0.240797    0.2000609  14.83 0.0009965907    1.390    0.280
       352  -8.7486    175.1112    218.0882   7.4428791245e+01   4.4019939805e+00    0.2217275    0.1350992 -35.24 0.0009499934    1.728    0.421
       353  -9.0351    179.5053     13.5143   2.6732751409e+01   3.8736755436e+01    0.2415028    0.1419175  88.02  0.000763523    1.628    0.386
       354  -8.3184    117.9849    212.0027   8.5753798139e+01   1.4119370259e+01    0.1652615    0.1381527  37.01 0.0005253609    1.068    0.063
       355  -8.5570     28.4787    212.5182   1.0641610765e+02   2.5774240232e+01    0.1228779    0.1015826  66.01 0.0008097198    1.039    0.037
       356  -8.8529    242.7372    209.8277   6.0877858454e+01  -3.4487310438e+00    0.1417062    0.1230465 -23.61 0.0005570365    1.348    0.258
       357  -8.5142    230.6654    209.6833   6.2830184199e+01  -1.9358109995e+00    0.1235264   0.07696829  -3.93 0.0007047813    1.693    0.409
       358  -8.4102     96.0144    195.9646   8.8740406715e+01   2.0817905807e+01    0.1626326    0.1521883  74.72 0.0004324785    1.070    0.065
       359 -10.4761      9.4778     15.4598   7.9121570558e+01   7.3711062027e+01     0.256709    0.2022408   2.92 0.0008208099    1.180    0.153
       360  -9.2356      6.4212    194.8304   1.1039801545e+02   3.1820877187e+01    0.1672288   0.09616553 -69.80 0.0009394264    1.695    0.410
       361  -9.5051    248.6705    192.0503   5.6908502472e+01  -1.7227406028e+00    0.2765971    0.1289796 -48.55 0.0009748452    3.084    0.676
       362  -9.5330    238.2591     17.1068   2.2789807759e+01   2.5525376679e+01    0.1978112    0.1501637  67.16 0.0006394339    1.546    0.353
       363  -9.1941      6.1688    174.9521   1.0933673529e+02   3.6476024502e+01    0.2749664   0.09300292  49.02  0.001185238    2.579    0.612
       364  -9.7942     18.0602    174.2892   1.0625767689e+02   3.5620252796e+01    0.2357418    0.1494582  34.81  0.001311354    1.581    0.367
       365  -8.3531    126.6958     17.3137   3.5002809642e+01   5.1169449776e+01     0.200115     0.179256 -68.89 0.0005979566    1.143    0.125
       366 -10.1883     11.6856    166.6627   1.0736096242e+02   3.8030276544e+01    0.2322469     0.157352 -70.69 0.0009906251    1.371    0.270
       367  -9.9437     16.3726     16.9725   7.5306296560e+01   7.2782832303e+01    0.3203951    0.1764027  19.27  0.001543036    1.834    0.455
       368  -8.7982    195.0860     15.1166   2.5658658820e+01   3.4953093944e+01    0.1731756    0.1516055  89.41  0.000399687    1.139    0.122
       369 -10.0572     14.7824    165.4176   1.0644402481e+02   3.8074887536e+01    0.2257931    0.1500123  43.00 0.0009876958    1.455    0.313
       370 -10.0202     19.7718    165.4944   1.0510933905e+02   3.7617166354e+01    0.2674291    0.1525967  56.21  0.001372227    1.652    0.395
       371  -9.0044      7.3168    166.3144   1.0848786732e+02   3.8468169585e+01    0.1239638   0.08749094 -50.09 0.0007036651    1.647    0.393
       372  -9.5741     24.1034    163.4022   1.0374908379e+02   3.7736122797e+01    0.2108639    0.1646484 -69.10 0.0005472071    1.240    0.194
       373  -9.0562     90.9787     13.7984   4.1345609129e+01   6.0025655740e+01    0.2579426    0.1728058  69.66  0.001366898    1.550    0.355
       374  -9.0055     85.5369     14.1767   4.2977543636e+01   6.1208299564e+01     0.259264    0.1333959  42.38 0.0007109099    1.864    0.463
       375 -12.0928     38.8500    159.9380   9.9284146265e+01   3.7106111770e+01    0.9645868    0.3854993  45.06   0.00397935    2.384    0.581
       376 -12.0854     30.6710    154.2698   1.0100004549e+02   3.9395608496e+01    0.6579616    0.3865917  62.41  0.002927492    1.738    0.425
       377  -8.5789    200.4839     13.4855   2.4789680236e+01   3.3913689788e+01    0.2056877     0.111498 -35.30 0.0007508539    1.774    0.436
       378 -10.4832     20.6415    158.1874   1.0423727247e+02   3.9356853861e+01    0.3342451    0.2033772 -71.92 0.0006531197    1.469    0.319
       379 -10.4256     10.0123    157.5224   1.0713266492e+02   4.0417231725e+01    0.3771423    0.1875247  77.31  0.001779269    1.991    0.498
       380 -11.3327     20.5286    151.2783   1.0362737577e+02   4.1106245082e+01    0.5363327    0.2475795 -52.45  0.002400057    2.262    0.558
       381 -10.7888     10.5431    151.9089   1.0654232122e+02   4.1774296741e+01    0.3041685     0.280502  22.55  0.002010531    1.308    0.236
       382 -10.5971      2.4969    155.6448   1.0905944787e+02   4.1442824656e+01    0.5708794      0.22452 -68.19  0.002614156    2.158    0.537
       383  -8.6485     21.4194     13.1045   7.0141826155e+01   7.2838532881e+01    0.2666421    0.1246694  17.28  0.001218967    2.757    0.637
       384  -9.3054    249.1616    153.8469   4.9843811103e+01   3.8349378130e+00    0.1734973    0.1245568 -17.33 0.0009810027    1.335    0.251
       385  -8.6158     58.2314    150.8282   9.2485020156e+01   3.7102663111e+01     0.180338    0.1644049 -30.46 0.0003972491    1.286    0.222
       386 -10.3670     11.2227    146.8322   1.0592246797e+02   4.2996567782e+01    0.3115054    0.1805797 -38.40  0.001535635    2.214    0.548
       387 -10.3966     29.1551    144.0274   1.0030843998e+02   4.2158784303e+01    0.2216018    0.1986486  89.31            0    1.029    0.028
       388 -10.3473    239.9728    142.2529   4.8923750992e+01   7.0224094895e+00    0.4150167    0.1951096 -52.61  0.001775125    2.857    0.650
       389  -8.3811     88.0512    140.9437   8.1969526762e+01   3.5196590010e+01    0.1742043    0.1658872  71.41            0    1.026    0.026
       390  -9.7400     41.4589    137.7393   9.5702043946e+01   4.2504183947e+01    0.2856336    0.2384942 -13.00  0.001582655    1.498    0.332
       391  -9.7296    231.5071     15.5024   2.2902986141e+01   2.7059559930e+01    0.2470727    0.1338729 -73.72  0.001088956    1.745    0.427
       392 -10.6750      4.6985    144.5924   1.0763495411e+02   4.4035890668e+01    0.5068742    0.2315064 -45.32  0.002038249    2.628    0.619
       393  -8.9638     58.4566    135.5296   9.0004276369e+01   4.1003149509e+01    0.2764958    0.2088733 -26.35 0.0008049852    1.679    0.405
       394  -8.7294     62.5207    133.5525   8.8380638174e+01   4.0961724243e+01    0.2583936    0.1853217 -68.90 0.0006011529    1.339    0.253
       395  -9.3102     60.9837    131.0139   8.8417302518e+01   4.1826277981e+01    0.3716437     0.242109 -32.45  0.001658186    1.989    0.497
       396  -8.5176     47.0263    134.0201   9.3386607978e+01   4.2828701960e+01    0.1762778    0.1537761 -77.13 0.0004450964    1.052    0.049
       397 -11.4133      8.0280    132.7304   1.0561693448e+02   4.6798749909e+01    0.5629298    0.4375954  12.77   0.00339346    1.565    0.361
       398 -10.1165     41.1276    130.6391   9.4769958441e+01   4.4379812568e+01    0.4332674    0.2404436 -60.91  0.001742937    1.625    0.385
       399  -8.3677     86.9758    130.0242   8.0094356597e+01   3.8104175185e+01    0.1821815    0.1667774 -67.48 0.0004153177    1.061    0.057
       400  -9.9806     18.7767    127.7868   1.0167212218e+02   4.7256338790e+01    0.3639427    0.2449044 -79.85  0.001298978    1.319    0.242
       401  -9.5430     33.6420    127.1828   9.6713244725e+01   4.6065230965e+01      0.22013    0.2142594  11.25  0.001067207    1.181    0.153
       402  -9.1149     50.8233    126.2387   9.0879762897e+01   4.4383379061e+01    0.2083732    0.1833703  80.23 0.0004280066    1.125    0.111
       403 -10.1196     38.9702    123.9011   9.4443288023e+01   4.6360853522e+01    0.3078328    0.2825612  12.76   0.00182046    1.249    0.199
       404  -9.1480    241.7679    124.1381   4.5020608317e+01   9.6187918173e+00    0.1987699    0.1522254 -47.96  0.001221647    1.227    0.185
       405 -10.3496      7.7218    122.3822   1.0469451400e+02   4.9449554972e+01    0.3861176    0.1650322 -60.51  0.001761719    1.974    0.493
       406 -10.3068      3.4176    121.2017   1.0599249466e+02   5.0020050478e+01    0.5066078    0.1718622 -77.83  0.002028154    2.543    0.607
       407 -10.7003     72.2188    121.1496   8.2871829907e+01   4.2716839640e+01    0.3347744    0.2388051 -49.91 0.0003070415    1.378    0.274
       408 -10.0480     28.9657    117.6261   9.6891555522e+01   4.8987931083e+01     0.305028     0.199018  79.71  0.001235001    1.697    0.411
       409 -11.2082     21.2765    118.9783   9.9733189557e+01   4.9316321305e+01    0.5519794    0.3844402  58.55  0.002980073    1.524    0.344
       410  -9.8671    221.2634    119.4374   4.7002293008e+01   1.3941662243e+01    0.2788679    0.2395004  32.31 0.0006193166    1.350    0.259
       411  -9.4609     93.6133    119.2110   7.5681475705e+01   3.9621361083e+01     0.275341    0.2420577   2.82 0.0007262526    1.338    0.253
       412  -9.2158     63.4519    119.6422   8.5448536956e+01   4.4398613920e+01    0.3907292    0.2295043   8.30  0.001515217    2.753    0.637
       413 -10.4202     45.3338    119.4845   9.1549619567e+01   4.6788892913e+01    0.3202844    0.2502509  41.40   0.00112977    1.341    0.255
       414  -8.8250     57.7699    118.9861   8.7225331886e+01   4.5353514084e+01    0.2032301     0.176607 -64.85 0.0004445689    1.079    0.073
       415 -10.4024      9.7262    114.0050   1.0308996229e+02   5.1448307889e+01    0.4975432    0.2661727  74.58  0.002313964    2.128    0.530
       416  -9.3085     13.6686    113.3155   1.0163092217e+02   5.1352805106e+01    0.2536718    0.1689939  46.24 0.0007532947    1.612    0.380
       417 -10.0000     35.0166    115.0455   9.4371946945e+01   4.9062243475e+01    0.4195031    0.1607743  44.13  0.001593342    2.863    0.651
       418  -8.4950    104.2985    115.3159   7.1542646454e+01   3.8568494125e+01    0.1538231    0.1226099 -15.23 0.0002271813    1.611    0.379
       419  -8.9317     46.1605    113.1814   9.0117430544e+01   4.8312778375e+01     0.207066     0.164309  72.94  0.001090052    1.372    0.271
