#   1 NUMBER                 Running object number                                     
#   2 MAG_AUTO               Kron-like elliptical aperture magnitude                    [mag]
#   3 X_IMAGE                Object position along x                                    [pixel]
#   4 Y_IMAGE                Object position along y                                    [pixel]
#   5 X_WORLD                Barycenter position along world x axis                     [deg]
#   6 Y_WORLD                Barycenter position along world y axis                     [deg]
#   7 A_WORLD                Profile RMS along major axis (world units)                 [deg]
#   8 B_WORLD                Profile RMS along minor axis (world units)                 [deg]
#   9 THETA_WORLD            Position angle (CCW/world-x)                               [deg]
#  10 FWHM_WORLD             FWHM assuming a gaussian core                              [deg]
#  11 ELONGATION             A_IMAGE/B_IMAGE                                           
#  12 ELLIPTICITY            1 - B_IMAGE/A_IMAGE                                       
         1 -14.7827    240.3312     22.7816   5.4939557452e+01   2.3070158085e+01     2.302688     1.586483 -10.63   0.01258311    2.402    0.584
         2 -12.9032    249.1771     60.1835   6.2106394183e+01   1.6248170563e+01     1.502929    0.4738381 -32.83  0.005579037    3.303    0.697
         3 -14.5376    241.0015     80.5574   6.7503301243e+01   1.4882545818e+01     2.451065    0.8831766 -48.77  0.009419532    2.694    0.629
         4 -13.7813    242.1219     52.8317   6.1240666896e+01   1.8766981666e+01     1.282141    0.5544933 -44.42  0.005957634    1.947    0.486
         5 -12.4972    222.2963     18.8827   5.5589558714e+01   2.7529806397e+01    0.4861028    0.2889729 -45.00  0.002698976    1.531    0.347
         6 -10.5762    155.9050     16.2330   6.2402479687e+01   4.4067362802e+01    0.2893557    0.1736956 -38.08   0.00145788    1.783    0.439
         7 -13.3496    247.7767     40.2537   5.7997514553e+01   1.9286462223e+01     1.387652    0.5884402 -33.68  0.006434769    2.312    0.567
         8 -10.6671      1.7091      7.4477   1.1206034425e+02   7.4414728973e+01    0.2052898    0.1183316 -40.05  0.001218502    1.449    0.310
         9 -10.9949    217.9669      4.0082   5.2617513768e+01   3.0140465046e+01    0.2429044    0.1623737 -39.81  0.001461139    1.509    0.337
        10  -9.7019     50.6573      3.7754   8.3666677318e+01   6.8845993244e+01    0.1455476    0.1023571 -24.51 0.0003170795    1.505    0.336
        11  -9.8442    158.9912      2.2249   5.7840925369e+01   4.4592781534e+01    0.1919053    0.1263703 -58.78  0.001035063    1.613    0.380
        12 -10.8348    206.8233    237.1819   1.0548421910e+02  -4.7032043036e+00    0.2882964    0.2124388  56.04  0.001663837    2.075    0.518
        13 -11.1459    193.6360    248.9658   1.0983270152e+02  -4.3767245900e+00    0.2855303    0.2499042 -20.17  0.002007255    1.318    0.242
        14 -11.2073    216.1917    234.0815   1.0321427180e+02  -5.6609684869e+00    0.3140772    0.2520287  45.20  0.001759758    1.595    0.373
        15 -10.4940    210.3622    247.8984   1.0651026771e+02  -6.6818303117e+00    0.2085974    0.1429512  35.71  0.001313172    1.366    0.268
        16 -10.1789    240.7314    232.3264   9.8478808689e+01  -8.8875253210e+00    0.1905256    0.1354545 -37.93 0.0008609003    1.717    0.418
        17 -10.0047    225.5001    231.9720   1.0114458522e+02  -6.7231289297e+00    0.1656989    0.1115014 -31.58 0.0006155671    1.552    0.356
        18  -9.5783    245.4778    231.5146   9.7515609165e+01  -9.4179337802e+00    0.1172075   0.09281097   3.68 0.0001938432    1.068    0.064
        19 -10.9215    235.3676    229.7415   9.8988433152e+01  -7.8167642153e+00    0.2743998    0.2007461 -29.60  0.001147114    1.438    0.305
        20 -10.1207    158.2985    231.6424   1.1430578716e+02   3.8852877497e+00    0.1284022   0.09786634  65.66 0.0005829778    1.706    0.414
        21 -10.5358    229.6551    228.6509   9.9828370329e+01  -6.8669406504e+00    0.2108791    0.1820527 -38.77  0.001074699    1.579    0.367
        22 -10.2362    211.8461    227.8723   1.0299746902e+02  -4.1332073086e+00    0.2095765    0.1651055 -29.99  0.001114903    1.379    0.275
        23 -11.0877    198.9766    226.9851   1.0532870320e+02  -2.0045097228e+00    0.2701129    0.1896351 -47.50  0.001316097    1.816    0.449
        24  -9.9287    232.6815    247.3635   1.0236636151e+02  -9.6983853904e+00    0.1491017     0.132962  39.62 0.0009858913    1.681    0.405
        25 -10.8903    247.0984    226.5018   9.6380064641e+01  -8.9916445534e+00    0.2990412     0.194064  43.43  0.001533935    1.994    0.498
        26 -11.6111    240.2531    221.9101   9.6774759998e+01  -7.4509934014e+00    0.3552269    0.2783525  53.64  0.002188064    2.094    0.522
        27 -10.3259    223.1611    226.9561   1.0072591866e+02  -5.6942946533e+00    0.1756316    0.1601733  15.29 0.0009858015    1.306    0.234
        28 -10.6114    206.0452    225.6992   1.0374047303e+02  -2.9212931149e+00    0.2488516    0.1827719 -52.90  0.001427679    1.963    0.491
        29 -11.5024    217.1653    223.0998   1.0118074313e+02  -4.2503182045e+00    0.3495707    0.2733164 -48.60  0.001449762    1.768    0.434
        30 -10.8855    228.4833    222.1218   9.8917947118e+01  -5.7978506588e+00    0.3266837    0.1855985  39.90  0.001787934    1.806    0.446
        31 -10.3965    186.0000    222.0158   1.0708476894e+02   8.7655092614e-01    0.1960048   0.07485279 -43.12 0.0007858724    2.925    0.658
        32 -10.3263    190.5554    226.2557   1.0687146422e+02  -5.4457818854e-01    0.2187732    0.1272184 -45.11  0.001129145    2.032    0.508
        33 -11.9000    248.0095    217.6782   9.4683785184e+01  -7.9547119990e+00    0.3997506    0.3075197 -37.04  0.001892279    1.571    0.364
        34 -10.9428    193.4966    219.3635   1.0512910206e+02   6.6668403956e-02    0.2819982    0.2249651 -62.43  0.001614827    1.865    0.464
        35 -10.3402    210.9500    218.8296   1.0161969416e+02  -2.6584964673e+00    0.2187951    0.1760681 -21.88   0.00102048    1.246    0.198
        36 -11.2081    219.4287    217.2355   9.9734136164e+01  -3.7377151045e+00     0.282591     0.212256 -37.67  0.001721114    1.503    0.335
        37 -11.8768    217.0290    212.2443   9.9297999400e+01  -2.6168500256e+00    0.4606408    0.3272525 -50.12   0.00180948    1.913    0.477
        38 -11.1884    212.6658    211.5617   1.0000573276e+02  -1.8195261759e+00    0.4858892    0.1887288 -35.44  0.002058175    2.701    0.630
        39 -11.0512    230.5775    237.1494   1.0108601674e+02  -8.1240451447e+00    0.2535598    0.2288987 -87.58  0.001617797    2.227    0.551
        40 -11.0950    232.9119    213.3918   9.6573111337e+01  -5.2119529899e+00    0.3068906    0.2203919 -39.49  0.001261976    1.600    0.375
        41  -9.6196    185.6890    215.3456   1.0602052224e+02   2.0263363601e+00    0.1264175    0.1061183  70.31 0.0007045712    1.707    0.414
        42 -10.1257    237.0045    198.9767   9.3195753307e+01  -3.7169194183e+00    0.1847588    0.1704406  -9.76 0.0009111874    1.254    0.202
        43 -10.8368    231.1100    194.0973   9.3326714682e+01  -2.0568126156e+00    0.3388149    0.1673573 -35.65   0.00135262    1.932    0.482
        44 -11.5261    240.5630    208.6295   9.4352120895e+01  -5.6548022619e+00     0.474156    0.3060557 -56.16  0.002328259    3.019    0.669
        45 -11.1122    235.1123    203.3999   9.4356732671e+01  -4.0865494225e+00    0.3348113    0.2396078 -49.85   0.00120464    1.938    0.484
        46 -11.3185    231.5139    199.4989   9.4275742036e+01  -2.9491050923e+00    0.2830595    0.2068703 -46.54  0.001123276    1.711    0.416
        47 -10.3716    192.7736    209.9057   1.0362888469e+02   1.7326687106e+00    0.2299149    0.1924575 -60.02  0.001047308    1.631    0.387
        48 -11.0524    247.0554    207.0608   9.2939892142e+01  -6.3676034485e+00    0.3419455    0.1894379 -46.47  0.001526508    2.437    0.590
        49 -10.9896    243.4259    201.2662   9.2498476262e+01  -5.0165433722e+00    0.3605331    0.2471723 -34.47  0.001580543    1.445    0.308
        50 -11.2142    229.3792    207.3323   9.6114742998e+01  -3.7964277597e+00    0.3205962    0.1904311 -46.92   0.00131756    2.166    0.538
        51 -10.0066    224.8445    208.0429   9.7076503164e+01  -3.2036468807e+00    0.1847878    0.1451431 -56.83 0.0009384379    1.962    0.490
        52 -10.5304    206.1674    208.1638   1.0065076785e+02  -2.2747582712e-01    0.1700973    0.1622218  46.13  0.001084737    1.354    0.261
        53 -10.3395    210.1672    200.9755   9.8550659362e+01   2.6927226744e-01    0.2532516      0.20506 -71.35  0.001343849    2.053    0.513
        54  -9.7165    202.4522    204.5039   1.0071532303e+02   9.8823981147e-01    0.1346928    0.1170796   9.84 9.119661e-05    1.006    0.006
        55 -10.0028    197.4615    204.0182   1.0162219445e+02   1.9183075976e+00     0.200193    0.1296868 -37.19   0.00103694    1.611    0.379
        56 -10.4665    187.1861    203.5336   1.0362869391e+02   3.7845222576e+00    0.2339047    0.1676424 -67.74  0.001129407    2.287    0.563
        57  -9.7683    172.9937    203.9800   1.0669364043e+02   6.2237627308e+00    0.1657231    0.1548052  -6.21 0.0007252627    1.107    0.096
        58 -10.9580    250.0911    201.0486   9.1317446006e+01  -5.9531756930e+00    0.3224142    0.1614534 -34.68  0.001293788    1.844    0.458
        59 -11.7966    246.8689    193.7546   9.0498171887e+01  -4.4294461117e+00     0.416979    0.3293043 -58.71  0.001682793    2.046    0.511
        60 -10.8094    243.8393    188.1821   8.9951857943e+01  -3.1402875091e+00      0.22614    0.2054244  24.59 0.0008850484    1.292    0.226
        61  -9.9843    223.5760    201.2937   9.6065486130e+01  -1.9728390386e+00    0.1748652    0.1132405 -23.49 0.0007482276    1.516    0.341
        62 -10.2364    215.4395    197.7804   9.6936799133e+01  -9.1542513520e-02    0.2395582    0.1236349 -42.61  0.001121888    2.068    0.516
        63 -11.3820    224.3629    192.8419   9.4319362333e+01  -7.7137232335e-01    0.3720244    0.2254747 -48.74   0.00144234    2.079    0.519
        64  -9.9355    219.5882    194.7426   9.5573877440e+01  -2.8972354670e-01    0.1766591    0.1211232 -44.05 0.0009446812    1.641    0.391
        65 -10.0271    209.4723    194.5239   9.7468278069e+01   1.4495336292e+00    0.1361359    0.1188863   4.78 6.428879e-05    1.005    0.005
        66 -10.3877    202.1448    197.6441   9.9502567384e+01   2.1866592631e+00     0.228818    0.1861564 -44.75   0.00114442    1.418    0.295
        67  -9.6894    176.3750    197.7676   1.0485052368e+02   6.7524509411e+00    0.1891843    0.1298124 -31.43 0.0006689915    1.597    0.374
        68 -11.2240    237.1631    187.6603   9.1009942889e+01  -2.0191466784e+00     0.369098    0.2034073 -40.34  0.001353088    1.814    0.449
        69 -11.0644    235.6093    181.0522   8.9990600015e+01  -7.3241407620e-01    0.2878173    0.2210174 -42.65   0.00111354    1.434    0.303
        70  -9.9792    210.3822    189.1457   9.6254451041e+01   2.1961525454e+00    0.1877153    0.1241925 -47.41 0.0008657134    1.747    0.428
        71 -10.7405    230.0757    187.3466   9.2212159412e+01  -8.3056060355e-01    0.2485837     0.183136 -39.46 0.0009170245    1.421    0.296
        72 -10.1522    220.4175    187.7539   9.4068547812e+01   7.0763563477e-01     0.242867    0.1225091 -41.12  0.001023934    2.004    0.501
        73 -10.8345    249.5325    185.0074   8.8376760008e+01  -3.5301267366e+00    0.4103275    0.1774216 -41.16  0.001813413    2.293    0.564
        74 -11.6732    247.7500    178.4481   8.7397029610e+01  -2.2611718566e+00    0.4786609     0.230986 -44.44  0.002197541    2.250    0.556
        75  -9.9411    215.3718    187.1893   9.4911920938e+01   1.6619218026e+00    0.1849967    0.1218012 -45.94 0.0008194306    1.708    0.415
        76 -10.5896    223.9251    184.0565   9.2690291422e+01   7.2175652764e-01    0.3075627    0.1773921 -46.19  0.001199058    1.962    0.490
        77 -10.4610    203.4230    183.7158   9.6555372145e+01   4.3676142063e+00    0.2615642    0.1307817 -45.05  0.001128097    2.144    0.534
        78 -10.9733    183.7044    182.8492   1.0044249422e+02   8.1784254473e+00    0.3062745    0.2292966 -44.55   0.00158121    1.422    0.297
        79 -11.4535    241.4641    180.8212   8.8927418369e+01  -1.6385775182e+00     0.481759    0.2454043 -46.69  0.002121517    2.329    0.571
        80 -10.7121    218.6348    179.1518   9.2699251929e+01   2.4486499187e+00    0.3668193    0.1527661 -36.60  0.001507574    2.340    0.573
        81 -10.3080    210.4780    183.0275   9.5032086050e+01   3.2241542716e+00    0.2083291     0.129715 -37.40 0.0009531739    1.585    0.369
        82  -9.8893    229.7435    181.9972   9.1221968983e+01   8.1812977868e-02     0.256716    0.1242961 -35.09 0.0009249485    1.951    0.487
        83  -9.6074    231.2984    178.6960   9.0287166956e+01   3.5732702944e-01    0.2055206    0.1553012 -34.74 0.0008869146    1.278    0.218
        84 -10.4671    226.2176    178.2405   9.1112860012e+01   1.2902331053e+00    0.4304166    0.1998552 -19.19  0.001446837    4.007    0.750
        85 -10.5686    204.6160    177.1079   9.4991653561e+01   5.3225049418e+00    0.3470952    0.1649047 -42.09  0.001209947    2.120    0.528
        86 -10.2080    210.5602    176.2266   9.3648231905e+01   4.3919543257e+00    0.2544805    0.1296118 -43.39 0.0009038789    2.012    0.503
        87  -9.8150    197.6462    176.8122   9.6330093770e+01   6.6717710698e+00    0.2011056    0.1296269 -48.97 0.0009459815    1.743    0.426
        88 -11.2719    182.1316    176.2215   9.9450903985e+01   9.7451687393e+00    0.3227901    0.2114792 -47.00  0.001480839    1.629    0.386
        89 -10.2310    232.5632    174.7076   8.9262910356e+01   7.9432060697e-01    0.2477159    0.1188943 -33.31  0.001115765    1.971    0.493
        90 -10.4647    223.5084    173.5772   9.0666407942e+01   2.5380581811e+00    0.2725536    0.1760563 -46.01  0.001025063    1.683    0.406
        91 -10.4411    241.4763    173.0501   8.7383108195e+01  -4.1679888360e-01    0.1981776    0.1158855 -35.34 0.0006722361    1.551    0.355
        92 -10.1240    227.7083    171.3611   8.9451109475e+01   2.1780160061e+00    0.2446555     0.154203 -46.06  0.001223278    1.719    0.418
        93 -11.1015    237.4311    169.3088   8.7320891591e+01   8.5486376374e-01     0.412572    0.2195726 -45.92   0.00150635    2.040    0.510
        94 -10.2185    233.9982    164.4710   8.6924512270e+01   2.2360711395e+00    0.2635415    0.1680911 -46.99 0.0009168332    1.703    0.413
        95 -10.9351    245.9787    169.1780   8.5849948569e+01  -5.3481975364e-01    0.3183774    0.1960241 -40.40   0.00169754    1.555    0.357
        96 -10.3468    205.1765    169.5110   9.3317490150e+01   6.5862433849e+00    0.2853543    0.1824793 -54.60  0.001305022    1.992    0.498
        97 -10.8603    218.6198    168.2242   9.0470708522e+01   4.3268244219e+00    0.3353466     0.242176 -40.88  0.001454033    1.380    0.276
        98 -10.1235    229.0141    166.2608   8.8170143977e+01   2.8061674293e+00    0.1898195    0.1710142 -11.60  0.000867488    1.034    0.033
        99 -10.4128    240.0349    164.2771   8.5850745546e+01   1.2351602456e+00    0.2311411    0.1772397 -52.69  0.001197664    1.591    0.371
       100 -10.3589    199.4262    164.7815   9.3468663665e+01   8.5578151149e+00    0.2723578    0.1360343 -44.17  0.001063716    2.032    0.508
       101  -9.6353    191.3055    165.6654   9.5318610444e+01   9.9815126743e+00     0.142492    0.1189188 -85.03 0.0007039477    1.667    0.400
       102 -10.8284    212.8561    163.0079   9.0462911200e+01   6.3121311104e+00    0.3893832    0.1933506 -41.02  0.001556832    1.950    0.487
       103 -10.2867    246.8223    162.8008   8.4421848397e+01   3.4087433465e-01    0.2035776    0.1775658 -32.19  0.001107981    1.156    0.135
       104 -10.9430    245.8514    157.7724   8.3551686777e+01   1.3106627910e+00     0.418466    0.1996694 -41.58  0.001440756    1.949    0.487
       105 -10.7449    241.8418    153.5869   8.3339546007e+01   2.6788392318e+00    0.3369272     0.220241 -46.93  0.001145094    1.597    0.374
       106 -11.2453    243.9834    149.0846   8.2049900606e+01   3.0486161168e+00    0.4047544    0.2375696 -42.27  0.001741669    1.588    0.370
       107 -11.2026    205.5500    161.1432   9.1476295244e+01   8.0448060909e+00    0.4632036    0.2808903 -43.66  0.001644914    1.654    0.395
       108 -11.1804    205.6771    154.5610   9.0028215421e+01   9.2372260000e+00    0.3220513    0.2627704 -29.02  0.001002103    1.179    0.152
       109 -10.8771    237.6914    158.8890   8.5135643247e+01   2.5222948120e+00    0.3174704    0.2212488 -48.06  0.001122393    1.565    0.361
       110 -10.5518    233.4117    154.1157   8.4863750954e+01   4.0779953330e+00     0.303554    0.2034209 -55.52  0.001277396    1.899    0.473
       111  -9.9198    231.3753    159.7416   8.6398575146e+01   3.4893091627e+00    0.1920791    0.1175949 -28.16 0.0005196683    1.580    0.367
       112 -10.1174    158.6541    160.3226   1.0139993555e+02   1.7699472703e+01    0.1574695    0.1224339  80.84 0.0007049891    1.737    0.424
       113 -10.6660    226.4913    156.9996   8.6680860323e+01   4.8383120331e+00    0.3434792    0.1260234 -39.11  0.001216198    2.524    0.604
       114  -9.8947    222.3317    157.1091   8.7450183252e+01   5.5854211152e+00    0.2030991    0.1179623 -45.83 0.0007280922    1.772    0.436
       115 -10.1164    196.6462    157.1785   9.2394921593e+01   1.0541891275e+01    0.2142291    0.1323296 -31.46 0.0009515295    1.687    0.407
       116  -9.5963    216.2937    156.6463   8.8459455482e+01   6.8007180705e+00    0.1382589    0.1117157 -68.95 0.0006111437    1.685    0.406
       117 -10.0191    187.5811    155.6548   9.3935270898e+01   1.2675895748e+01    0.2929237    0.1415735 -37.03  0.001135588    2.145    0.534
       118 -10.8647    238.5609    102.2775   7.2690252075e+01   1.1884990835e+01     0.294232    0.1206559 -38.66  0.001159705    2.135    0.532
       119 -11.1346    247.6063    112.6497   7.3702601505e+01   8.4080474410e+00    0.2927414    0.1988696 -46.25 0.0008159765    1.322    0.243
       120 -10.8592    250.7087    153.1517   8.1824977686e+01   1.2411524355e+00    0.4548649     0.112188 -38.00  0.001539656    3.520    0.716
       121 -10.6626    247.9827    145.2866   8.0620359770e+01   2.9770281867e+00    0.5348398    0.2356851 -52.25  0.001996127    3.382    0.704
       122 -11.6301    242.7609    108.1515   7.3401248611e+01   1.0080220904e+01    0.9325697     0.246316 -40.60   0.00318637    3.169    0.684
       123 -10.1384    250.5080    140.5136   7.9231020704e+01   3.3172416575e+00     0.260891    0.1108978 -41.00  0.001132507    2.070    0.517
       124 -10.6845    248.7853    135.7027   7.8478813975e+01   4.4051126015e+00    0.3522856    0.1649347 -44.40   0.00119729    1.996    0.499
       125 -11.3490    248.0924    129.9446   7.7358473485e+01   5.4752629790e+00    0.4165184    0.2812829 -50.61   0.00127568    1.515    0.340
       126 -11.2025    243.5809    140.1620   8.0229517536e+01   4.5967553836e+00    0.4196762    0.2136165 -37.93  0.001332823    1.727    0.421
       127 -11.0333    242.1102    133.9050   7.9120697560e+01   5.9079877165e+00    0.4242087    0.2092606 -44.76  0.001173853    1.912    0.477
       128 -12.1458    240.4873    125.0094   7.7441228868e+01   7.7051137589e+00    0.9698728    0.3086455 -44.47  0.003453344    2.986    0.665
       129 -12.4316    242.0704    117.0431   7.5458077840e+01   8.7382665849e+00      1.02813    0.2615162 -43.73  0.003317801    3.605    0.723
       130 -10.8986    249.4735    124.0238   7.5889010569e+01   6.1967751026e+00    0.3131309    0.1997976 -39.71 0.0008916057    1.353    0.261
       131 -11.2995    247.8218    118.8961   7.5024706932e+01   7.3429955713e+00      0.46123    0.2025212 -42.22  0.001260182    1.981    0.495
       132 -10.4957    157.3825    153.1986   1.0014860351e+02   1.9496685832e+01    0.2240196    0.1464212 -57.00 0.0009521958    1.740    0.425
       133  -9.7926    228.3528    152.1588   8.5322453238e+01   5.3327473778e+00    0.1975369    0.1176644 -44.55 0.0007045149    1.661    0.398
       134  -9.8687    221.4658    152.4996   8.6618734826e+01   6.5581823750e+00    0.1400613    0.1280795 -21.74 6.645223e-05    1.026    0.025
       135  -9.9869    221.4895    161.9551   8.8629870731e+01   4.8944442703e+00     0.211199    0.1281264 -37.90  0.000964889    1.553    0.356
       136  -9.1303    202.2821    151.6298   9.0049227904e+01   1.0462129364e+01    0.1456371    0.1154964 -71.10 0.0005461589    1.697    0.411
       137  -9.4791    196.4839    150.4851   9.0952104249e+01   1.1856584951e+01     0.146896    0.1401398 -11.74 0.0001193369    1.006    0.006
       138 -11.7264    235.2978    147.2892   8.3094601684e+01   4.8951217112e+00    0.4555924    0.3095459 -49.26  0.001618499    1.570    0.363
       139 -10.6167    223.6546    146.6530   8.4959872728e+01   7.1749576328e+00    0.2718714    0.2354894 -47.45  0.001293021    1.207    0.172
       140 -10.2552    207.8583    145.3337   8.7568611326e+01   1.0517034224e+01    0.2622202    0.1885852 -45.35  0.001299239    1.385    0.278
       141 -10.9640    162.7654    142.9449   9.6557298631e+01   2.0550637470e+01    0.5226362    0.2848491 -67.11  0.001617726    3.719    0.731
       142 -10.7429    230.0453    141.1097   8.2645053366e+01   6.9303616364e+00      0.34038    0.1792793 -44.31  0.001277249    1.822    0.451
       143  -9.6751    214.2636    142.6351   8.5767044905e+01   9.7284699885e+00    0.1432529    0.1098853 -63.98 0.0003901487    1.645    0.392
       144  -9.7767    182.3019    142.6581   9.2124535642e+01   1.6378042574e+01    0.1536243    0.1222711 -80.44 0.0005232583    1.676    0.403
       145 -10.4063    233.5819    129.3051   7.9469286250e+01   8.2948829481e+00    0.2918078    0.1505014 -41.63  0.001313024    1.751    0.429
       146 -10.3779    238.2601    140.2624   8.1101091578e+01   5.5446862418e+00    0.2631761    0.2027632 -46.54 0.0008104211    1.290    0.225
       147 -11.5039    234.7367    135.6816   8.0681613559e+01   6.9797718867e+00    0.5245987    0.2513577 -44.93   0.00163916    2.004    0.501
       148 -10.6759    224.1061    140.2086   8.3467070353e+01   8.2267296086e+00    0.3122462    0.1848701 -41.01  0.001081536    1.567    0.362
       149 -10.8547    218.9722    138.0280   8.3885975412e+01   9.6249409090e+00    0.3329566    0.2293122 -36.29  0.001478755    1.351    0.260
       150 -10.3994    208.3212    137.8606   8.5794722256e+01   1.1813236921e+01    0.2987902    0.1204153 -46.02  0.001075799    2.537    0.606
       151 -10.6538    198.6773    136.4906   8.7332473517e+01   1.4089487797e+01    0.2669539    0.1329851 -40.27  0.001066343    1.934    0.483
       152 -10.0059    187.5572    135.9867   8.9460743289e+01   1.6577521665e+01    0.2370382      0.14581 -41.93  0.001025441    1.592    0.372
       153 -10.4135    162.9984    136.2457   9.4925252212e+01   2.1930635539e+01    0.2206592    0.2172244  35.35  0.001039021    1.010    0.010
       154 -10.3416    224.6710    133.7201   8.1928972715e+01   9.2640029370e+00    0.3450736    0.2648014  43.14  0.001853828    1.410    0.291
       155  -9.6976    192.7592    137.0023   8.8632209617e+01   1.5253711110e+01    0.2043601    0.1238467 -40.37 0.0008821064    1.605    0.377
       156 -10.5874    143.0000    131.0519   9.8528506986e+01   2.7487688180e+01     0.265378   0.09064396 -46.12 0.0008044844    2.957    0.662
       157 -10.1967    220.8426    129.0935   8.1545043859e+01   1.0852585456e+01    0.2247293    0.1871137 -56.76 0.0009787952    1.279    0.218
       158  -9.9874    186.4543    129.0429   8.8037830927e+01   1.8198049054e+01    0.2386312    0.1468147 -42.24 0.0009227591    1.588    0.370
       159 -10.4705    199.8902    126.5163   8.4758000969e+01   1.5735388351e+01     0.308417    0.1854166 -55.11 0.0009858889    1.939    0.484
       160 -10.5703    227.8139    125.5479   7.9570505083e+01   1.0077919126e+01    0.2919724    0.1851442 -44.75  0.001257336    1.477    0.323
       161 -10.9437    180.1690    124.2941   8.8198576111e+01   2.0555650152e+01    0.4834884     0.250753 -44.39  0.001904445    1.905    0.475
       162  -9.7867    169.6866    124.3368   9.0491887881e+01   2.2931360641e+01    0.1611876    0.1248389 -81.56 0.0007046373    1.691    0.409
       163 -10.4562    220.8383    122.1142   7.9953071432e+01   1.2099334486e+01    0.4037306    0.1611318 -51.48  0.001351345    3.260    0.693
       164 -10.6360    212.7097    122.1894   8.1376297363e+01   1.3786882375e+01    0.3423411    0.1260286 -36.69  0.001195342    2.650    0.623
       165  -9.8557    188.2138    123.2827   8.6282876055e+01   1.8941702396e+01    0.2451042    0.1117338 -49.01 0.0008733363    2.359    0.576
       166  -9.6479    157.6601    120.3319   9.2250205051e+01   2.6527383422e+01    0.1655329    0.1266666 -86.60 0.0007051642    1.745    0.427
       167 -10.9918    230.5651    115.3729   7.6832819170e+01   1.1290934016e+01    0.4859578    0.1330613 -43.04  0.001578232    3.308    0.698
       168 -10.0273    181.0000    115.9328   8.5944305641e+01   2.2032831029e+01    0.2561899    0.0866836 -40.43 0.0007969341    2.904    0.656
       169  -9.4794    212.2735    115.6621   7.9919004735e+01   1.5067319896e+01    0.1481533    0.1091851 -65.21 0.0006041136    1.607    0.378
       170 -10.9596    234.8078    112.0614   7.5434281965e+01   1.1001755198e+01    0.2711771    0.1757021 -89.60  0.001178827    2.624    0.619
       171 -10.5459    235.1079    123.6370   7.7972496062e+01   8.9712033797e+00    0.2468802    0.1688839 -46.44 0.0007773181    1.376    0.273
       172  -9.6732    168.2807    111.6467   8.7577510281e+01   2.5856946324e+01    0.1613657    0.1226198 -74.55 0.0004114598    1.655    0.396
       173 -12.5083    245.4722    100.5693   7.1357091454e+01   1.0788608506e+01       1.7764    0.4836283 -50.71   0.00444978    6.597    0.848
       174 -10.0785    224.4211    248.6990   1.0405658234e+02  -8.7515977809e+00    0.1851504    0.1077299 -36.99 0.0008426463    1.970    0.492
       175 -10.0289    183.0000    108.9428   8.3762954928e+01   2.2935486390e+01     0.256909    0.0861857 -39.68 0.0007998657    2.925    0.658
       176  -9.8684    160.5997    108.7636   8.8554009557e+01   2.8254680966e+01    0.2298964    0.1459534 -52.22 0.0009489404    1.678    0.404
       177  -9.8172    133.6690    109.3426   9.5376420923e+01   3.4382247066e+01    0.1662469    0.1272095 -88.42 0.0007051052    1.750    0.429
       178 -10.2112    218.6814    248.6699   1.0509515071e+02  -7.9569541331e+00    0.1996627    0.1672906  57.62  0.001101337    2.008    0.502
       179 -11.7317    228.8395    104.2977   7.4571802966e+01   1.3542019999e+01     0.549047    0.2971673 -25.41  0.002301035    2.280    0.561
       180  -9.9921    222.4496    105.0343   7.5730208581e+01   1.4765155592e+01    0.2262307    0.1293557 -39.56  0.001028195    1.596    0.373
       181  -9.7679    205.6299    104.8732   7.8484801884e+01   1.8487295350e+01    0.2217964    0.1262052 -47.83 0.0009464781    1.725    0.420
       182 -10.1839    167.1029    100.6485   8.4929506088e+01   2.8329790874e+01    0.2936873    0.2061538 -49.86   0.00131516    1.453    0.312
       183 -10.2113    160.2176    100.2445   8.6351574057e+01   3.0065266922e+01    0.2571675    0.1164238 -49.57 0.0008811294    2.432    0.589
       184 -11.5416    212.5361     95.0357   7.4930136916e+01   1.8672656092e+01    0.9289173    0.3639637 -54.83  0.002836068    3.939    0.746
       185 -10.2308    236.5018     90.0753   7.0227256596e+01   1.4304648573e+01    0.3582972    0.1981794 -31.41  0.001444438    1.840    0.456
       186 -11.9800    225.2184     81.9007   6.9889440713e+01   1.8045212170e+01    0.5899735    0.3855003  83.90  0.002844175    1.893    0.472
       187 -11.6370    235.1978     95.4058   7.1614524061e+01   1.3706023073e+01    0.3392064    0.2484327 -69.43  0.001282813    1.535    0.348
       188 -12.1787    231.2051     90.8790   7.1139833829e+01   1.5287306532e+01    0.5301053    0.3061993 -48.33  0.002536057    1.597    0.374
       189 -10.7343    188.9568     93.0498   7.8510321835e+01   2.4507468032e+01    0.3670316    0.2070618 -46.97  0.001356385    1.755    0.430
       190 -10.4193    141.0000    103.9748   9.2004102674e+01   3.3855377957e+01    0.2654725   0.09063344 -42.82 0.0008044746    2.957    0.662
       191  -9.6174    177.2945     93.6430   8.0917758376e+01   2.7207065128e+01     0.161993    0.1173968 -71.30 0.0004499315    1.695    0.410
       192 -11.0528    175.7902     88.1132   7.9730094324e+01   2.8594073250e+01    0.3114817    0.2444013 -51.84 0.0008556896    1.278    0.217
       193 -12.0058    225.9965     87.5744   7.1109920616e+01   1.6949961640e+01    0.4179831     0.212744 -45.11  0.001089005    1.781    0.439
       194  -9.8264    164.0000     86.9678   8.1846332407e+01   3.1701849045e+01    0.2564365   0.08823705 -38.31 0.0008019357    2.939    0.660
       195  -9.9641    206.1059     85.1263   7.3527635768e+01   2.1845379068e+01    0.2118911    0.1609517 -60.65 0.0008928534    1.328    0.247
       196  -9.2546    200.6442     83.3252   7.3963162635e+01   2.3434150836e+01    0.1585744    0.1084648 -72.02 0.0007045738    1.770    0.435
       197 -10.1287    188.3737     87.2676   7.7109228284e+01   2.5684645765e+01    0.2724302    0.1789272 -48.23 0.0007318379    1.501    0.334
       198 -10.7389    159.0908     82.1258   8.1534737365e+01   3.3807129237e+01    0.3499822    0.2165032 -43.79  0.001372737    1.633    0.388
       199  -9.7692    214.7758     80.0478   7.0942772726e+01   2.0690601733e+01    0.1930023     0.109706 -39.14 0.0008693414    1.645    0.392
       200 -10.1291    150.5904     79.7814   8.2751706893e+01   3.6336739042e+01    0.2250485    0.1421449 -49.69 0.0009518211    1.684    0.406
       201 -10.3243    203.4133     66.7165   6.9314362134e+01   2.5491467395e+01    0.3388815    0.1504019 -45.70  0.001357019    2.149    0.535
       202 -10.3519    203.3112     70.6908   7.0336121952e+01   2.4886757539e+01    0.2427724    0.1377039 -42.00 0.0008615121    1.664    0.399
       203  -9.7780    206.5015     78.4927   7.1809909325e+01   2.2863377730e+01    0.2611539    0.1350583 -38.46  0.001111484    1.837    0.456
       204 -11.1055    206.1473     74.1665   7.0781744870e+01   2.3654138033e+01    0.3178746    0.2225682 -58.21  0.001035897    1.428    0.300
       205  -9.8845    174.4970     77.9969   7.7212965710e+01   3.0717364294e+01    0.2366299    0.1477184 -39.43  0.001035655    1.603    0.376
       206 -10.0261    166.5183     77.9871   7.8790830707e+01   3.2705082891e+01    0.2364128    0.1505646 -38.41  0.000755593    1.594    0.373
       207 -10.7109    130.3821     78.2117   8.7226509957e+01   4.1521294762e+01    0.2244782    0.1422661 -49.79 0.0009520642    1.711    0.416
       208 -10.1379    201.0130     78.0376   7.2559565217e+01   2.4236414270e+01    0.2470226    0.1624501 -64.10 0.0008289007    1.718    0.418
       209 -10.8660    157.5438     75.8472   8.0054850134e+01   3.5320916306e+01    0.3657614    0.1453321 -39.90  0.001275527    2.517    0.603
       210  -9.7024    223.4573     76.4589   6.8850001221e+01   1.9308022149e+01    0.1410186    0.1233524 -62.10 0.0001013572    1.029    0.028
       211  -9.6001    195.2872     72.6600   7.2099503362e+01   2.6499861927e+01    0.1545269    0.1057942 -66.93  0.000449862    1.639    0.390
       212 -10.5307    163.2092     71.4004   7.7579392007e+01   3.4674298615e+01    0.3441569    0.2013285 -38.97   0.00147042    1.734    0.423
       213 -10.3332    222.2593     71.0095   6.7721291237e+01   2.0434456967e+01    0.2211729    0.1673263 -59.54 0.0007374082    1.237    0.192
       214 -11.6901    223.7147     65.5864   6.6249381291e+01   2.0940355938e+01    0.4757661    0.2325494 -23.69  0.001841594    2.985    0.665
       215  -9.7132      2.0462     71.0400   1.3156188878e+02   6.2164810264e+01    0.1433633     0.113627 -52.72  0.000350119    1.012    0.012
       216  -9.4843    170.6744     70.3293   7.5802775013e+01   3.2980078752e+01    0.1599581    0.1136355 -73.37 0.0007050428    1.702    0.413
       217 -10.6092    187.4314     68.7253   7.2357442249e+01   2.9063796696e+01    0.2777542    0.1326568 -41.12 0.0009340948    2.022    0.505
       218  -9.3703    218.3179     68.6335   6.7682171040e+01   2.1699341329e+01    0.1538301   0.09554106 -65.06 0.0005030016    1.780    0.438
       219 -10.2954    193.5424     67.9624   7.1154011525e+01   2.7684040797e+01    0.2209636     0.139226 -38.36 0.0007841912    1.567    0.362
       220  -9.8668    182.3632     68.2420   7.3092330386e+01   3.0399242101e+01    0.2158765    0.1278743 -46.95 0.0006414601    1.682    0.406
       221  -9.6779    139.0000     67.0228   8.1585816225e+01   4.1457441343e+01    0.2463784   0.08758361 -36.33 0.0008014343    2.936    0.659
       222 -10.1546    163.6982     65.0986   7.5653579128e+01   3.5600575246e+01    0.2448763     0.179345 -54.14 0.0009827093    1.435    0.303
       223  -9.7737    197.1612     64.1876   6.9605213405e+01   2.7396120643e+01    0.2084982    0.1565055 -65.40 0.0006903235    1.347    0.258
       224 -10.2421    111.6619     64.3442   8.7896886023e+01   4.8379028549e+01    0.1523548    0.1195645 -82.05 0.0007048938    1.774    0.436
       225 -10.1013    187.3177     62.5195   7.0712427469e+01   3.0077014622e+01    0.2505764    0.1322166 -35.49 0.0008720199    1.922    0.480
       226 -10.7474    157.9821     61.9725   7.5870416619e+01   3.7550480751e+01    0.3570228     0.210364 -44.79  0.001482598    1.754    0.430
       227  -9.3479    182.4796     62.4793   7.1500094862e+01   3.1288847288e+01    0.1491941    0.1350661 -81.05 0.0001287886    1.045    0.043
       228 -11.6744    176.0735    247.2222   1.1298948735e+02  -1.4476079350e+00    0.3285932    0.2463285 -51.43  0.001805749    1.771    0.435
       229 -10.5168    153.1442     59.6772   7.6168729608e+01   3.9138722335e+01    0.2686028    0.1969926 -48.42  0.001044225    1.427    0.299
       230 -12.2829    226.9825     55.5136   6.3497520977e+01   2.1695540313e+01    0.5284566    0.3625015  41.69  0.002733684    1.967    0.492
       231 -12.3031    225.5177     52.2662   6.2913439286e+01   2.2490300636e+01    0.5853032    0.3912168  32.07  0.002812524    2.449    0.592
       232 -10.9495    192.4895     55.4416   6.8024233744e+01   2.9870767917e+01    0.2877951    0.1373975 -35.18   0.00115504    2.106    0.525
       233 -11.0184    153.1219     52.7121   7.4047816901e+01   4.0215639205e+01    0.2641037     0.195934 -48.58  0.000964877    1.417    0.294
       234 -10.5407    169.0160     44.3322   6.8651839629e+01   3.7366535750e+01    0.3232995    0.1817857 -42.67  0.001353149    1.809    0.447
       235 -10.1512    191.9383     40.9296   6.4282855353e+01   3.2050650585e+01     0.235039    0.1490279 -65.91 0.0008018393    1.682    0.405
       236 -11.1820    168.6988     37.2896   6.6668573165e+01   3.8384588497e+01    0.2633735    0.1582188 -45.84  0.001047774    1.715    0.417
       237  -9.4753    179.3186     37.6784   6.5170974103e+01   3.5638704221e+01    0.1498717   0.09859149 -69.50 0.0004970373    1.667    0.400
       238  -9.6993    125.5124     30.5063   7.2572402876e+01   5.0126576489e+01    0.1408688    0.1276522  57.88 0.0008103938    1.026    0.025
       239  -9.2648    238.2990    245.6097   1.0109495576e+02  -1.0224440325e+01    0.0955307   0.09359365  37.77 0.0004685736    1.793    0.442
       240  -9.9628    166.3936     28.1471   6.4374900240e+01   4.0097781193e+01    0.1997523    0.1171752 -45.46 0.0009457828    1.771    0.435
       241 -10.1652    225.1263    243.8367   1.0315742107e+02  -8.2328638440e+00    0.1732357    0.1454535  24.21  0.000996595    1.295    0.228
       242 -11.0741    208.1564     21.5378   5.7521008427e+01   3.0517477798e+01    0.2401452    0.1858281   1.54  0.001341142    1.977    0.494
       243 -10.3035    242.2230    242.5725   9.9918117932e+01  -1.0366045443e+01    0.2037638    0.1964937  41.85  0.001523275    1.812    0.448
       244 -10.2579    140.5091     17.0121   6.5081683237e+01   4.7878065845e+01    0.1912446    0.1377947 -25.62  0.001005056    1.589    0.371
       245 -10.3821    202.0354    242.5790   1.0725141521e+02  -4.7430096922e+00    0.2016052    0.1789431 -54.05  0.001359898    1.674    0.403
       246  -9.6076    248.5488    240.5565   9.8497422346e+01  -1.0934225367e+01    0.1151451   0.08713449   4.85 0.0002822211    1.025    0.024
       247  -9.8486    219.9775    240.4784   1.0355686152e+02  -7.0740599584e+00    0.1482575   0.09714969  51.04 0.0008060512    2.313    0.568
       248 -11.5357    191.6695    236.5159   1.0830352203e+02  -2.2875598321e+00    0.4901522    0.3698843  77.70  0.002558707    2.760    0.638
