#   1 NUMBER                 Running object number                                     
#   2 MAG_AUTO               Kron-like elliptical aperture magnitude                    [mag]
#   3 X_IMAGE                Object position along x                                    [pixel]
#   4 Y_IMAGE                Object position along y                                    [pixel]
#   5 X_WORLD                Barycenter position along world x axis                     [deg]
#   6 Y_WORLD                Barycenter position along world y axis                     [deg]
#   7 A_WORLD                Profile RMS along major axis (world units)                 [deg]
#   8 B_WORLD                Profile RMS along minor axis (world units)                 [deg]
#   9 THETA_WORLD            Position angle (CCW/world-x)                               [deg]
#  10 FWHM_WORLD             FWHM assuming a gaussian core                              [deg]
#  11 ELONGATION             A_IMAGE/B_IMAGE                                           
#  12 ELLIPTICITY            1 - B_IMAGE/A_IMAGE                                       
         1 -12.2422    171.8295     42.1191   7.1293650807e+01   3.7171063180e+01     1.163878    0.9474602  11.93  0.005438082    1.658    0.397
         2 -12.1039    189.5798     10.6015   6.0869125899e+01   3.6621320317e+01    0.8510385    0.8233954  86.83  0.004756551    1.248    0.199
         3  -7.4798    172.4281     11.7931   6.3261153717e+01   4.0546694976e+01    0.1446218    0.1272368   1.48 0.0004248284    1.493    0.330
         4  -9.2018    120.1754      9.1694   7.0955256757e+01   5.2873873769e+01    0.2903028    0.2245545  43.95  0.000934393    1.135    0.119
         5 -11.9380    245.9376    238.1639   1.0172980604e+02  -1.2578301971e+01    0.2459123    0.2068726   1.07 0.0003419881    1.087    0.080
         6  -9.2586    138.2143    250.0231   1.2445024344e+02   2.8941022674e+00    0.3974707    0.2650602  15.47  0.001975331    2.302    0.566
         7  -9.3119    133.5769    249.1173   1.2525168572e+02   3.8349796054e+00    0.2598233     0.233955 -64.11  0.000926944    1.286    0.223
         8 -18.3197     54.0561    233.0219   1.3910273440e+02   1.9305850867e+01     4.373775     3.637205  89.86    0.0163275    1.167    0.143
         9  -9.5380    156.5895    192.4944   1.1130953297e+02   1.0892943082e+01    0.7909126     0.407833 -70.04  0.002445219    4.238    0.764
        10  -7.8762    171.2387    195.1535   1.0858208347e+02   7.4765197751e+00    0.1977476    0.1714143  81.03  0.000539766    1.364    0.267
        11  -8.6564      8.2882    234.3998   1.4750588620e+02   2.4419445397e+01    0.1078293   0.07610768  87.14 8.795628e-05    1.105    0.095
        12  -8.6274    125.6836    186.8984   1.1737834828e+02   1.8094767834e+01    0.3201746    0.2411912  89.93  0.001010519    1.564    0.361
        13  -8.9917    113.6411    187.1842   1.2026777101e+02   2.0246132235e+01      0.49728    0.2872548  66.31  0.001990692    2.328    0.570
        14  -9.0902    185.9604    228.1816   1.1145613234e+02  -1.5024474458e+00     0.657458    0.1986992 -50.52  0.002157905    4.501    0.778
        15  -7.8039    195.5310    184.5428   1.0131442922e+02   4.8751914284e+00    0.1422311    0.1395634   5.75 0.0001042363    1.050    0.047
        16  -8.0331    113.9144    182.4980   1.1938693232e+02   2.1292596233e+01      0.21951    0.1409507  44.51  0.001005566    1.521    0.342
        17  -8.3227    222.5711    179.7151   9.4956102552e+01   6.7432670201e-01     0.189798    0.1286505 -48.29 0.0005499129    1.542    0.351
        18  -8.8381    162.9681    178.7321   1.0717776097e+02   1.2589522971e+01    0.3711014    0.2783471 -83.49  0.001246053    1.806    0.446
        19  -9.5107    204.4684    177.0982   9.7954598497e+01   4.5983435708e+00    0.3751976    0.3071096 -47.25  0.001641212    1.247    0.198
        20  -8.5609    135.7400    175.6062   1.1287613867e+02   1.8759893752e+01    0.2515663    0.1814869 -77.99 0.0005514426    1.701    0.412
        21  -9.8554    103.5791    172.1735   1.2006047936e+02   2.5600110255e+01    0.6149402    0.4267799 -71.46  0.002921475    1.503    0.335
        22  -8.9152      6.9940    173.5253   1.4324434713e+02   3.7746262493e+01    0.3485533    0.2275521  11.68  0.001802607    2.409    0.585
        23  -8.9976    120.2960    170.9446   1.1570584316e+02   2.2838285361e+01    0.5436982    0.2758325  66.32  0.001648466    3.945    0.747
        24  -9.1863     18.4905    167.7638   1.4011375897e+02   3.8071660330e+01     0.471878    0.2096951 -73.57  0.002326654    1.841    0.457
        25  -9.2349    193.5303    166.4486   9.7937812436e+01   8.9223925520e+00    0.3347213     0.321908  87.96 0.0006428497    1.127    0.112
        26  -8.9149    190.2366    162.1254   9.7688848546e+01   1.0497038956e+01    0.3882417    0.3153867  80.31  0.001408046    1.557    0.358
        27  -8.8012    119.7355    164.0806   1.1449730465e+02   2.4579005399e+01    0.3591243     0.241363 -85.03  0.001121957    2.039    0.510
        28  -9.3061    135.6666    159.2974   1.0956222257e+02   2.2570291906e+01    0.5908735    0.3617368  82.71   0.00197645    3.287    0.696
        29  -8.8200    250.1807    160.0175   8.5963844102e+01  -7.1096486012e-01    0.1974347    0.1745182 -33.16  0.000560476    1.030    0.029
        30  -9.4347    109.9054    167.8446   1.1768573710e+02   2.5510079329e+01    0.4419744    0.2768864 -88.68  0.001738492    2.404    0.584
        31  -8.9329    167.7078    229.2013   1.1536128596e+02   1.5319295515e+00    0.2122074    0.1895863  63.22 0.0003583737    1.221    0.181
        32  -9.3178    145.2012    156.5351   1.0664562961e+02   2.1248427879e+01    0.6712297    0.3498841  68.78  0.001810121    4.836    0.793
        33  -9.9521     38.5529    156.2311   1.3388074730e+02   3.8815150572e+01    0.3585464    0.2404371  70.31  0.001590762    1.617    0.381
        34  -9.1478    189.5213    155.8406   9.6452256442e+01   1.1959529424e+01    0.4170565    0.3591622  85.49  0.001540153    1.369    0.270
        35  -8.0069    120.3448    157.0829   1.1291686670e+02   2.6135121585e+01     0.212951    0.1950152 -75.89  0.000581216    1.065    0.061
        36  -8.6472    250.6441    155.0603   8.4862051746e+01   8.6449568968e-02     0.200009    0.1147898 -39.30 0.0009680842    1.530    0.346
        37  -8.5502    172.9440    153.9418   9.9619659778e+01   1.5915624504e+01    0.2228786    0.2207056   5.07 0.0002901823    1.039    0.037
        38 -10.1491    134.3682    148.1711   1.0745460918e+02   2.5444383805e+01    0.8921767    0.3799278 -58.40  0.002882923    2.923    0.658
        39  -9.9753     35.4852    157.5130   1.3482281891e+02   3.8834048997e+01    0.2648197    0.2411445  28.67  0.001316346    1.371    0.271
        40  -7.8407    250.6658    150.1945   8.3846789964e+01   9.4918697415e-01    0.1849411    0.1130731 -33.03 0.0002289088    1.532    0.347
        41 -10.0728    219.3732    148.7079   8.8952728652e+01   7.1952072603e+00    0.2546612    0.2404069 -60.48 0.0003419528    1.099    0.090
        42  -9.2476    145.2253    148.7646   1.0491030150e+02   2.3034969086e+01    0.3294031    0.2407642 -80.48  0.001012926    1.791    0.442
        43 -10.7245      6.6840    144.8373   1.4040507564e+02   4.4391747004e+01    0.4608828    0.2392442  89.67  0.002036955    1.960    0.490
        44 -10.9868     30.9486    142.8307   1.3394573843e+02   4.2811582708e+01    0.5512575    0.3486731  -2.86  0.002775495    2.599    0.615
        45  -8.3046    159.9733    142.4715   9.9944480750e+01   2.1276349235e+01    0.2677524    0.1961549  81.80  0.001133275    1.857    0.462
        46  -7.9803    157.2482    139.9996   1.0000169687e+02   2.2428048091e+01    0.2196947     0.188918 -83.58 0.0003351167    1.294    0.227
        47 -10.4074    183.9623    212.8393   1.0917088949e+02   1.6156165583e+00    0.9411867    0.3660564 -46.07  0.003648754    2.754    0.637
        48  -8.3755    125.3338    141.2973   1.0819435625e+02   2.8905851663e+01    0.1555942    0.1260282  -6.72 0.0007030324    1.647    0.393
        49  -8.7043    108.6829    141.3167   1.1257073493e+02   3.2140668169e+01    0.3059662    0.2125728  65.17  0.001324872    1.752    0.429
        50 -10.0517    104.0986    137.3473   1.1292379178e+02   3.3940014848e+01    0.3156531    0.2807389  76.97 0.0004275685    1.186    0.157
        51  -8.3614    169.9561    214.4829   1.1240094097e+02   3.8792454711e+00    0.2236444    0.1295848  40.57  0.001034703    1.597    0.374
        52 -10.0016     15.7888    151.3671   1.3892002897e+02   4.2154361178e+01    0.3094513    0.2234753 -29.64 0.0008161263    1.867    0.464
        53 -10.3181     38.3790    136.7841   1.3102642795e+02   4.3513419035e+01    0.3544233    0.2359843 -77.44  0.001924835    1.423    0.297
        54  -8.7780    121.0085    133.5081   1.0751408572e+02   3.1608291128e+01    0.2351899    0.1534831  44.78 0.0009151306    1.565    0.361
        55 -10.7802      2.6229    129.2643   1.3959377935e+02   4.8256443065e+01    0.4791805    0.1908348 -79.32  0.002175209    2.431    0.589
        56  -7.7501    166.7069    131.0583   9.5673197364e+01   2.2291075393e+01    0.2149381    0.1968227 -53.02 0.0004101386    1.072    0.068
        57  -9.4596    174.5035    213.1338   1.1120232674e+02   3.2982066021e+00     0.262882    0.1848848  48.49  0.001339039    1.406    0.289
        58  -8.1545    159.8266    127.7894   9.6453545553e+01   2.4556588158e+01    0.2241629    0.1888104 -83.56 0.0009135267    1.346    0.257
        59 -11.0937     31.2383    127.4184   1.3149201631e+02   4.6444678122e+01    0.4608721    0.3791459  78.91  0.002060484    1.319    0.242
        60  -8.7249    107.5014    125.1201   1.0915812149e+02   3.6203925207e+01    0.2709049    0.2262454 -14.68 0.0006982827    1.443    0.307
        61  -8.8869    238.0457    130.5418   8.1709711897e+01   6.9064083991e+00    0.2519026    0.1861527 -44.37 0.0003141454    1.210    0.174
        62 -10.4578     24.1516    128.1722   1.3360120420e+02   4.6903332770e+01    0.3905134     0.292937 -55.86  0.001312637    1.158    0.137
        63  -7.8114    113.4103    118.7471   1.0596256828e+02   3.6534676827e+01    0.2066971    0.1423433 -40.12 0.0004389297    1.478    0.323
        64  -8.6696    119.1229    129.1365   1.0697257854e+02   3.3006904543e+01    0.2388755    0.2125949 -13.89 0.0007397109    1.293    0.227
        65  -8.1095    121.2116    198.0926   1.2034783234e+02   1.6378916926e+01    0.2008292    0.1943999 -53.56 0.0006696177    1.163    0.140
        66  -8.1365     63.3321    120.2702   1.2077980114e+02   4.4506072995e+01    0.1380965    0.1022277 -26.17 0.0001938546    1.588    0.370
        67  -9.8488     69.9867    114.2998   1.1746036658e+02   4.4982028262e+01    0.2576547    0.2255727  70.12   0.00106019    1.319    0.242
        68 -10.1471      9.3771    115.9052   1.3591404724e+02   5.0861068792e+01    0.2778786    0.1799498  70.63 0.0006439879    1.943    0.485
        69  -9.9113      7.7314    112.5664   1.3588610143e+02   5.1723946686e+01    0.4218589    0.1845565  -6.14  0.001729682    4.565    0.781
        70  -8.6319    168.6422    114.4135   9.1108384601e+01   2.5389245170e+01    0.3680178    0.2452936  74.95  0.001365223    2.043    0.511
        71 -10.3969    120.8379    203.2335   1.2127271213e+02   1.5300445193e+01    0.3979408    0.3048477  78.18  0.001101171    1.427    0.299
        72  -9.1006    114.2497    249.6324   1.2913956529e+02   6.9415006860e+00    0.3482291     0.182592  43.62 0.0009836537    1.615    0.381
        73 -10.1976     60.2393    109.2297   1.1927661289e+02   4.7477026516e+01    0.4347259    0.2570138 -69.36  0.001989887    1.990    0.498
        74  -8.8552     91.0765    110.1414   1.1014409996e+02   4.2614686098e+01     0.226617    0.1956485 -21.83 0.0006111818    1.236    0.191
        75  -7.6496    193.1805    107.2082   8.4243667800e+01   2.1113783228e+01    0.2034681    0.1688722 -72.52 0.0002912486    1.266    0.210
        76 -10.1594     65.7050    105.3096   1.1665667161e+02   4.7636277700e+01    0.3759482    0.2651218  -0.49  0.001869398    1.890    0.471
        77  -8.5056     60.8105    103.3316   1.1771733517e+02   4.8737493737e+01    0.1775281    0.1280368  15.90 0.0004713351    1.638    0.389
        78  -8.3610    153.3073    202.3063   1.1384403607e+02   9.4524682013e+00    0.4900179    0.2356124 -65.67  0.001635079    3.677    0.728
        79  -9.9052    191.6617    192.9308   1.0379906595e+02   3.9756561278e+00    0.6897548    0.3413309 -60.52  0.002344319    3.642    0.725
        80  -8.6305    178.0617     84.7584   8.1481318244e+01   2.8931826795e+01    0.2274396    0.2044293 -55.94 0.0002523969    1.099    0.090
        81  -9.7839    234.0624     75.1217   7.0096535545e+01   1.7549769222e+01    0.2510225    0.2132114  82.68 0.0003473371    1.163    0.140
        82  -8.2258      2.8223     76.1829   1.3102332114e+02   5.9857303147e+01    0.1669002    0.1019834 -42.14 0.0003275559    1.322    0.243
        83  -8.3834    238.6349     70.8989   6.8586208744e+01   1.7239702618e+01    0.1968629    0.1664125 -28.62 0.0007678799    1.451    0.311
        84  -8.2190    120.2323     68.7588   9.0041844742e+01   4.5230564115e+01    0.1980018    0.1908046  80.17 0.0003893523    1.136    0.119
        85 -11.5692    159.0656     57.6257   7.7854239418e+01   3.8054846344e+01    0.5992334    0.5009277 -83.31    0.0018315    1.285    0.222
        86  -8.5788    173.9167    200.5072   1.0901826427e+02   5.8769983689e+00    0.2994047     0.202555 -62.86  0.001029126    1.876    0.467
        87 -10.2988    176.4331     34.7583   6.8622558904e+01   3.7009309131e+01    0.3856149     0.315221 -14.40  0.001039839    1.572    0.364
        88  -7.5513    176.9948     58.0071   7.4638893636e+01   3.3647691315e+01    0.1665264    0.1551223 -81.41  0.000313627    1.047    0.045
        89 -10.1376    132.2479     45.9027   8.0036270204e+01   4.6069437034e+01    0.2351012    0.2149784  50.27 0.0002619615    1.011    0.011
        90  -8.2258    142.5153     42.3411   7.6751358150e+01   4.4167647045e+01    0.2382963    0.1192507  57.97 0.0007886791    1.816    0.449
        91  -9.1815    227.6612     26.5639   6.0362456160e+01   2.6031121153e+01    0.3098502    0.1978701 -37.95  0.001132467    1.675    0.403
        92  -8.1708    160.8647    200.9744   1.1193889759e+02   8.2839896488e+00    0.2195741     0.191593   3.46  0.001181338    1.314    0.239
        93  -9.6106    135.2426    195.5326   1.1669981343e+02   1.4346645556e+01    0.4918458    0.2931196 -70.52  0.002048679    2.217    0.549
