#   1 NUMBER                 Running object number                                     
#   2 MAG_AUTO               Kron-like elliptical aperture magnitude                    [mag]
#   3 X_IMAGE                Object position along x                                    [pixel]
#   4 Y_IMAGE                Object position along y                                    [pixel]
#   5 X_WORLD                Barycenter position along world x axis                     [deg]
#   6 Y_WORLD                Barycenter position along world y axis                     [deg]
#   7 A_WORLD                Profile RMS along major axis (world units)                 [deg]
#   8 B_WORLD                Profile RMS along minor axis (world units)                 [deg]
#   9 THETA_WORLD            Position angle (CCW/world-x)                               [deg]
#  10 FWHM_WORLD             FWHM assuming a gaussian core                              [deg]
#  11 ELONGATION             A_IMAGE/B_IMAGE                                           
#  12 ELLIPTICITY            1 - B_IMAGE/A_IMAGE                                       
         1 -12.8795    197.6469     32.8258   6.2510581114e+01   3.1630452929e+01     1.096597    0.8691522  48.28  0.005889836    1.268    0.212
         2 -13.6517    213.0348     14.7487   5.5660042167e+01   2.9878351240e+01      1.28514     0.962151  32.91  0.006960985    1.658    0.397
         3 -10.9822      6.2940      3.1213   1.0565346814e+02   7.0732421644e+01    0.2204622    0.1267557   1.98  0.001549574    1.778    0.437
         4 -11.2838      2.2774     14.1758   1.1156220898e+02   6.9333866371e+01    0.3591808    0.0956635 -50.78  0.001759376    2.874    0.652
         5 -10.5347      2.3113      2.4937   1.0721389699e+02   7.1087168628e+01    0.2301305    0.1066309 -43.67  0.001500385    1.694    0.410
         6 -10.2216    143.3888    240.7903   1.1883888035e+02   6.8830385669e+00    0.2102466    0.1092586 -44.47  0.001114742    2.624    0.619
         7 -10.5149    205.6884    250.2996   1.0928185618e+02  -5.0360058888e+00    0.3373577    0.1048123  37.55  0.001037784    2.920    0.657
         8 -10.8079    184.7587    250.3546   1.1288171739e+02  -1.5194135259e+00    0.3960911    0.1279349  45.72   0.00175155    2.421    0.587
         9 -10.7299    169.3472    248.8409   1.1533788046e+02   1.3011937707e+00     0.257467    0.1884195  20.80 0.0008644182    1.712    0.416
        10 -11.4002    149.7679    248.2177   1.1863323446e+02   4.7005001606e+00    0.3552731    0.2525322 -75.33  0.002276056    1.853    0.460
        11 -11.0233    128.9453    234.7271   1.2064906275e+02   1.0262233898e+01    0.3636536    0.2060066  58.81  0.002039254    1.597    0.374
        12 -11.3502    100.3720    247.8667   1.2692125724e+02   1.2659164723e+01    0.5754637    0.2610537  50.07  0.002769129    1.711    0.416
        13 -11.3270    116.5078    238.3427   1.2323340908e+02   1.1700757948e+01     0.617806    0.3039132 -47.40  0.003207575    2.906    0.656
        14 -10.8850    122.2095    233.4654   1.2169041068e+02   1.1580232701e+01    0.3875065    0.2639775  59.63  0.001828957    1.220    0.180
        15 -11.1521    135.0785    248.9013   1.2122256037e+02   7.0346958976e+00    0.4027105    0.2170337  42.54  0.001524405    1.586    0.369
        16 -12.1346    124.8694    247.0482   1.2274947356e+02   8.9742709265e+00    0.8158052    0.3580225  53.72  0.004264873    1.903    0.475
        17 -11.4752    124.6964    240.3244   1.2203762176e+02   1.0059370152e+01    0.5311958    0.3022135  47.88  0.002369038    1.414    0.293
        18 -10.7602    115.0935    250.4805   1.2474670656e+02   9.9915220848e+00    0.6239946    0.2035859  42.48  0.002190551    2.681    0.627
        19 -11.4750    109.1128    245.8541   1.2527668067e+02   1.1649312361e+01    0.4145164    0.2567962 -86.35 0.0007745191    1.895    0.472
        20 -10.5978     84.5028    240.7524   1.2887488040e+02   1.6156815142e+01    0.3746537    0.2564722 -88.17  0.002607146    1.400    0.286
        21 -11.6824    104.9945    237.4594   1.2511881381e+02   1.3657333598e+01    0.6101606    0.4431157 -29.57  0.003495564    2.924    0.658
        22 -10.6800     79.2226    224.8443   1.2829305091e+02   1.9673022651e+01    0.5696338    0.2801465 -88.70  0.002884989    2.590    0.614
        23 -11.2189     87.8093    248.5503   1.2902624809e+02   1.4395462824e+01    0.4863812     0.246021  53.07 0.0007162901    1.523    0.344
        24 -10.1875     81.9503    246.9651   1.2983100317e+02   1.5488044256e+01     0.325748     0.166516 -64.85  0.002019906    2.146    0.534
        25 -11.3798     84.7725    230.8119   1.2791133244e+02   1.7821800980e+01     0.526425    0.2390731 -73.84  0.002777102    2.492    0.599
        26 -10.9402    113.4174    231.1791   1.2298062937e+02   1.3387517899e+01    0.3076941    0.2580512 -58.30  0.002145301    1.504    0.335
        27 -11.7513    105.3007    227.8862   1.2404844608e+02   1.5239032131e+01     0.649309    0.3595379  65.93  0.002905751    1.814    0.449
        28 -10.5059     98.3517    223.4353   1.2479636067e+02   1.7100319700e+01    0.3189102    0.2386224  46.74  0.001466523    1.329    0.247
        29 -11.2522     98.7254    232.6111   1.2569718922e+02   1.5439413664e+01    0.5033567    0.2377882 -72.70  0.002420838    2.560    0.609
        30 -10.8277     96.9662    239.5543   1.2669025893e+02   1.4530522731e+01    0.3073243     0.240308 -43.32  0.001578075    2.051    0.512
        31 -10.8088     91.1555    241.8212   1.2787482811e+02   1.5014555954e+01      0.36925    0.2161586  70.16  0.001614906    1.583    0.368
        32 -10.6667     89.8184    238.2086   1.2776000338e+02   1.5816065798e+01    0.2380262    0.1929387 -72.47 0.0008627784    1.428    0.300
        33  -9.4786     62.5082    250.4874   1.3315624177e+02   1.7545066806e+01    0.1879901     0.119519  38.15 0.0008222047    1.985    0.496
        34 -11.3401     60.4800    245.8961   1.3313236219e+02   1.8565285534e+01    0.3869393    0.2497932  63.04  0.001633237    1.147    0.128
        35  -9.5539     66.9444    243.8401   1.3196478071e+02   1.8061766932e+01    0.2681358    0.1492697  39.11  0.001663453    2.055    0.513
        36 -11.9101     18.6395    216.9692   1.3769145810e+02   2.8481398684e+01    0.5528394    0.3746492  23.23  0.002100056    2.775    0.640
        37 -11.8885     54.8776    207.4332   1.3092106540e+02   2.6158802313e+01     1.094484    0.4480806  55.62  0.005712798    2.204    0.546
        38 -12.6611      6.2819    225.4322   1.4006054196e+02   2.8197086813e+01    0.9956049    0.5519237  74.04  0.007238061    1.317    0.241
        39 -12.7857     12.0164    207.2003   1.3813191631e+02   3.0923469552e+01    0.9091163    0.6884113 -52.16  0.006261776    2.032    0.508
        40 -10.8136     22.3256    200.3791   1.3597481531e+02   3.1187793512e+01    0.3665725    0.1735705 -89.00  0.001506765    1.850    0.460
        41 -11.3097     41.6693    205.8906   1.3309416812e+02   2.8042093601e+01    0.4924085    0.1896355  47.96  0.001928332    2.255    0.556
        42 -13.4358     28.6217    246.6928   1.3795874227e+02   2.2258559931e+01     1.322064    0.6468208  50.21  0.009290865    1.675    0.403
        43 -13.1488     40.1980    243.2098   1.3604239449e+02   2.1516874873e+01    0.9931831    0.6149737  76.36  0.007457799    1.215    0.177
        44 -13.1345      3.8823    244.8155   1.4134931409e+02   2.5147611781e+01    0.8454946    0.3985414  76.73  0.006118733    1.589    0.371
        45 -12.5014     13.7878    238.7772   1.3966507750e+02   2.5163601356e+01    0.5718912     0.350316  51.92  0.002090189    1.492    0.330
        46 -12.7604     31.8992    227.2622   1.3627614365e+02   2.5222584470e+01     0.434071    0.2633618 -71.61 0.0007600532    1.615    0.381
        47 -13.9916     38.0558    218.5229   1.3468414494e+02   2.6100117993e+01     1.109595    0.8797771  50.19  0.008680515    1.472    0.321
        48 -10.7843    135.9712    224.8439   1.1816145980e+02   1.0704095430e+01    0.3276681    0.2168263 -47.95  0.001013894    1.887    0.470
        49 -11.8432    135.3542    236.2048   1.1969405764e+02   8.9534732168e+00    0.6015434    0.4107407 -29.02  0.002624627    2.686    0.628
        50 -11.0048    134.9670    231.3075   1.1916277909e+02   9.8079784176e+00    0.3730404    0.2756502 -24.74  0.001611204    2.386    0.581
        51 -11.2454    245.0820    241.7483   1.0128408574e+02  -1.0469600747e+01    0.2432403    0.1896181 -60.70  0.001513418    2.514    0.602
        52 -11.4492    166.6974    242.3127   1.1494415387e+02   2.6686934673e+00    0.3856806    0.1705582  48.83  0.001929465    1.845    0.458
        53 -10.5918    143.6497    249.4770   1.1982961204e+02   5.5368154055e+00    0.2379325    0.1604858  60.04  0.001115089    1.309    0.236
        54 -10.1111     53.8643    240.7146   1.3378162042e+02   2.0279353062e+01    0.1892025    0.1220249  88.07 0.0007064973    1.317    0.241
        55  -9.1289     61.4209    239.0303   1.3246601114e+02   1.9601815549e+01     0.165613    0.1116205  59.28 0.0007033776    1.180    0.152
        56  -9.1480    172.9746    236.0140   1.1297405957e+02   2.4795234436e+00    0.1415876    0.1249992  46.60 0.0003182852    1.103    0.093
        57 -10.2934    166.1195    235.4057   1.1411469527e+02   3.7731338212e+00    0.1821131    0.1524577 -64.49  0.001217595    1.487    0.327
        58  -9.6828     55.0978    235.7930   1.3322392879e+02   2.0968529232e+01    0.2471857    0.1388563  62.08  0.001147879    1.393    0.282
        59  -8.3909     70.7216    235.3286   1.3066501150e+02   1.9003687687e+01    0.1153042   0.06510358  72.04 0.0006996107    1.597    0.374
        60 -10.5094    156.6757    231.9574   1.1534116606e+02   5.9526983952e+00    0.2255138     0.204436  36.11 0.0004834566    1.214    0.176
        61  -8.6918     78.2229    233.4066   1.2925634483e+02   1.8302043756e+01    0.0956181   0.08160497 -58.53 0.0006868534    1.659    0.397
        62 -10.2176    141.2206    231.3934   1.1805102015e+02   8.7270050377e+00    0.1913483    0.1576309  76.13 0.0006406413    1.230    0.187
        63  -9.9430    142.5651    227.7253   1.1733395637e+02   9.0886439880e+00    0.2502496     0.155708 -74.24  0.001339974    2.222    0.550
        64  -9.9987    250.3707    231.2189   9.8659889243e+01  -1.0142243427e+01     0.146989    0.1065946 -33.92 0.0009523815    1.689    0.408
        65  -8.0077     57.4576    231.4142   1.3250761636e+02   2.1433337972e+01    0.1096581   0.08035248  71.96 0.0008027669    1.015    0.015
        66  -8.9208     46.0137    231.2598   1.3433145189e+02   2.2880066866e+01    0.1551366    0.1019051  64.57  0.001128278    1.163    0.140
        67  -9.5957    245.3159    227.6691   9.8915773253e+01  -8.9222931402e+00     0.105221   0.09494586  64.63 0.0003494218    1.683    0.406
        68 -10.5970    117.0801    224.5848   1.2156615189e+02   1.3924028465e+01    0.2810223    0.2243343  50.34 0.0005048063    1.180    0.153
        69  -9.2678     64.9711    224.5166   1.3069392447e+02   2.1685236295e+01    0.1888604    0.1364563 -64.15 0.0009065661    1.614    0.380
        70  -9.8613     91.8705    225.7270   1.2618219531e+02   1.7674768577e+01    0.3455377    0.1389916  53.57  0.001281371    2.143    0.533
        71 -10.2125     70.1912    218.4586   1.2925319039e+02   2.2088580045e+01    0.4442481    0.2375883 -87.29  0.002520521    1.971    0.493
        72  -8.8879     94.1256    218.8274   1.2505288820e+02   1.8575000812e+01    0.1479792    0.1335701  57.14 0.0005705645    1.309    0.236
        73  -8.8266     62.4880    217.9753   1.3054117044e+02   2.3205577437e+01     0.127479   0.08817597 -49.76  0.000393368    2.153    0.536
        74  -9.0063    118.4978    217.5479   1.2045033978e+02   1.4925639884e+01    0.1243673    0.1036983  60.78 9.675493e-05    1.056    0.053
        75 -10.2099    137.3561    214.5484   1.1652678521e+02   1.2221949132e+01    0.2594032     0.186788 -88.68  0.001407125    1.672    0.402
        76  -9.3877     88.1488    212.8857   1.2548897732e+02   2.0567848295e+01    0.2269271    0.1418291 -87.46 0.0008890102    1.658    0.397
        77  -9.1441    101.9806    211.6771   1.2280235081e+02   1.8673459717e+01    0.3006069    0.1254174  56.73  0.001349591    2.410    0.585
        78  -8.9087    106.5524    209.9326   1.2173599542e+02   1.8268593806e+01    0.1724233    0.1164341 -64.21 0.0005874643    1.574    0.365
        79  -9.6887     96.0152    205.8439   1.2322611157e+02   2.0703077946e+01    0.5778633     0.227742 -75.62  0.002018127    4.772    0.790
        80  -9.3232     90.9734    204.9261   1.2406849323e+02   2.1650124768e+01      0.35366    0.1890354  40.06  0.001085253    1.930    0.482
        81  -9.5888    112.3919    208.2735   1.2042343687e+02   1.7624946763e+01    0.1996458    0.1817657  81.70 0.0006967063    1.161    0.138
        82  -9.2307     74.9266    208.2982   1.2741098911e+02   2.3339707829e+01    0.2220884    0.1247715  47.88  0.001296555    1.607    0.378
        83 -10.4569    132.2042    223.4039   1.1866569440e+02   1.1593243304e+01    0.2432204    0.2046254  82.65 0.0008517222    1.201    0.167
        84 -10.3021    246.6391    206.3318   9.4911577381e+01  -6.5244838181e+00    0.2753676    0.1592772  14.33  0.001359741    2.119    0.528
        85  -8.5499     32.8442    206.9416   1.3468458990e+02   2.8835732194e+01    0.1474744    0.1162504 -80.05 0.0004616924    1.298    0.230
        86  -8.9669    125.7718    206.0348   1.1756126119e+02   1.5774523563e+01    0.1570639    0.1051086 -61.20 0.0008175326    1.640    0.390
        87  -8.7961    119.3223    206.6496   1.1888667762e+02   1.6766896919e+01    0.1358048    0.0874262  74.17 0.0007048466    1.748    0.428
        88 -10.4433    250.2546    201.8741   9.3458798111e+01  -6.5693531212e+00    0.3990877    0.1686299 -30.55  0.001835376    2.508    0.601
        89  -8.9201     75.1605    203.4548   1.2685941252e+02   2.4237281451e+01    0.2391897    0.1768644  14.94  0.001344816    2.635    0.621
        90  -9.4313    103.6886    203.0851   1.2142566947e+02   2.0020139820e+01    0.2676382    0.1602529  49.84  0.001482911    1.472    0.320
        91 -10.0214      9.9983    187.5922   1.3716791742e+02   3.4820841062e+01    0.2096018    0.1214359 -81.79 0.0006124022    1.326    0.246
        92 -11.1853      3.5070    172.8241   1.3725438537e+02   3.8263454459e+01    0.3467015    0.2097182  76.37 0.0008511484    1.375    0.273
        93 -11.0813      1.7721    165.4217   1.3702004463e+02   3.9869197494e+01    0.4897543   0.04619583 -71.70  0.001621647    5.838    0.829
        94 -10.7443      3.7173    179.3753   1.3768510648e+02   3.6961291110e+01    0.3225917    0.2183373 -54.04     0.002356    1.883    0.469
        95 -10.3416      1.4866    192.0090   1.3889916728e+02   3.4722327199e+01    0.3950126    0.1601483 -88.40  0.002300683    2.082    0.520
        96 -11.4522      3.7891    186.2854   1.3814359667e+02   3.5617327794e+01    0.5885537    0.2590446  89.47   0.00352112    1.930    0.482
        97 -10.2254      2.0029    201.8416   1.3940947127e+02   3.2836748785e+01    0.2821316    0.1270787 -81.24  0.001253976    1.716    0.417
        98  -9.3988      1.9928    197.0313   1.3912461119e+02   3.3733139827e+01    0.1640492    0.1090655  84.45 0.0006465426    1.058    0.054
        99  -9.8304     84.4117    201.1934   1.2487549261e+02   2.3349695502e+01    0.3137088    0.2119366 -43.45    0.0014786    2.215    0.549
       100  -9.6206     44.7946    199.1391   1.3196941417e+02   2.8978140218e+01    0.2730567    0.2263355  23.81  0.001945431    1.915    0.478
       101  -9.9437     28.1592    196.9310   1.3471629692e+02   3.1248579863e+01    0.3259585    0.2772437 -63.98  0.002567539    1.548    0.354
       102  -9.2691     25.7598    192.4126   1.3478132421e+02   3.2372782937e+01    0.2406729    0.1358555  84.36 0.0007329087    1.500    0.333
       103  -8.5750    127.5907    199.5567   1.1628890971e+02   1.6661169086e+01    0.1298398    0.1126508  64.63 0.0001197929    1.018    0.018
       104 -11.6319     59.0902    194.5423   1.2892125882e+02   2.8135543806e+01    0.3658288    0.2906048 -56.72  0.001393745    1.571    0.364
       105  -9.7306     53.7933    198.3657   1.3027488433e+02   2.8046621034e+01    0.2369786    0.1401105  54.03  0.001053059    1.509    0.337
       106  -8.9467    145.1622    198.1314   1.1259750682e+02   1.3743996273e+01    0.1760164    0.1440187  79.45  0.000346323    1.289    0.224
       107 -10.6713    102.9162    196.0211   1.2066305422e+02   2.1510949922e+01    0.2541571    0.2387111   9.91 0.0004119075    1.517    0.341
       108  -9.7497     96.5454    196.1054   1.2192363544e+02   2.2505656711e+01    0.2950264    0.1618093  46.13  0.001559568    1.677    0.404
       109  -8.5642    134.2685    197.6809   1.1469017325e+02   1.5821616630e+01    0.1313722   0.09467395  77.64 0.0002911069    1.560    0.359
       110 -10.6414    142.1822    221.5406   1.1658076685e+02   1.0177500632e+01    0.3627665    0.2108085  40.06  0.001026856    1.609    0.378
       111  -8.2452    107.3201    196.2996   1.1983268920e+02   2.0740441679e+01      0.11374     0.103736   0.50 0.0003455762    1.622    0.383
       112 -10.5236    249.4138    194.2195   9.2153042123e+01  -5.4123877419e+00    0.3265181    0.2330328  31.67  0.001923656    1.249    0.199
       113 -12.1108    135.5243    241.0343   1.2024061919e+02   8.1643540424e+00    0.4483027      0.31449  61.24  0.002435314    1.238    0.193
       114  -9.0444     20.8969    195.1012   1.3583238393e+02   3.2341103988e+01    0.1469118    0.1098987 -61.48   0.00060911    1.624    0.384
       115  -8.6845     72.5765    193.1220   1.2621414607e+02   2.6629050873e+01    0.1456318    0.1027861 -61.21 0.0001688452    1.505    0.336
       116  -9.6534    191.4873    191.4875   1.0232157994e+02   5.9514934307e+00    0.2338767    0.2120515  35.39 0.0005683638    1.026    0.026
       117  -8.9583     38.5139    192.4027   1.3250448855e+02   3.1014699559e+01    0.1458017   0.08857267 -68.55 0.0001717145    1.512    0.338
       118  -9.4768     40.7070    188.4966   1.3175193427e+02   3.1543856379e+01    0.2115319    0.1462616  86.00  0.000879986    1.167    0.143
       119  -9.8587     15.7655    191.9281   1.3648313246e+02   3.3450444213e+01    0.1924088    0.1072523 -88.64 0.0003328644    1.417    0.294
       120  -8.9011     20.1019    191.0872   1.3567000836e+02   3.3195580527e+01    0.1575913    0.1164895 -79.30  0.001194667    1.226    0.184
       121  -9.4950     31.7827    189.9400   1.3350738849e+02   3.2231414799e+01    0.3021788    0.1157508  46.34  0.001645977    2.384    0.580
       122 -10.1680    250.1356    188.0024   9.0822446536e+01  -4.6949293284e+00     0.314232    0.1721461 -20.54  0.001524197    2.050    0.512
       123  -9.0221    114.2335    189.3985   1.1748364400e+02   2.0939317631e+01    0.1824392    0.1093281  54.25 0.0003484892    1.535    0.349
       124  -9.3322     77.0777    188.4338   1.2479529413e+02   2.6942610627e+01    0.1817893    0.1492896 -74.23  0.001202532    1.213    0.175
       125 -11.4717     65.8015    186.6349   1.2679475825e+02   2.8851973495e+01    0.3207729    0.2045589 -65.52 0.0006962747    1.494    0.331
       126 -10.5730     83.7206    186.8000   1.2327830435e+02   2.6315062345e+01     0.213128    0.1791764  79.29 0.0002278738    1.019    0.018
       127  -9.6352     28.9640    184.3050   1.3353908517e+02   3.3642310256e+01    0.2585778    0.2281851  26.99  0.001128732    1.707    0.414
       128  -9.0887     24.1145    184.0778   1.3440350257e+02   3.4176519464e+01    0.1565637    0.1237865 -81.21 0.0005294885    1.201    0.167
       129 -10.7969    127.8263    182.7166   1.1366921113e+02   1.9872680961e+01    0.2319966     0.205315 -86.88 0.0002493975    1.119    0.106
       130  -8.8775     36.5084    182.4910   1.3197839424e+02   3.3210892154e+01     0.183032   0.08290333 -62.40  0.001011129    2.020    0.505
       131  -8.4923    107.5862    182.5393   1.1784036437e+02   2.3435374602e+01    0.1307516    0.1145518  77.13 0.0001665381    1.017    0.016
       132 -12.3905    248.2135    172.3704   8.8020989737e+01  -2.1238166485e+00    0.8683242    0.4565658 -36.39  0.004158638    1.928    0.481
       133 -12.1237    245.4448    163.3434   8.6626193019e+01  -2.5091588733e-01    0.6115403    0.3251913 -39.23  0.002852093    1.937    0.484
       134 -12.0532    247.1738    158.6372   8.5327732406e+01   1.3072079518e-01     1.055511     0.744086 -78.53  0.004584666    3.047    0.672
       135 -10.1887     86.1824    180.2657   1.2193245744e+02   2.7288924139e+01    0.2184079    0.1729802 -86.85 0.0002949158    1.140    0.123
       136  -8.3894     26.7245    180.3233   1.3360805349e+02   3.4665160354e+01     0.114373   0.06544843  76.23 0.0003817739    1.581    0.367
       137  -8.2802     92.6939    178.2804   1.2031579725e+02   2.6708214713e+01    0.1314452   0.08804725  73.84 0.0001668374    1.556    0.357
       138  -8.6524     12.5234    178.4937   1.3605416961e+02   3.6373842725e+01    0.1072682   0.07964873 -88.60 8.848127e-06    1.059    0.056
       139  -8.9758    140.0559    183.2803   1.1122559653e+02   1.7499444860e+01    0.1903755    0.1593608  56.86 0.0002306349    1.076    0.071
       140 -10.4578    103.0154    176.0292   1.1782614315e+02   2.5527424621e+01    0.2076169    0.1731763 -77.03            0    1.150    0.130
       141 -11.7360     65.3681    175.8655   1.2562466928e+02   3.1125567404e+01    0.2493024    0.2151657  65.41 0.0003808913    1.177    0.150
       142 -10.8627     62.7232    172.4416   1.2574928730e+02   3.2185096965e+01    0.2412723    0.2054646  48.91 0.0003582835    1.329    0.248
       143 -10.7302     76.0342    174.8790   1.2331213676e+02   2.9881941019e+01    0.2450339    0.2009936  80.76 0.0004210669    1.047    0.045
       144 -10.2769     19.0441    173.1894   1.3442628241e+02   3.6839561524e+01    0.3491012    0.1825521  81.80  0.001748856    1.783    0.439
       145 -11.1790     14.2693    167.1305   1.3481186101e+02   3.8492947037e+01    0.3187052    0.2231123  49.30   0.00223439    1.532    0.347
       146 -10.3164     11.7719    173.6976   1.3581704878e+02   3.7392414661e+01    0.2381124    0.1618389 -59.63  0.001711939    1.612    0.380
       147 -10.2400    107.6638    172.7305   1.1633144797e+02   2.5439587818e+01    0.2358563    0.1952855  75.78 0.0004707181    1.124    0.110
       148 -10.1343     44.7992    164.9755   1.2855454370e+02   3.5908680412e+01    0.3315984    0.1769236  89.76  0.001389977    1.978    0.494
       149 -10.7665     45.9480    172.2505   1.2912489308e+02   3.4258914754e+01    0.3519402    0.2103221 -52.50  0.000314903    1.923    0.480
       150 -10.4415     43.5413    168.9628   1.2925176185e+02   3.5214150504e+01    0.2779758    0.1666601 -55.37   0.00146259    1.770    0.435
       151 -10.1187     27.8812    171.5266   1.3259804206e+02   3.6330406189e+01    0.2951615     0.163099 -61.19  0.001254759    1.714    0.416
       152 -11.1410      6.9348    167.0307   1.3618498434e+02   3.9134658617e+01    0.2820452    0.1586052 -81.90  0.001201624    1.353    0.261
       153 -11.7248     84.3045    166.0543   1.2034369862e+02   3.0553176245e+01    0.5862471    0.4700275  47.61  0.003610452    1.302    0.232
       154 -11.8878     12.4917    161.4705   1.3466535520e+02   3.9794667843e+01    0.7448936    0.2734725  87.76  0.003147627    3.693    0.729
       155 -11.3222     12.4905    153.4907   1.3394677169e+02   4.1428531211e+01    0.2673948    0.1877493 -64.99  0.001011108    1.324    0.245
       156 -12.1039     10.9634    150.2789   1.3395545469e+02   4.2213855773e+01    0.4455472     0.238772 -50.98  0.001017332    2.096    0.523
       157  -8.4395     61.0224    164.7802   1.2514950248e+02   3.4020104058e+01    0.1432842   0.09512725  44.61  0.000297354    1.576    0.365
       158  -9.7509     16.1474    158.2201   1.3365506819e+02   4.0147493853e+01    0.1544069     0.122312 -79.38 0.0004300285    1.130    0.115
       159  -8.7997     47.6876    157.7191   1.2709870320e+02   3.7120345250e+01    0.1091718   0.08625267 -46.65   0.00018663    1.569    0.363
       160 -10.1840     84.8209    155.3928   1.1861205710e+02   3.2770301504e+01     0.225156     0.166519 -66.59 0.0002359281    1.253    0.202
       161 -10.9255     22.6110    150.3030   1.3155558240e+02   4.1223358056e+01    0.4153423    0.1460456 -56.01  0.002032847    2.612    0.617
       162 -10.8648     31.8751    155.4495   1.3017150411e+02   3.9272521255e+01    0.2913309    0.2245114 -48.21 0.0009746418    1.595    0.373
       163 -11.0147     25.5396    154.8384   1.3142084616e+02   4.0007138180e+01    0.3592708    0.2287168  28.61  0.002066053    2.088    0.521
       164  -8.7756    228.3696    155.2844   8.7962092499e+01   4.4410921406e+00    0.1904696    0.1294721 -43.58 0.0006104565    1.587    0.370
       165  -9.8265     89.8485    153.2277   1.1712516064e+02   3.2479184664e+01    0.2179251    0.1927606 -87.14 0.0002866699    1.007    0.007
       166 -11.7417    244.0171    121.1230   7.7505049236e+01   6.7437084346e+00    0.5730943    0.4683189 -83.64  0.003002387    1.616    0.381
       167 -12.8051    247.5034    100.8667   7.2202207208e+01   9.2649670779e+00     1.087955    0.6603084 -33.19  0.005117712    1.578    0.366
       168 -11.4748    248.3118    112.9315   7.4902330344e+01   7.1473299079e+00    0.5476467     0.411227  35.22  0.002853435    1.443    0.307
       169 -12.0509    247.8434    142.3040   8.1661557155e+01   2.5384842367e+00    0.9563924     0.622515  54.29  0.004737939    1.714    0.416
       170 -12.8220    248.5128    133.5843   7.9601170167e+01   3.7860395424e+00     1.295981    0.6861569 -31.13  0.005781318    1.852    0.460
       171 -10.3897     96.5779    150.9492   1.1520110975e+02   3.1915156970e+01    0.2938052    0.2287095 -49.57   0.00128571    1.362    0.266
       172  -8.8700     86.0000    149.9125   1.1745906752e+02   3.3786855990e+01    0.2156181   0.06981727 -58.65 0.0005712432    2.898    0.655
       173 -12.0869     68.4445    144.4214   1.2063459003e+02   3.7464332780e+01    0.6189016      0.41938  84.56  0.002387473    1.624    0.384
       174 -12.1054      2.3995    144.8667   1.3520069643e+02   4.3975312964e+01    0.5978003    0.2166844 -59.43  0.003263871    2.291    0.564
       175  -8.8793    113.6049    150.7243   1.1124331601e+02   2.9079919405e+01    0.2001923    0.1285073 -66.76 0.0009537423    1.670    0.401
       176  -9.6331     41.3093    147.4891   1.2721381803e+02   4.0005017022e+01    0.2057729    0.1592121 -72.75 0.0006873977    1.096    0.088
       177  -9.9221    133.4637    141.1631   1.0474848577e+02   2.7395234512e+01     0.517868    0.2438074 -54.51  0.002034384    2.273    0.560
       178  -8.4538    104.7358    142.7296   1.1180920797e+02   3.2356565182e+01    0.1251131    0.1085608 -23.30 -0.000275831    1.466    0.318
       179 -10.2168    235.9707    146.0016   8.4548280857e+01   4.3811254208e+00     0.221124    0.1996172   8.86 0.0004878289    1.058    0.055
       180 -11.1544     12.7209    137.3437   1.3229418990e+02   4.4761611735e+01    0.2218808    0.1307902  88.65 0.0006808374    1.552    0.356
       181  -9.7810     19.6828    141.7079   1.3125710147e+02   4.3282624837e+01    0.1527121    0.1295387  76.62 0.0004363709    1.199    0.166
       182 -11.6686     16.6418    139.1768   1.3163998176e+02   4.4066523239e+01     0.250275     0.223422  69.27  0.001469635    1.275    0.215
       183 -10.6967     32.8246    140.7264   1.2825248658e+02   4.2307094965e+01    0.2490511    0.1565143  83.05  0.001208273    1.618    0.382
       184 -12.0687      8.9560    142.9429   1.3366684919e+02   4.3886051676e+01    0.3324363    0.2408358 -53.12  0.002423226    1.520    0.342
       185 -10.9885     60.1575    136.5111   1.2134436366e+02   4.0251242251e+01    0.2833887     0.219812 -84.88 0.0007966209    1.203    0.169
       186  -9.6736    109.1175    136.1442   1.0947638517e+02   3.3035732088e+01    0.3422751    0.2578067  -3.65  0.001577975    2.151    0.535
       187 -13.0183      8.6047    120.7839   1.3136929967e+02   4.8526899754e+01    0.6761568    0.2388099 -72.81  0.003362987    2.281    0.562
       188 -12.3107      2.2635    123.7731   1.3315923586e+02   4.8329831162e+01    0.6492171     0.195605 -71.45  0.003140926    2.471    0.595
       189 -12.3571      2.7080    131.5412   1.3386814158e+02   4.6694051277e+01    0.5227682    0.3290758 -60.65  0.003496577    1.385    0.278
       190 -10.5925     44.4943    130.4467   1.2415736029e+02   4.3355633673e+01    0.2944758    0.2025255 -85.94  0.001011004    1.413    0.292
       191 -10.5997     59.6152    128.2770   1.2014226319e+02   4.2124500773e+01    0.2972968    0.2062803  69.47  0.001137226    1.654    0.395
       192  -9.3258     75.1629    128.9577   1.1641531382e+02   3.9960974683e+01    0.2218802    0.1430294  87.34  0.001077861    2.044    0.511
       193 -10.6760     66.7269    127.9074   1.1832113785e+02   4.1318738121e+01    0.2828832    0.2364382  87.61  0.001771055    1.188    0.158
       194 -10.1673     33.3635    127.8773   1.2644482147e+02   4.5015346591e+01    0.2483895   0.09800639 -74.78  0.001098598    2.606    0.616
       195 -10.0136    209.8873    125.7704   8.4718882896e+01   1.3568791537e+01    0.2578833    0.2361002 -39.86 0.0004424307    1.112    0.101
       196  -8.6582     48.4620    126.4605   1.2258845998e+02   4.3800353561e+01    0.1233675    0.1026375 -74.48 5.619969e-05    1.019    0.018
       197 -11.9615     21.9782    121.6776   1.2832102656e+02   4.7335230791e+01    0.3292135      0.24031 -28.26  0.002193121    1.864    0.464
       198  -8.8645    104.4665    153.2716   1.1379885479e+02   3.0112082278e+01    0.1787042    0.1256583 -72.98 0.0005178257    1.477    0.323
       199  -9.2502     29.6835    126.7085   1.2715868970e+02   4.5603139175e+01     0.113239   0.07693043 -45.84 0.0002648758    1.598    0.374
       200 -10.0554    231.8794    116.2036   7.8411166778e+01   1.0228171854e+01    0.2225534    0.2011455 -65.06   0.00064189    1.226    0.185
       201 -11.5616      7.3632    108.5777   1.3016022232e+02   5.1156290331e+01    0.3860268     0.165158  24.70  0.002180889    3.019    0.669
       202 -11.4590     11.1831    115.8284   1.3015547818e+02   4.9385029598e+01    0.2205707    0.1984458 -44.16   0.00115218    1.342    0.255
       203 -11.9951      9.3665    112.2892   1.3014607209e+02   5.0250329340e+01    0.3353998    0.2429903 -39.60  0.002395036    1.589    0.371
       204 -10.0504    167.9378    113.0717   9.0265148546e+01   2.5736163019e+01     0.337763    0.2743468  84.32 0.0007872183    1.499    0.333
       205  -8.7336    203.4988    111.5129   8.2473691497e+01   1.7628643031e+01     0.152144    0.1471553  18.30 -2.984281e-05    1.041    0.039
       206 -11.4240     14.9489    104.9790   1.2775495806e+02   5.1396237932e+01    0.2689175    0.1894275 -72.35 0.0008385841    1.140    0.123
       207 -10.8347    249.6374    150.9680   8.3254723584e+01   8.2711968645e-01    0.5289152    0.2914719 -37.93   0.00248685    1.792    0.442
       208 -10.1204     17.0069     99.0083   1.2632190419e+02   5.2500234515e+01    0.1700021    0.1316426 -65.14  0.001221595    1.002    0.002
       209 -10.0600    249.6953    117.9358   7.5839092932e+01   6.0460780599e+00    0.3544184    0.2848597 -12.00 0.0009940467    1.311    0.237
       210 -10.7072    192.4951    248.7963   1.1133522325e+02  -2.6311288249e+00    0.2553706    0.1648792  41.02  0.001241536    1.202    0.168
       211 -11.6108    199.0694    246.4640   1.0986971421e+02  -3.4515365617e+00    0.4189683    0.2120387  49.53  0.002253613    1.761    0.432
       212  -9.7167     16.0974     25.3439   1.0963245044e+02   6.6645591600e+01     0.144036    0.1155218 -21.82 0.0006678468    1.130    0.115
       213 -10.2504     73.5401    243.5233   1.3089086049e+02   1.7225765914e+01    0.2482598     0.201256  72.16  0.001934999    1.178    0.151
       214 -11.9616    177.3428    242.6071   1.1311492572e+02   7.8640559101e-01    0.5599907    0.2400502  51.60   0.00218056    2.146    0.534
