#   1 NUMBER                 Running object number                                     
#   2 MAG_AUTO               Kron-like elliptical aperture magnitude                    [mag]
#   3 X_IMAGE                Object position along x                                    [pixel]
#   4 Y_IMAGE                Object position along y                                    [pixel]
#   5 X_WORLD                Barycenter position along world x axis                     [deg]
#   6 Y_WORLD                Barycenter position along world y axis                     [deg]
#   7 A_WORLD                Profile RMS along major axis (world units)                 [deg]
#   8 B_WORLD                Profile RMS along minor axis (world units)                 [deg]
#   9 THETA_WORLD            Position angle (CCW/world-x)                               [deg]
#  10 FWHM_WORLD             FWHM assuming a gaussian core                              [deg]
#  11 ELONGATION             A_IMAGE/B_IMAGE                                           
#  12 ELLIPTICITY            1 - B_IMAGE/A_IMAGE                                       
         1 -14.9463     68.5843    144.7668   9.0084281948e+01   3.7094832931e+01     4.628096     2.382501  78.95  0.002730014    4.081    0.755
         2 -14.1177    211.1798     43.6243   3.0105266167e+01   2.6756358854e+01     1.945624     1.420908  31.16  0.008090961    1.866    0.464
         3 -13.7055    227.3001     29.9666   2.5020712420e+01   2.4798353557e+01    0.8570708    0.8221602  74.44  0.002666427    1.222    0.182
         4 -12.6130    248.9099      7.8344   1.8420719424e+01   2.2681819507e+01     0.719521    0.3243143 -32.62  0.003748409    2.141    0.533
         5 -11.2171    124.1199    202.5410   8.5105098129e+01   1.5205862275e+01    0.4004952    0.2216199 -65.69  0.001798943    2.364    0.577
         6 -12.1997    139.6519    248.3503   8.7981717535e+01   4.5529029151e+00    0.4437098    0.4022362 -33.44  0.003164638    1.369    0.270
         7 -11.9239    114.9798    247.7578   9.2811784283e+01   8.3454393435e+00    0.4691082    0.2654837 -42.34  0.002549002    2.479    0.597
         8 -11.7750    119.8722    244.9822   9.1530799183e+01   8.0815059336e+00    0.2453637    0.2034135 -73.07 0.0009720647    1.483    0.326
         9 -11.3281    102.3965    250.2276   9.5544062258e+01   9.7587599162e+00     0.392995    0.1663353  42.49  0.001688764    1.820    0.450
        10 -12.7883    101.3037    243.4070   9.5076331601e+01   1.1083595027e+01    0.7714533    0.5110959  79.23  0.003177807    1.875    0.467
        11 -16.3113      8.7169    208.0136   1.1081704795e+02   2.9188059587e+01     9.198153     1.290608 -78.27   0.01305193    6.616    0.849
        12 -13.2167     29.6034    196.2851   1.0578119920e+02   2.9646318938e+01     0.492108    0.3454183 -45.94  0.001111241    1.927    0.481
        13 -15.4090     40.3909    187.6444   1.0266914385e+02   3.0397880697e+01     3.902622     1.736678  88.27   0.01692971    2.709    0.631
        14 -14.7442     55.5776    234.4008   1.0333389239e+02   1.8897630492e+01     1.775874    0.8730024  81.61  0.006368048    2.431    0.589
        15 -13.4903     15.9474    248.7725   1.1144696572e+02   2.0682540688e+01    0.2828225    0.1836453  83.57   0.00104035    1.321    0.243
        16 -16.8873      8.2604    243.4288   1.1253514036e+02   2.2398703151e+01     7.856871     2.752189  23.52  0.009259015    6.219    0.839
        17  -9.8746     86.8920    205.1979   9.3925484403e+01   2.0530333259e+01    0.2424716    0.1700039 -75.22 0.0008910382    1.529    0.346
        18 -10.3819     72.8433    204.6003   9.7013407123e+01   2.2647664588e+01    0.2510793    0.1788586  89.29 0.0008501805    1.437    0.304
        19 -11.5538    192.9337    194.8302   6.8733670221e+01   4.6341439924e+00     1.060954    0.5497763 -61.62  0.003050032    6.784    0.853
        20  -9.6279    157.9818    192.6604   7.5826678695e+01   1.1233032409e+01    0.2102154    0.1936117 -68.54 0.0005014537    1.308    0.236
        21  -9.9119     99.3894    180.8956   8.7690475100e+01   2.3893945251e+01     0.248601    0.1976625  32.47 0.0005850457    1.281    0.219
        22  -9.3545    180.0033    174.9796   6.7619491278e+01   1.0515761886e+01    0.2132881    0.1829626  88.23 0.0006046555    1.661    0.398
        23 -11.5029    230.6182    167.8212   5.6104507403e+01   2.5822325528e+00    0.4065683    0.2837942 -57.69   0.00201881    2.235    0.553
        24 -12.6522    234.7574    172.9061   5.6400294044e+01   1.0843240387e+00    0.6147687    0.2801716  28.06   0.00257005    2.689    0.628
        25 -12.6270    240.2365    169.7479   5.4802378091e+01   6.7715333985e-01    0.5913366    0.2397655 -32.76  0.002381915    2.299    0.565
        26 -12.6207     82.0951    151.8268   8.7501004950e+01   3.3419262999e+01    0.9922332    0.5968621 -46.93   0.00455511    1.765    0.434
        27 -13.5710     61.2163    153.4668   9.3482367747e+01   3.5944798170e+01    0.5002185    0.4142251 -51.75  0.001978734    1.266    0.210
        28 -12.6626     74.4082    157.6505   9.0540873307e+01   3.3141896420e+01    0.7102709    0.5931532  66.80 0.0007270667    1.180    0.153
        29 -13.0023    107.0672    213.1577   9.0403455877e+01   1.5848652634e+01    0.7975497    0.4212027  25.78   0.00356381    2.309    0.567
        30  -9.8832    192.0085    167.1683   6.3464822521e+01   9.6897931587e+00    0.2583721    0.2037513 -31.78  0.001225858    1.260    0.207
        31  -9.7288    110.7806    167.4755   8.2624520893e+01   2.5028077016e+01    0.2756201    0.1898467 -79.02 0.0007978679    1.842    0.457
        32 -11.0935    112.5838    173.1659   8.3159486178e+01   2.3426840296e+01    0.3592301    0.2012233  46.50  0.001578608    1.726    0.421
        33 -12.3422     34.9869    158.9720   1.0113822297e+02   3.7615641246e+01    0.7104373    0.3194301  61.04  0.003041195    2.657    0.624
        34 -10.0236    174.8754    149.1721   6.3271323985e+01   1.6543136096e+01    0.2274629    0.2140659  75.94 0.0007507064    1.243    0.195
        35  -9.6164     47.3905    145.7489   9.6196740012e+01   3.9495008211e+01    0.1962394     0.109334 -58.71 0.0009479075    1.639    0.390
        36 -10.2505     28.4783    142.7217   1.0104816389e+02   4.2148791608e+01    0.2289509    0.2058247 -41.83  0.001005592    1.291    0.225
        37  -9.1221    119.1912    141.4062   7.5294389491e+01   2.9525290657e+01    0.3160087    0.1153352 -48.68   0.00104556    2.742    0.635
        38 -10.8979     98.0056    138.2416   8.0490775667e+01   3.4133339305e+01    0.5755973    0.3929242 -13.45  0.002387547    2.338    0.572
        39 -12.5192     84.5965    137.4761   8.4182106973e+01   3.6528544901e+01    0.3058972    0.2698657 -52.12 0.0004843745    1.124    0.110
        40 -11.0574    107.0930    130.2015   7.6172931054e+01   3.4435478550e+01    0.4972612    0.3695638  13.76  0.002065461    1.700    0.412
        41 -10.0129    136.0000    129.4320   6.8077452946e+01   2.8894099990e+01    0.3474976   0.08941368 -46.75 0.0009335878    3.925    0.745
        42 -12.1368     58.8078    171.3710   9.6512024163e+01   3.1962571777e+01    0.4053455    0.2951853 -28.72   0.00196792    1.969    0.492
        43 -12.0010     64.0294    166.7082   9.4582956345e+01   3.2392696297e+01    0.3238129    0.2669583 -35.17 0.0005995353    1.503    0.335
        44  -9.3212     96.5070    124.4710   7.7956535057e+01   3.7708559341e+01    0.1497889    0.1457866 -40.19 1.019807e-05    1.032    0.031
        45  -9.2893    115.7880    123.4543   7.2131687349e+01   3.4364309184e+01    0.2208628    0.1497546  25.57 0.0009418851    1.718    0.418
        46  -9.4732    162.2234    119.8920   5.9190880654e+01   2.5246387619e+01    0.2265805    0.2108341 -72.95 0.0004398407    1.190    0.160
        47 -10.7137    133.8878    145.6744   7.2352768431e+01   2.5678099186e+01    0.9800236    0.2350003 -53.69  0.002226843    6.178    0.838
        48 -10.7217    231.2707    113.9216   4.4211767952e+01   1.1404367103e+01    0.2810241    0.2536544 -27.28 0.0007795765    1.015    0.015
        49 -11.0346    245.7882    113.2061   4.1828288668e+01   8.7116574048e+00    0.2211638    0.1508289   4.47  0.001069441    2.111    0.526
        50 -10.1426    205.4573    110.2094   4.7743726610e+01   1.7443523539e+01    0.3140367    0.2099928  41.99  0.001048064    1.592    0.372
        51  -9.8942    105.9149    118.1345   7.3687485745e+01   3.7505664359e+01    0.2165418    0.2125349 -22.12 0.0003032308    1.020    0.019
        52  -9.3731     73.0983    108.8773   8.1670975607e+01   4.5263007719e+01    0.2139046    0.1895955  80.18 0.0004730112    1.267    0.211
        53 -10.1558     66.1102    103.6440   8.2773554869e+01   4.7524018527e+01    0.2207659    0.1768612  54.67 0.0005275053    1.428    0.300
        54 -10.9220     54.2965     95.5494   8.4961877258e+01   5.0997369942e+01    0.2957394    0.2106509 -41.69  0.001112602    1.323    0.244
        55 -10.7967     46.3731     91.5540   8.6873675385e+01   5.2861902158e+01    0.2439475     0.215283  61.58 0.0006724698    1.331    0.249
        56 -10.8306     53.0762     90.6926   8.4246594799e+01   5.2293068149e+01    0.2858396    0.1855996 -48.76 0.0008074643    1.370    0.270
        57 -10.0475    234.1729     86.2291   3.7360743133e+01   1.5313291455e+01     0.192298    0.1505067 -61.39 0.0006479007    1.331    0.249
        58  -9.1129    162.2748     84.6582   4.9671375933e+01   3.2176275311e+01    0.1572755    0.1207084 -70.04 0.0003261844    1.617    0.382
        59 -10.1018     59.1807     78.1913   7.8718176553e+01   5.4383025193e+01    0.2135795    0.1792191 -26.27  0.001006886    1.132    0.117
        60 -10.8023     30.8466     60.8482   8.5219709486e+01   6.1362180642e+01    0.4838554    0.2232145  41.53  0.002154902    2.918    0.657
        61 -11.8543     13.0775     60.0207   9.2706611993e+01   6.2870657017e+01     0.309971     0.268187  27.49 0.0006561427    1.417    0.294
        62 -13.0247    201.9709     49.8953   3.2923226658e+01   2.8087324571e+01    0.8374423    0.5905331  60.69  0.001406562    1.410    0.291
        63 -11.6328    138.2714    213.2170   8.3540655344e+01   1.0779858095e+01    0.3326014    0.1998268  28.58  0.001371165    1.654    0.396
        64  -8.8456    224.0069    206.9632   6.4897956343e+01  -2.3482093264e+00    0.1523675    0.1230625   6.74 0.0003344069    1.009    0.009
        65 -10.1544     17.8226     55.0013   8.9344942390e+01   6.3648323548e+01    0.3118997    0.1166647  44.24  0.001112351    5.146    0.806
        66 -11.0087      8.9872     51.0042   9.2324738457e+01   6.5042968103e+01    0.2046981    0.1063503 -37.52 0.0004606172    1.632    0.387
        67 -10.7797      2.8194     49.3032   9.4755609745e+01   6.5709694022e+01     0.253161    0.1799144  12.75  0.001480178    1.639    0.390
        68 -12.4452    220.8033     35.7983   2.7066841269e+01   2.5543082358e+01     0.441923    0.3505036  42.08  0.001080165    1.564    0.361
        69  -9.8887    197.8786     24.0210   2.6716894510e+01   3.2411277294e+01    0.2292994    0.1881392   9.42  0.001105053    1.637    0.389
        70  -9.3536    189.6817     15.0301   2.5305362277e+01   3.5418868380e+01    0.1804475    0.1657214 -66.41 0.0005562567    1.104    0.094
