#   1 NUMBER                 Running object number                                     
#   2 MAG_AUTO               Kron-like elliptical aperture magnitude                    [mag]
#   3 X_IMAGE                Object position along x                                    [pixel]
#   4 Y_IMAGE                Object position along y                                    [pixel]
#   5 X_WORLD                Barycenter position along world x axis                     [deg]
#   6 Y_WORLD                Barycenter position along world y axis                     [deg]
#   7 A_WORLD                Profile RMS along major axis (world units)                 [deg]
#   8 B_WORLD                Profile RMS along minor axis (world units)                 [deg]
#   9 THETA_WORLD            Position angle (CCW/world-x)                               [deg]
#  10 FWHM_WORLD             FWHM assuming a gaussian core                              [deg]
#  11 ELONGATION             A_IMAGE/B_IMAGE                                           
#  12 ELLIPTICITY            1 - B_IMAGE/A_IMAGE                                       
         1  -9.4989    138.5406     64.8085   8.8818336044e+01   4.1841754069e+01    0.3766178    0.1384677 -39.41   0.00132462    2.760    0.638
         2 -10.6890      3.0322     27.2541   1.2196719246e+02   6.8388763750e+01    0.2803656    0.1804397 -47.69  0.002004415    1.378    0.274
         3 -11.9380    189.0253     20.1887   6.6722406721e+01   3.5653023739e+01    0.3793093    0.3165465 -46.93    0.0020192    1.281    0.219
         4  -9.0347     97.5032     12.4979   8.1393613738e+01   5.7647151102e+01    0.2094408    0.1147389  -5.79 0.0009259855    2.267    0.559
         5  -9.9242    206.4884      2.4838   6.0395376490e+01   3.3319678135e+01    0.1288754     0.104629 -89.77 0.0005016306    1.010    0.010
         6 -10.9436    166.1620    242.5970   1.2195278449e+02   2.1033513879e-01    0.5839188    0.1900269  43.79  0.002329313    2.570    0.611
         7 -12.6788    247.3320    233.1608   1.0521143680e+02  -1.1880589710e+01     1.584183    0.6489788 -38.60  0.007625996    2.628    0.619
         8 -12.2443    223.4080    246.0719   1.1171026319e+02  -9.9121774536e+00     1.072389    0.6515336  43.70   0.00618076    1.607    0.378
         9 -11.6874    212.1519    248.0088   1.1408723296e+02  -8.3817447077e+00    0.6216592    0.5779977  20.42  0.004436607    1.212    0.175
        10  -8.5003    103.3235    241.7164   1.3388679764e+02   1.1055190192e+01    0.1305085   0.07974898  66.60 0.0004088309    1.596    0.374
        11 -11.6820    163.9547    226.6508   1.1997209704e+02   3.3018753273e+00    0.8049722    0.5153025  43.60   0.00425605    1.358    0.264
        12 -10.8554    160.2370    236.3705   1.2218966853e+02   2.2876300792e+00    0.3615746    0.2503964 -32.77  0.001943156    1.894    0.472
        13  -9.3816    107.4802    236.5889   1.3250769129e+02   1.1343310808e+01    0.2656367     0.153611  77.13    0.0012935    2.204    0.546
        14  -9.0959     99.2880    230.3474   1.3335696182e+02   1.3872770370e+01    0.1122791    0.1028662 -20.28 0.0004236899    1.657    0.397
        15  -8.8126    144.5359    229.2285   1.2425132205e+02   6.3473483520e+00    0.1626566    0.1283007 -36.69 0.0006487143    1.607    0.378
        16  -9.6579    114.5693    228.3311   1.3010714044e+02   1.1746031477e+01    0.2779849    0.1235038 -56.39 0.0009727675    2.473    0.596
        17 -10.4343     97.3580    227.0599   1.3334706573e+02   1.4831162592e+01    0.2834552    0.1601606  45.03   0.00106003    1.582    0.368
        18  -9.4750     88.2379    227.0061   1.3512029527e+02   1.6278323686e+01    0.1548059   0.09957084 -70.22 0.0003713278    1.578    0.366
        19  -8.6194    185.4369    226.5495   1.1568574913e+02  -5.7627133939e-01    0.1325588    0.1160042  35.29 0.0002962735    1.015    0.015
        20  -9.4173    104.0777    225.3428   1.3181292690e+02   1.4082078315e+01    0.1928193    0.1436065  58.11 0.0005493578    1.141    0.124
        21  -9.4835    148.5717    221.2107   1.2223701913e+02   7.1012342411e+00    0.3632628    0.1361437 -53.15  0.001418801    3.083    0.676
        22 -11.2419    125.5124    221.0200   1.2692038004e+02   1.1285476437e+01    0.4117529    0.2803985  38.97 0.0009980412    1.443    0.307
        23 -10.2791    114.6967    221.9132   1.2924181143e+02   1.2984691593e+01    0.2911106    0.2206205 -42.62  0.001405298    1.736    0.424
        24 -10.2456    109.2750    222.4110   1.3040206156e+02   1.3803389159e+01    0.2447544    0.2104674  40.89  0.001510228    1.292    0.226
        25  -9.6803     19.8878    222.8376   1.4733574090e+02   2.6113647303e+01    0.1620198    0.1330846  89.90  0.001233216    1.269    0.212
        26  -9.3474    158.0276    221.7759   1.2039931659e+02   5.2613453313e+00    0.2526371    0.1771124  29.25 0.0009366482    1.532    0.347
        27 -12.6563    238.1834    243.4254   1.0860396656e+02  -1.1841053545e+01      1.51368    0.9369025  52.00  0.008286865    2.274    0.560
        28  -8.8023    183.0213    220.1758   1.1509422088e+02   9.3838503860e-01    0.2218128    0.1418189  19.98 0.0008047064    1.988    0.497
        29 -11.1325    100.0226    218.0886   1.3171780498e+02   1.6212714036e+01    0.5378128    0.3052242  69.59    0.0025591    2.036    0.509
        30  -8.7116     90.9722    218.2936   1.3356866743e+02   1.7623889642e+01    0.2187412   0.06879182  55.45 0.0007015861    4.065    0.754
        31  -9.3974    143.7402    216.3443   1.2247800829e+02   8.9137828640e+00    0.2739224    0.1809741 -53.24  0.001075871    1.683    0.406
        32 -10.2147    131.2027    215.1631   1.2489915016e+02   1.1429948079e+01    0.3877161    0.2108527 -54.19  0.001544366    2.015    0.504
        33  -8.5629    175.6937    216.3049   1.1591051967e+02   2.9728710647e+00    0.1336831    0.1046151  72.06 0.0007014787    1.604    0.376
        34 -10.0829    112.3370    214.6841   1.2874508517e+02   1.4849058672e+01    0.3464129     0.230538 -45.66  0.001799036    1.887    0.470
        35 -12.6247    233.0115    230.2488   1.0727200674e+02  -9.2722642898e+00     1.130682    0.8720574 -18.02  0.007213263    1.285    0.222
        36  -8.3819    179.6980    215.6615   1.1498940793e+02   2.3403936138e+00    0.1371916     0.104214   5.57 0.0007037562    1.668    0.401
        37  -9.2703    185.9830    212.6250   1.1318989927e+02   1.7026958075e+00     0.286132     0.189051 -30.71  0.001437734    1.782    0.439
        38  -8.5436    199.4082    212.7783   1.1053755560e+02  -8.1050247813e-01     0.179417    0.1263969 -25.82 0.0009394701    1.604    0.377
        39  -9.9143     76.3949    213.2240   1.3590004041e+02   2.0913046275e+01    0.1944387    0.1461645  89.30  0.001177866    1.188    0.158
        40  -9.4988     74.5607    219.3448   1.3694140594e+02   1.9901259522e+01    0.2748545    0.1186115  52.91  0.001107169    2.094    0.522
        41 -10.4359    116.2353    209.1340   1.2714655861e+02   1.5321036343e+01    0.4688347    0.2454699 -59.54  0.002005839    2.028    0.507
        42  -8.8627    193.4389    207.8371   1.1082787169e+02   1.1471494352e+00    0.1869997     0.129118 -25.63 0.0009215706    1.699    0.411
        43  -9.2779     99.4891    206.4826   1.3030594164e+02   1.8733020422e+01    0.3225235    0.1777536  73.92  0.001189161    2.465    0.594
        44  -9.4509    123.9954    205.9864   1.2503184341e+02   1.4598575942e+01    0.2031073    0.1716007  66.89            0    1.079    0.073
        45 -10.7829    249.9116    200.4369   9.8711301141e+01  -7.6493310459e+00    0.4743282    0.2153302 -19.63  0.001767977    3.575    0.720
        46  -9.2462    164.3280    203.6727   1.1606999247e+02   7.4815749950e+00    0.2147398     0.164229  75.90  0.001085229    1.636    0.389
        47 -10.2426    164.7363    198.7229   1.1510030921e+02   8.3677472879e+00    0.3886751     0.286654 -14.25  0.001583739    1.939    0.484
        48 -10.6932    126.1972    197.3591   1.2319923467e+02   1.6017853483e+01    0.8116271    0.4922519  80.78  0.003334866    2.570    0.611
        49  -9.4442    124.7832    192.3853   1.2269562358e+02   1.7349801978e+01    0.2755707    0.2315627 -46.09  0.001213637    1.357    0.263
        50  -9.0190    185.6810    201.4907   1.1123279127e+02   3.7642326636e+00    0.2367065    0.1684673 -18.62  0.001155057    1.802    0.445
        51  -9.0097    198.7768    201.1696   1.0851613785e+02   1.3157009892e+00    0.1951197    0.1566195   7.97 0.0008987412    1.364    0.267
        52  -9.6655     88.9075    199.2864   1.3158163057e+02   2.2007368648e+01    0.3030169     0.176051 -84.07  0.001209322    2.005    0.501
        53 -10.6733    172.8815    195.6007   1.1280120920e+02   7.3785585295e+00    0.3603967    0.3111033 -59.94  0.001392168    1.284    0.221
        54 -10.0877    173.5361    191.5488   1.1189927475e+02   8.0419139367e+00    0.4337311    0.2419425 -59.37  0.001759049    2.363    0.577
        55  -9.9531    132.0438    195.3153   1.2158105624e+02   1.5367363641e+01    0.2640685    0.1955091  49.11  0.001367649    1.251    0.201
        56  -8.8635     66.3737    194.5755   1.3578326924e+02   2.6414513538e+01    0.2500162    0.1070852 -81.81 0.0008421888    3.226    0.690
        57  -9.3861    162.2110    193.2616   1.1464295599e+02   9.9517572906e+00    0.3885486    0.1719767 -47.38  0.001526667    2.416    0.586
        58 -10.3408    139.0859    188.2391   1.1879943244e+02   1.5538773893e+01    0.5479175    0.2396272 -54.75  0.002115565    2.464    0.594
        59  -8.5243    179.4600    189.4916   1.1025037483e+02   7.2615219574e+00    0.1442207    0.1365908  40.80 9.563242e-05    1.016    0.016
        60  -9.1027    129.2627    188.0684   1.2096545467e+02   1.7453615517e+01    0.4481235    0.1302774 -58.01  0.001302004    4.382    0.772
        61  -9.5266    112.6573    197.6877   1.2621093408e+02   1.8384325359e+01    0.2717746    0.1615564 -85.63  0.001055948    2.359    0.576
        62  -9.2862    156.1569    187.5539   1.1489744551e+02   1.2323518817e+01    0.2938663    0.1923635 -69.25  0.001174756    2.008    0.502
        63  -9.7485     94.4643    186.5381   1.2855171618e+02   2.3961773553e+01    0.3818587    0.2136325  89.30  0.001544344    2.632    0.620
        64  -9.2640    165.5645    186.7648   1.1269607190e+02   1.0598683321e+01     0.258255    0.1430078 -59.68 0.0008686691    2.296    0.564
        65  -8.5749     34.3615    187.6773   1.4170767351e+02   3.1967810864e+01    0.1335093   0.07409329  70.78 0.0007042107    1.779    0.438
        66  -9.4765    109.3302    186.0137   1.2511524971e+02   2.1550828762e+01    0.2721123    0.1807486  67.91 0.0009937773    1.652    0.395
        67  -9.5170    210.9609    183.6233   1.0263978813e+02   2.1207964308e+00    0.4127566    0.2593804  12.36  0.001730517    2.416    0.586
        68  -9.8714    174.3158    183.6589   1.1020381224e+02   9.4549173842e+00    0.2602348    0.2072498 -60.56  0.000936474    1.409    0.290
        69 -10.1666    174.9001    179.2146   1.0919210985e+02   1.0233435011e+01    0.4016897    0.2790815   5.00  0.001691139    2.300    0.565
        70  -8.7880     74.4061    184.2081   1.3270926057e+02   2.7609854622e+01    0.1952056    0.1153702 -80.51 0.0009429118    1.748    0.428
        71  -8.7029    197.5740    182.1860   1.0503341135e+02   5.0322247937e+00    0.2023991     0.136338 -28.58 0.0009443048    1.664    0.399
        72  -9.7624    120.7923    186.4145   1.2258914521e+02   1.9396635464e+01    0.4743831     0.198526 -63.35  0.001691769    2.987    0.665
        73  -9.6661    147.5069    180.0328   1.1539851287e+02   1.5647446586e+01    0.3453095    0.2171812 -73.52  0.001420647    2.259    0.557
        74  -9.8190    148.7388    175.9589   1.1433437609e+02   1.6281264319e+01    0.3622366    0.2703806  -6.35  0.001608967    2.098    0.523
        75 -10.0075    137.9889    178.1768   1.1720589895e+02   1.7943162602e+01    0.4834768    0.2240962 -52.12  0.001690147    2.230    0.552
        76  -9.7948    204.8583    176.2271   1.0233082871e+02   4.6939536367e+00    0.3105587    0.2027485 -32.75 0.0009912972    1.608    0.378
        77  -9.1308     88.2904    176.9977   1.2850516804e+02   2.7150122640e+01    0.2019906     0.173037 -87.16 0.0008715243    1.049    0.047
        78 -10.1308     76.9634    175.7429   1.3093359569e+02   2.9186359374e+01    0.4510143    0.2143735  60.78  0.001812899    2.667    0.625
        79  -9.7869    182.7695    174.4724   1.0653660334e+02   9.5641479775e+00     0.481506    0.1920834 -38.55  0.001668817    2.845    0.649
        80 -10.2823    105.5780    175.1939   1.2418346595e+02   2.4675445498e+01    0.3527857    0.2284533  80.06  0.001210619    1.984    0.496
        81  -8.7745      3.3459    174.6484   1.4682168631e+02   3.7826571052e+01    0.1247787    0.0653659  71.91 0.0007039494    1.818    0.450
        82  -8.4312    193.3195    173.3075   1.0407590434e+02   7.6084200658e+00    0.1503013    0.1156432   5.19 0.0004823633    1.638    0.389
        83  -9.1808    177.1615    171.2707   1.0707405801e+02   1.1386654332e+01    0.2829601    0.1987415 -74.32  0.001220793    2.046    0.511
        84  -9.6130    134.7357    170.7072   1.1653188248e+02   2.0248397979e+01    0.4962381    0.2097462 -58.85  0.001723584    2.813    0.645
        85  -9.9811    121.7169    169.5696   1.1937400439e+02   2.3028284991e+01    0.4171825     0.283523 -87.94  0.001642334    1.930    0.482
        86  -8.7056    207.2431    170.6012   1.0067030877e+02   5.2738388927e+00    0.2054886    0.1337686  33.69 0.0009404143    1.622    0.383
        87  -9.1144     55.7837    170.2043   1.3503524390e+02   3.3400623340e+01    0.2325915    0.1157883  70.70 0.0009531532    2.799    0.643
        88  -9.5702    149.7372    167.7545   1.1246932365e+02   1.7871054571e+01    0.4094447    0.1901364 -42.80  0.001525315    2.356    0.576
        89  -8.8368    168.3024    166.9229   1.0810234967e+02   1.4162021482e+01    0.4043569    0.1274967 -38.64  0.001110594    4.310    0.768
        90  -9.2804     88.4356    167.4628   1.2694585666e+02   2.9355187984e+01    0.3771053    0.1293432 -59.27  0.001359218    2.759    0.638
        91  -9.6651     99.2103    166.3224   1.2416319079e+02   2.7841987464e+01    0.3223107    0.1981178  66.42  0.001159819    1.969    0.492
        92  -9.2142    185.3038    164.8624   1.0396554006e+02   1.0976641876e+01    0.3749429    0.1292454 -35.67  0.001070273    4.027    0.752
        93  -9.7928    139.5587    165.3892   1.1435168013e+02   2.0479150426e+01     0.483927    0.3075004  85.81  0.001816077    2.704    0.630
        94  -9.6982    138.7050    159.6437   1.1337641534e+02   2.1949656063e+01    0.3545509    0.2437252  -0.41  0.001337211    2.865    0.651
        95  -9.4963    159.4599    164.4870   1.0957200390e+02   1.6554064907e+01    0.2741482    0.2101616  88.19 0.0009013343    1.680    0.405
        96  -9.7721     79.5221    163.6005   1.2845871400e+02   3.1653076603e+01    0.4564699    0.2366799  83.89  0.001547878    3.808    0.737
        97  -8.9115     37.9786    164.9991   1.3844490351e+02   3.6709834358e+01    0.2115635    0.1272781  73.39 0.0008790272    1.757    0.431
        98  -8.3861    219.5707    163.4911   9.6737515190e+01   4.1107724270e+00    0.1430108    0.1357012 -18.46 0.0002521185    1.021    0.020
        99  -9.7061      9.2164    160.9640   1.4439544431e+02   4.0360351534e+01    0.3811505    0.1440813  84.00  0.001438399    4.010    0.751
       100  -9.5144    151.3509    160.2573   1.1053710828e+02   1.9190127821e+01    0.3867928    0.2564119 -59.32  0.001704559    1.645    0.392
       101  -9.4945     92.6956    159.9965   1.2463345191e+02   3.0426844342e+01    0.3306468    0.2122268  88.96  0.001464766    2.012    0.503
       102  -9.2143    177.4575    158.9061   1.0436113889e+02   1.3890357353e+01    0.5237688    0.1506986 -43.32  0.001539935    3.563    0.719
       103  -9.4181    128.4432    159.2347   1.1574836742e+02   2.4103538854e+01    0.2155117     0.143023 -66.96 0.0009312078    1.686    0.407
       104  -9.7663    105.4793    157.4837   1.2101750835e+02   2.8830389192e+01    0.4173235    0.2798816 -82.83  0.001598127    1.833    0.455
       105  -8.8116    167.3819    157.1731   1.0621046784e+02   1.6438898547e+01    0.2249031    0.1433957 -58.27 0.0007903939    1.784    0.439
       106 -10.0437    119.6290    155.2635   1.1708958183e+02   2.6737485242e+01    0.3574063    0.2479441 -84.13  0.001388088    1.849    0.459
       107 -10.1343     81.7297    154.0550   1.2630852736e+02   3.3583912209e+01    0.5477861    0.2977346 -77.30  0.002261265    2.309    0.567
       108  -9.9302     50.1427    155.5740   1.3435186484e+02   3.7521314804e+01    0.3685067    0.1893075  60.62  0.001681503    2.376    0.579
       109  -8.7197    212.2467    155.2998   9.6360609082e+01   7.1591999707e+00    0.2363147    0.1147604 -50.45 0.0008900966    2.339    0.573
       110  -9.9004    144.8472    154.8585   1.1090679575e+02   2.1760737917e+01    0.5419202    0.2734458 -60.68  0.001952991    2.504    0.601
       111 -10.2126    133.7582    153.2344   1.1321624269e+02   2.4418171584e+01    0.4252267    0.2876105  83.25  0.001736254    2.172    0.539
       112  -9.9286     67.5639    153.2843   1.2972028320e+02   3.5828440114e+01     0.407975    0.2268837  79.25  0.001657847    2.746    0.636
       113  -9.1237     98.3222    150.4692   1.2146208586e+02   3.1741826078e+01    0.2550891    0.1710743 -80.26 0.0008066364    1.768    0.434
       114  -9.6935     28.8073    150.1252   1.3874951522e+02   4.1084547449e+01    0.3866207     0.181106  79.65  0.001584509    3.226    0.690
       115  -8.9462     22.3040    151.6223   1.4046450282e+02   4.1346349320e+01    0.1301584   0.07750187  77.24 0.0007027043    1.772    0.436
       116  -9.3286    189.8629    150.0732   9.9724953104e+01   1.3011907577e+01    0.2617467    0.1802633 -71.36  0.001084697    2.079    0.519
       117 -10.1694     39.7043    147.8901   1.3581396525e+02   4.0500681634e+01     0.390254    0.2079227  71.90  0.001780853    2.525    0.604
       118  -8.5707    200.3053    148.6882   9.7252410155e+01   1.1005117086e+01    0.1512222    0.1209494 -81.60 0.0002721549    1.616    0.381
       119 -10.8469     56.5270    146.1646   1.3134813031e+02   3.8965670173e+01    0.5552518    0.2927854  69.98  0.002274819    2.915    0.657
       120 -10.7889    149.3936    145.5749   1.0777474504e+02   2.2879814582e+01    0.5746143    0.3695974  81.42  0.001993231    2.689    0.628
       121 -10.2651    107.0810    145.0636   1.1814846121e+02   3.1476115638e+01    0.5793424    0.3529931  84.10  0.002133469    2.909    0.656
       122  -9.1854     13.1355    146.2829   1.4199420060e+02   4.3341937638e+01     0.209586    0.1387522  63.13 0.0009997322    1.596    0.374
       123 -10.4193    124.8641    142.4598   1.1307627268e+02   2.8695966387e+01    0.6610506    0.3300675 -65.73  0.002244959    2.921    0.658
       124 -10.4297     88.0512    143.0195   1.2265359519e+02   3.5222058889e+01    0.6057751    0.2557957 -62.53  0.002115456    2.487    0.598
       125  -8.9264    165.7951    144.2096   1.0364762225e+02   1.9586626280e+01    0.2733532    0.1776388 -89.05 0.0009630491    2.861    0.651
       126 -10.7546     69.9653    141.1527   1.2702894724e+02   3.8383455026e+01    0.4030291     0.234079  80.85  0.001640785    2.727    0.633
       127  -9.4909    107.2477    138.3176   1.1667945766e+02   3.3036440206e+01    0.3453635    0.2152134 -14.62  0.001138567    3.907    0.744
       128 -10.1177     23.1252    137.7508   1.3854226685e+02   4.4452911132e+01    0.5308708    0.2427907  84.24  0.002119766    3.490    0.713
       129  -8.4988    197.5995    137.8244   9.5293656992e+01   1.3780146057e+01     0.223293    0.1407167 -51.66 0.0009471332    1.672    0.402
       130 -10.3348     38.9218    136.2552   1.3431297315e+02   4.3300570704e+01    0.2881483    0.1635577 -83.99  0.001143125    1.918    0.479
       131  -8.7104    179.4928    133.9811   9.8186165626e+01   1.8677578343e+01    0.2305411    0.1331665 -64.27   0.00081049    2.584    0.613
       132  -9.6113    143.3647    131.8772   1.0603225582e+02   2.7255000373e+01    0.3540854     0.258978 -76.23  0.001003789    1.741    0.426
       133 -10.4437    132.2116    130.8556   1.0855986045e+02   2.9863168009e+01    0.6804056    0.2854223 -56.01  0.002243693    2.812    0.644
       134  -9.4740    112.6602    133.1394   1.1412178305e+02   3.3241195440e+01     0.247532    0.1877484 -76.34  0.001116229    1.503    0.335
       135 -10.7005     83.4619    131.8613   1.2163623447e+02   3.8598465691e+01       0.4821    0.3225607  83.72  0.001444683    2.086    0.521
       136  -9.7883     83.5795    123.3818   1.1980264456e+02   4.0573582034e+01    0.5140427    0.2068362 -40.10  0.001735947    3.276    0.695
       137  -9.5815    153.2364    129.8341   1.0315557971e+02   2.5532323390e+01    0.3623207    0.2432815 -67.49  0.001157304    1.898    0.473
       138  -9.5912    169.0174    130.2003   9.9589327356e+01   2.1875905454e+01      0.26683    0.1871878  80.60  0.001082246    2.031    0.508
       139 -10.2673     98.9761    127.9974   1.1660235075e+02   3.6940331022e+01    0.5421562    0.3330796 -82.84  0.001950973    2.698    0.629
       140  -9.8212     98.4866    120.5205   1.1501940779e+02   3.8762785092e+01    0.4141713    0.2627216 -17.29  0.001581771    2.888    0.654
       141 -11.4853     72.3742    129.0904   1.2409427686e+02   4.0904659111e+01    0.4762436    0.3851187  58.27  0.002671739    1.351    0.260
       142  -9.6903     12.5138    128.8443   1.4005054238e+02   4.7332500625e+01    0.4141066    0.1894734  85.29  0.001780202    3.166    0.684
       143 -10.0654    117.8774    124.8588   1.1082168841e+02   3.4146078400e+01    0.6030963    0.3872934 -73.78   0.00243447    2.193    0.544
       144 -11.3962     59.7744    124.6262   1.2669721830e+02   4.3642582421e+01    0.6402553    0.3603235  86.30  0.002476227    3.281    0.695
       145 -11.0681     43.8426    122.6651   1.3076082967e+02   4.5948259021e+01    0.7558712     0.384213 -87.28  0.002942267    3.352    0.702
       146  -9.3027    179.8873    124.8209   9.5872812580e+01   2.0495784025e+01    0.3789975    0.2539096  87.80  0.001441155    2.442    0.590
       147  -9.5239    158.8745    121.8088   9.9838213519e+01   2.5998635728e+01    0.3062225    0.2081272 -72.31   0.00122847    2.039    0.510
       148 -10.8464     28.0736    121.8795   1.3496092853e+02   4.7658598684e+01    0.7254971    0.3425702  79.31  0.002464094    5.116    0.805
       149 -10.5262    141.7397    118.6820   1.0317279991e+02   3.0536308181e+01     0.716548    0.3334882 -57.25  0.002384406    2.808    0.644
       150 -10.3752     71.4704    120.4643   1.2257199457e+02   4.3054389177e+01    0.3442837    0.2160659  84.88  0.001228138    2.606    0.616
       151  -9.6934     13.9719    120.3370   1.3852489234e+02   4.9140647405e+01    0.2710744   0.08527128 -49.73  0.001169482    2.803    0.643
       152  -9.9422    130.5596    118.1056   1.0585129556e+02   3.3078524998e+01    0.4564672    0.2852517 -70.03  0.001600671    2.326    0.570
       153 -10.1673      2.4701    114.4719   1.4078512114e+02   5.1208151624e+01    0.7708225    0.2131365 -76.31  0.002739166    4.201    0.762
       154 -10.7430    108.8692    112.2748   1.1014488485e+02   3.8741025236e+01    0.9613376      0.35494 -53.49  0.003185278    2.910    0.656
       155 -10.7021     79.1363    112.7705   1.1867335233e+02   4.3710289787e+01    0.5675415    0.3551968 -83.86  0.002233699    2.634    0.620
       156 -10.5786     92.6770    112.7062   1.1477848845e+02   4.1553246233e+01    0.5762495    0.3452589 -70.07  0.001941065    2.259    0.557
       157  -9.8643     92.6440    104.6974   1.1279333270e+02   4.3354391244e+01    0.4294008    0.2425303 -26.91  0.001651953    2.686    0.628
       158 -10.0013    122.2184    111.5750   1.0635858683e+02   3.6260108249e+01    0.5716167    0.2361881 -42.23  0.002003206    2.473    0.596
       159  -9.1402    175.0615    112.2472   9.3755001084e+01   2.4216132245e+01    0.2622105    0.1856408  86.51  0.001075934    1.990    0.497
       160  -9.2862    159.3133    112.0648   9.7243302366e+01   2.7962655518e+01    0.2332584    0.2005332 -52.48  0.000837608    1.164    0.141
       161 -11.3804     66.5025    110.1799   1.2176723568e+02   4.6106758610e+01    0.6001467    0.3059149 -70.35  0.002400964    2.653    0.623
       162 -10.6409     14.1397    109.5484   1.3688160991e+02   5.1537188047e+01    0.5534682    0.2360139 -61.63  0.002547984    1.743    0.426
       163 -10.9828     22.6634    102.2864   1.3320215229e+02   5.2512500989e+01     0.671306    0.3820268  79.74  0.003179317    2.900    0.655
       164 -10.1744     21.1615     92.8197   1.3189408038e+02   5.4692294894e+01    0.4073237    0.1820715 -39.18  0.002005809    2.268    0.559
       165  -9.6165    133.1944    108.8104   1.0276978677e+02   3.4548475290e+01    0.4040326    0.2178849 -51.15  0.001591476    1.925    0.480
       166 -10.1306     59.4795    109.5143   1.2369086204e+02   4.7169186345e+01    0.2353698    0.1612781 -79.16  0.001020454    1.755    0.430
       167 -10.3862     61.2169    106.5900   1.2253061113e+02   4.7612151921e+01    0.2870132    0.1777153  15.15  0.001379773    2.224    0.550
       168 -11.5568     45.6960    102.5655   1.2632815065e+02   5.0329895756e+01    0.7600287     0.441904  78.97  0.003057783    3.645    0.726
       169 -10.4351     45.1520     92.3813   1.2424676366e+02   5.2625102331e+01    0.4509723    0.2522852 -13.11  0.001973633    3.058    0.673
       170  -9.1814    166.7426    104.3348   9.3524490522e+01   2.7799376364e+01    0.2990168    0.1891488 -53.39  0.001213969    1.700    0.412
       171  -9.7445    139.7448    104.0351   9.9833513499e+01   3.4122343422e+01    0.4926048     0.284242 -50.52  0.001963994    1.802    0.445
       172  -9.9115    150.0435    102.5374   9.6905355858e+01   3.2091421974e+01    0.5712071    0.2340377 -49.77  0.001897438    2.705    0.630
       173  -9.1549      6.6609    102.6877   1.3794243788e+02   5.3534750131e+01     0.236422      0.12119 -88.87  0.001170357    2.512    0.602
       174  -9.2086      7.4312     97.3691   1.3687342893e+02   5.4640157986e+01    0.3508303          nan -52.59  0.001120796    4.906    0.796
       175  -9.0178    175.4311    102.2234   9.1074373575e+01   2.6138129444e+01    0.2238868    0.1443978 -52.04 0.0009438174    1.626    0.385
       176  -9.9666    128.7139    100.0770   1.0157842368e+02   3.7368436808e+01    0.6049978    0.2957183 -35.99   0.00224755    2.292    0.564
       177 -10.4569    109.1861     99.1710   1.0661727614e+02   4.1547108562e+01    0.7152696    0.4344261  72.63   0.00252475    3.366    0.703
       178  -9.3869    107.2450     92.7488   1.0538914811e+02   4.3271998605e+01    0.4019955    0.2740244  -3.48  0.001688696    2.319    0.569
       179  -8.6735    160.0295    101.5230   9.4292004493e+01   2.9960623864e+01     0.212523    0.1389957  78.55 0.0006025964    2.295    0.564
       180  -9.8530     82.2859    100.2267   1.1469392421e+02   4.6036293176e+01    0.3430399    0.2299732 -89.29   0.00126196    2.659    0.624
       181  -9.9362     94.8196     97.1255   1.1017470088e+02   4.4628855605e+01    0.3738523    0.2053786 -59.96  0.001364267    2.213    0.548
       182  -9.4059     95.8013     91.5744   1.0836697847e+02   4.5630903325e+01    0.3375365    0.2102079 -17.64  0.001373194    2.485    0.598
       183 -11.1038     63.8406     96.1658   1.1928619484e+02   4.9586853575e+01    0.5087583    0.3355281 -86.56  0.002084976    2.561    0.610
       184  -9.3503    176.9711     93.9707   8.8567949446e+01   2.7365620066e+01    0.2578348    0.1898123 -77.45  0.001135153    1.717    0.418
       185  -8.9852    164.5163     94.0152   9.1251698096e+01   3.0374456062e+01    0.2419892    0.1525403 -42.15  0.001030457    1.591    0.371
       186  -9.4292    138.5138     90.8697   9.6501230599e+01   3.7083086773e+01     0.483561    0.2380175 -46.80  0.001854477    2.096    0.523
       187  -9.7391    123.9339     90.5910   1.0018563119e+02   4.0335767236e+01    0.4588426    0.2968739 -71.83  0.001672135    2.559    0.609
       188  -9.5416    124.4928     86.0237   9.8721269768e+01   4.1123648531e+01    0.4061145    0.2705422   1.39  0.001596329    2.566    0.610
       189 -10.3254      6.2447     86.1130   1.3530038290e+02   5.7106877068e+01    0.4477843    0.1442659 -36.90  0.001861908    3.694    0.729
       190 -10.2793     34.5951     89.4887   1.2695926339e+02   5.4289683893e+01    0.5004551     0.235364 -71.29  0.002148313    2.822    0.646
       191  -9.9488     36.2676     81.9766   1.2468684609e+02   5.5722659627e+01    0.4409718    0.2105874 -22.71  0.001792573    3.548    0.718
       192  -8.8004    151.0000     89.0010   9.2947304223e+01   3.4564924818e+01    0.2523379   0.08791109 -39.98 0.0006846963    2.902    0.655
       193 -10.5244     86.6350     86.9994   1.0982903806e+02   4.8151509884e+01    0.4447767    0.3113845  79.66  0.001762728    2.599    0.615
       194 -10.2142     64.5189     87.3428   1.1682720611e+02   5.1387949064e+01    0.3000166     0.181382 -14.40  0.001317961    2.570    0.611
       195 -10.7405     48.2716     84.4258   1.2132859067e+02   5.3982734049e+01     0.440528    0.3051997  82.96  0.002195298    2.525    0.604
       196 -10.1595     49.1599     77.6459   1.1928106146e+02   5.5283982116e+01    0.3854059    0.2273666 -13.24  0.001839028    2.436    0.589
       197 -10.5993    104.4975     82.8034   1.0331339581e+02   4.5811261125e+01    0.5450526    0.3072642 -59.09  0.002188722    2.445    0.591
       198  -9.7368    140.5758     82.2631   9.3521933412e+01   3.8273253817e+01     0.371179    0.1497291 -37.78  0.001295018    2.575    0.612
       199  -9.9328     24.4565     80.8085   1.2833909579e+02   5.6984867840e+01    0.3403395    0.2142268 -85.71  0.001476166    2.398    0.583
       200  -9.9208     74.5504     80.5494   1.1176085264e+02   5.1369754172e+01    0.2886649    0.2196835 -72.60  0.001482329    1.786    0.440
       201  -8.8076    157.9753     91.2060   9.1949488751e+01   3.2485828263e+01    0.2323081    0.1689507 -61.98  0.001036923    1.590    0.371
       202  -8.8830    150.2997     79.8018   9.0493632998e+01   3.6458912707e+01     0.312501    0.1254118 -45.44  0.001073318    2.636    0.621
       203  -9.4218    118.9014     79.4618   9.8286132805e+01   4.3572239842e+01    0.3679279    0.1646457 -45.14  0.001403499    2.285    0.562
       204 -10.2943    184.2706     77.5995   8.2737710235e+01   2.8560515969e+01    0.2842544    0.1761077 -49.16 0.0009647897    1.657    0.397
       205  -9.7175    174.6152     77.7661   8.4667737605e+01   3.0918675075e+01    0.2899917    0.1496324 -33.54  0.001132085    2.103    0.524
       206  -8.6825    157.2219     75.9534   8.7822890097e+01   3.5494644057e+01    0.2011179    0.1244743 -39.01 0.0008654168    1.651    0.394
       207  -9.3610    139.9942     73.8264   9.1183705592e+01   3.9950958834e+01    0.3404338     0.269655 -55.73  0.001696007    1.393    0.282
       208 -11.0106     82.5137     72.8190   1.0694913749e+02   5.1643136689e+01     0.549878    0.3026746 -60.13  0.002120031    2.752    0.637
       209  -8.8145     10.0201     74.9501   1.3189946574e+02   5.9194680158e+01    0.1375937    0.1078175 -48.75 0.0003651989    1.029    0.028
       210 -10.0599     25.5098     72.2698   1.2599219743e+02   5.8648617997e+01    0.4323187    0.2320031  -9.02  0.002184044    2.674    0.626
       211  -9.2079     31.3260     68.3387   1.2296100161e+02   5.8940491335e+01    0.2115736    0.1405537 -21.63  0.001205615    1.560    0.359
       212  -9.9783     61.8706     76.5422   1.1473643506e+02   5.3955448483e+01    0.4579763    0.1628771 -54.96  0.001688996    3.157    0.683
       213  -8.5402    151.3045     72.3550   8.8104409428e+01   3.7549357683e+01    0.1551829    0.1182541  14.31 0.0007040428    1.714    0.416
       214  -9.7730    105.5177     71.5422   9.9608368868e+01   4.7755748692e+01     0.252691    0.1304343 -50.52  0.001029162    2.258    0.557
       215  -9.8579     94.8476     70.3715   1.0238562906e+02   4.9978696103e+01    0.5371751    0.1896067 -50.72  0.001727036    3.855    0.741
       216  -9.3431     42.3431     71.9178   1.2006512501e+02   5.7172929599e+01    0.2536077     0.109526 -59.60  0.001097484    2.590    0.614
       217  -9.8815    127.6947     73.6369   9.4201442698e+01   4.2761091610e+01      0.65452    0.2521762 -38.53  0.002337139    2.640    0.621
       218 -10.3132     51.2400     69.0333   1.1618224472e+02   5.6756713628e+01    0.4723964    0.2167171 -61.71  0.001872759    3.327    0.699
       219  -8.5816    182.6417     68.3184   8.0544406977e+01   3.0541289674e+01     0.159987    0.1124425 -76.55 0.0007044356    1.759    0.431
       220  -9.0003    146.6309     67.8403   8.7838344450e+01   3.9437019786e+01    0.2767855    0.1383177 -36.71  0.001106311    2.069    0.517
       221 -10.9449    166.4885    248.3479   1.2271806035e+02  -7.6557595401e-01    0.3378758    0.2300708  38.05 0.0009482651    1.253    0.202
       222  -9.4460     37.4634     64.1911   1.1964584344e+02   5.9174190381e+01     0.254438      0.16552 -69.72  0.001066033    2.188    0.543
       223  -9.1929    109.9321     63.6022   9.5848823636e+01   4.8282901794e+01     0.286897    0.1836575 -54.53  0.001215012    1.989    0.497
       224  -9.7453     17.8224     62.7091   1.2634326535e+02   6.1117546962e+01    0.3016433   0.09365353 -45.31  0.001390742    2.398    0.583
       225  -9.1609     16.4220     70.2572   1.2867121285e+02   5.9728667290e+01    0.1613703    0.0980622 -66.99 0.0009453036    1.669    0.401
       226  -9.3779    100.2951     60.2841   9.7534971126e+01   5.0745121915e+01    0.2722394    0.1595308 -56.06  0.001158296    2.482    0.597
       227 -10.0351     73.1259     59.7910   1.0587654665e+02   5.5516707560e+01    0.4070704     0.231929 -53.21  0.001534381    2.164    0.538
       228 -10.9340      7.1805     56.9209   1.2880192374e+02   6.2913477109e+01    0.4866473     0.170568 -60.06  0.002365184    2.451    0.592
       229  -9.1023     44.0019     55.2774   1.1461437817e+02   6.0152192666e+01     0.230241    0.1534529 -70.23  0.001167281    2.659    0.624
       230  -8.7622    119.3121     55.6966   9.0759352249e+01   4.7620883565e+01    0.1366705    0.1134587 -80.23 0.0003720373    1.613    0.380
       231 -10.0953    100.5787     54.3335   9.5482510760e+01   5.1669089814e+01    0.2525337    0.2107552   7.94 0.0001643926    1.197    0.164
       232  -9.3336     62.8146     54.9400   1.0778070524e+02   5.7868983563e+01    0.2280581    0.1723928 -55.14  0.001124527    1.642    0.391
       233  -9.6660     54.0011     53.5280   1.1042471603e+02   5.9281764039e+01    0.3446941    0.1678935 -58.49  0.001381423    3.609    0.723
       234  -9.3989     25.8311     55.1953   1.2134932429e+02   6.1923790896e+01    0.1696248    0.1116786 -27.28 0.0006510669    1.362    0.266
       235  -8.8108     20.6588     53.3221   1.2277020336e+02   6.2683259710e+01    0.1019183   0.08947356  84.06 0.0007050534    1.723    0.420
       236  -9.7108     92.1979     50.5208   9.6680537288e+01   5.3851474306e+01    0.3660266    0.2006009 -49.43  0.001569383    2.340    0.573
       237  -9.3817     30.9385     51.8301   1.1841961085e+02   6.2090643107e+01    0.1975515    0.1515163 -74.59 0.0009016819    2.028    0.507
       238  -9.2415     45.9762     49.4999   1.1202123891e+02   6.0946678970e+01    0.1752271   0.09593215   1.75  0.000809895    2.711    0.631
       239  -9.4178     21.6749     47.7847   1.2075680261e+02   6.3607336481e+01    0.3213823    0.1570827  -7.00   0.00156148    3.002    0.667
       240  -9.1077     81.9751     47.2583   9.8734873708e+01   5.6167472916e+01    0.1828712    0.1617067   7.82 0.0006530263    1.040    0.039
       241  -9.1302    121.3177     65.6657   9.3409085947e+01   4.5550156313e+01    0.2232833    0.1254616 -58.14 0.0008474957    2.754    0.637
       242  -9.1181     44.6228     44.7574   1.1092835488e+02   6.1904332868e+01    0.1640524    0.1035274 -48.47 0.0009334979    1.676    0.403
       243  -9.8641     16.1094     44.4125   1.2193330229e+02   6.4627243683e+01    0.3831149    0.2005894 -40.43  0.002337261    1.468    0.319
       244 -10.6381      5.0060     41.4503   1.2552330514e+02   6.5872581316e+01    0.4266574    0.1736295 -63.44  0.002017181    3.190    0.687
       245  -8.4298    149.6904     43.7146   7.9901311909e+01   4.2406953113e+01    0.1438757    0.1036185  30.98 0.0002119389    1.572    0.364
       246  -9.2082    113.3367     42.2227   8.7857584436e+01   5.0893208769e+01     0.281135    0.1535243   3.66 0.0009626279    3.984    0.749
       247  -9.5623     69.0033     41.3396   1.0091583229e+02   5.9173262180e+01    0.2121758    0.1760957 -55.30  0.001179921    1.679    0.404
       248  -8.9451     37.1736     41.4091   1.1263050045e+02   6.3276854415e+01    0.1445213    0.1059222  33.15 0.0007365558    1.639    0.390
       249  -9.3426     83.9535     39.8567   9.5470963041e+01   5.6930495138e+01    0.2008153     0.156087   9.44 0.0004317746    1.241    0.194
       250  -8.9425    105.8183     37.3865   8.8194451094e+01   5.3112286028e+01    0.1965863     0.110557  39.71 0.0005170243    1.678    0.404
       251  -9.1167     26.3683     37.2183   1.1548187171e+02   6.5018915612e+01    0.1547258    0.0949843 -49.76 0.0009455401    1.667    0.400
       252  -8.9849     21.3185     34.6499   1.1666900001e+02   6.5877402277e+01   0.09618224   0.08893096 -75.33 0.0007047969    1.737    0.424
       253 -10.0561      6.5098     33.9637   1.2264393372e+02   6.7070335642e+01    0.2027613    0.1208751 -16.77 0.0009005675    1.591    0.371
       254 -10.4282    222.0386     32.5719   6.5654245544e+01   2.6135066266e+01    0.3043382     0.125758 -51.04  0.001236077    2.426    0.588
       255  -9.4358     58.1814     42.6372   1.0518255248e+02   6.0542762618e+01    0.2647439    0.1364457 -52.28  0.001211202    2.803    0.643
       256  -8.9892     60.5841     32.7883   1.0068492421e+02   6.1680005210e+01    0.1594224    0.1073747 -40.04 0.0005947346    1.608    0.378
       257  -8.5925     49.6851     33.3122   1.0489142379e+02   6.3088906964e+01    0.1017007   0.09724689 -63.95  0.000703284    1.637    0.389
       258  -9.8061     12.6160     30.3462   1.1885603537e+02   6.7254539731e+01    0.2867371    0.1176859 -52.19  0.001519291    2.374    0.579
       259  -9.6061     27.3840     29.4178   1.1228661781e+02   6.6162217360e+01     0.232556   0.06728636 -35.11 0.0009547567    3.350    0.702
       260 -10.3590    157.3393    245.8885   1.2411689815e+02   1.2081386208e+00    0.4410146    0.2484585 -25.18  0.001842939    3.812    0.738
       261  -9.0403     43.9716     25.7931   1.0418780966e+02   6.4883485732e+01    0.1780393    0.1246329  -3.64 0.0004656766    1.283    0.221
       262  -9.0775    110.4002     24.6739   8.2537486193e+01   5.3721604347e+01    0.1662841    0.1213043  -5.90 0.0007642737    1.501    0.334
       263  -8.4616     76.7210     25.3260   9.2329747753e+01   6.0117098857e+01    0.1089119   0.09897755 -56.17 0.0002385861    1.593    0.372
       264  -8.8581    107.8070    248.8445   1.3384216426e+02   9.0364497958e+00     0.169911    0.1532417  57.29 0.0006726831    1.230    0.187
       265  -8.9385     58.7913     22.2261   9.7191855426e+01   6.3355391551e+01     0.162932    0.1148924   1.06 0.0002745428    1.306    0.234
       266  -9.9031     13.0693     21.3439   1.1542629748e+02   6.8621969512e+01    0.2137821    0.1580831   4.56 0.0008445524    1.317    0.241
       267  -8.4207     84.5236     21.4695   8.8424523045e+01   5.9193451453e+01      0.12468    0.1070362  17.87 0.0008091455    1.037    0.036
       268  -8.8163     63.3774     21.1645   9.5142339665e+01   6.2796307898e+01    0.1601902    0.1025868 -36.53 0.0008270422    1.722    0.419
       269  -8.8856     48.3238     21.7011   1.0086360259e+02   6.4881774601e+01   0.09681652   0.09491496 -36.85  0.000379135    1.628    0.386
       270  -8.9791     81.3520     27.6686   9.1764557479e+01   5.9022643199e+01    0.1157814    0.1023852 -76.37 0.0007046881    1.777    0.437
       271  -9.5405     29.2233     17.4786   1.0684858860e+02   6.7701310172e+01    0.2495519    0.1448448   9.00 0.0006134313    1.751    0.429
       272 -10.6044    208.2785     14.4341   6.2986395280e+01   3.1624275391e+01    0.2501848    0.1058987  65.67 0.0009701106    2.034    0.508
       273  -8.7767     40.7879     14.1757   1.0068444495e+02   6.6800907101e+01    0.1573319    0.1053484   0.68 0.0003652469    1.325    0.245
       274  -9.8721    154.5588    240.0175   1.2382652634e+02   2.6705558867e+00    0.2864251    0.1265304 -46.58  0.001301827    2.713    0.631
