#   1 NUMBER                 Running object number                                     
#   2 MAG_AUTO               Kron-like elliptical aperture magnitude                    [mag]
#   3 X_IMAGE                Object position along x                                    [pixel]
#   4 Y_IMAGE                Object position along y                                    [pixel]
#   5 X_WORLD                Barycenter position along world x axis                     [deg]
#   6 Y_WORLD                Barycenter position along world y axis                     [deg]
#   7 A_WORLD                Profile RMS along major axis (world units)                 [deg]
#   8 B_WORLD                Profile RMS along minor axis (world units)                 [deg]
#   9 THETA_WORLD            Position angle (CCW/world-x)                               [deg]
#  10 FWHM_WORLD             FWHM assuming a gaussian core                              [deg]
#  11 ELONGATION             A_IMAGE/B_IMAGE                                           
#  12 ELLIPTICITY            1 - B_IMAGE/A_IMAGE                                       
         1 -14.5373    195.7794     15.8979   6.9282374333e+01   3.3242011729e+01     2.874606     1.714608  30.35   0.01255475    2.285    0.562
         2 -10.7256     33.0000      8.5133   1.1166321948e+02   7.4096084413e+01    0.4253567   0.06645901 -46.58   0.00115809    5.952    0.832
         3  -9.3638    128.0198     23.6676   8.2082833461e+01   5.0998442447e+01    0.2168489    0.1870245  63.46 0.0003859047    1.103    0.093
         4 -10.9144    163.2552    249.2065   1.2590298881e+02   6.4484667048e+00    0.2414109    0.1297142  40.78  0.001024388    1.410    0.291
         5 -11.5567    139.1088    250.1289   1.3030575072e+02   9.6271954534e+00    0.3377772    0.1275462  41.00  0.001857846    1.853    0.460
         6 -11.1212    125.7071    249.9638   1.3272248068e+02   1.1454779552e+01    0.2757022    0.1165335  36.95  0.001491211    1.652    0.395
         7 -11.7820    108.6259    248.9415   1.3576932265e+02   1.3854060988e+01    0.4728017    0.1760056  49.02  0.002504557    2.266    0.559
         8 -11.7338     98.6245    250.0123   1.3769655115e+02   1.5002644477e+01    0.4491755    0.1903716  42.63  0.002604523    1.594    0.373
         9 -11.1320    101.9724    246.9507   1.3684254090e+02   1.4994077180e+01    0.2403069    0.1517081  55.10 0.0009795217    1.419    0.296
        10 -11.8908     70.7240    243.8348   1.4246257308e+02   1.9351816610e+01    0.4872455    0.2361964  20.51  0.002328388    3.630    0.725
        11 -11.1046     66.6200    243.2112   1.4319346334e+02   1.9932594327e+01    0.2689624    0.1726336  75.65 0.0005932989    1.648    0.393
        12 -10.6096     67.0860    250.3609   1.4351171290e+02   1.8818910997e+01    0.2233126    0.1496917  46.51  0.001085474    1.018    0.018
        13  -9.9670     63.4913    250.5369   1.4417651644e+02   1.9209926286e+01    0.2019085   0.06608988  38.85 0.0005386317    1.975    0.494
        14 -11.0757     85.4752    247.0096   1.3991514392e+02   1.7085267991e+01       0.2426    0.1458806  62.80  0.001123553    1.641    0.391
        15 -11.7515     81.2761    248.2061   1.4077357154e+02   1.7432266931e+01    0.5021347    0.2064909  55.28  0.002620187    2.211    0.548
        16 -11.7489     81.9911    243.2210   1.4030908597e+02   1.8069400125e+01    0.3589082    0.1765746  38.06  0.002255583    1.460    0.315
        17 -10.1791     74.2880    250.0185   1.4217412364e+02   1.8017696320e+01     0.174912    0.1461379   9.87  0.001131556    1.758    0.431
        18 -15.0843      5.1442     17.1908   1.3682604356e+02   7.4803429795e+01     22.75051     1.238753 -69.61   0.03558032   20.245    0.951
        19 -13.7546     32.2513    245.6686   1.4962275836e+02   2.3332502939e+01     1.801116    0.4928869  35.49  0.009672879    2.453    0.592
        20 -15.6893      8.3435    240.2060   1.5374052135e+02   2.6468616767e+01     7.207753     1.141516 -73.92   0.03132555    6.272    0.841
        21 -10.6099     37.4094    226.2491   1.4790298863e+02   2.5907359037e+01    0.1938347    0.1347202  70.78 0.0009089365    1.276    0.217
        22  -9.6337    229.3817    229.2011   1.1218783091e+02  -4.3621350608e-01    0.1221492   0.09362072 -25.18 0.0005335346    1.692    0.409
        23 -11.0352    173.7821    221.6147   1.2068652478e+02   8.2089094287e+00    0.2115809    0.1791368  43.63  0.001554184    1.347    0.258
        24 -11.6063     94.9969    240.7166   1.3766802578e+02   1.6784371471e+01    0.2829079    0.1895797 -57.65  0.002018739    2.056    0.514
        25  -9.1388    152.7322    212.9582   1.2354901132e+02   1.2539333275e+01    0.1565982    0.1283356  33.55 0.0002956124    1.077    0.072
        26 -10.9024    193.0871    195.1347   1.1325582890e+02   8.5628842908e+00    0.6731032    0.3614561 -58.90   0.00229678    7.194    0.861
        27 -11.6627     71.6575    196.3113   1.3884478441e+02   2.7189796557e+01    0.3194352    0.2460752 -42.90    0.0016795    1.873    0.466
        28 -10.3821     67.0369    196.4962   1.3989135053e+02   2.7749676395e+01    0.3750961    0.1482215  53.01  0.001795085    2.216    0.549
        29 -11.7061     76.4215    189.0447   1.3710490532e+02   2.7926645982e+01    0.2461123    0.2330157 -26.94 0.0005809683    1.449    0.310
        30  -9.0733     94.0599    179.2335   1.3192977256e+02   2.7296484349e+01     0.225632    0.1128961  55.65 0.0008023074    2.033    0.508
        31 -11.1195     84.7596    176.8391   1.3386644987e+02   2.9135169040e+01    0.2242552    0.2053617  71.42 0.0003925142    1.151    0.131
        32 -13.3104     72.5319    174.5417   1.3657849979e+02   3.1308784524e+01    0.4348192     0.282716 -40.78  0.001684546    2.295    0.564
        33 -13.3654     50.2308    129.8654   1.3756501144e+02   4.4027853564e+01     1.137791    0.2666351  37.11  0.002427963    3.317    0.699
        34 -12.6037     90.5896    167.6752   1.3133086694e+02   3.0109595638e+01      2.04426    0.4424571  45.56   0.00645168    4.008    0.751
        35 -13.4542     67.7262    144.8639   1.3438637733e+02   3.8328110026e+01     1.607245    0.7489386  69.92  0.006009094    3.316    0.698
        36 -10.2011    102.8812    151.3544   1.2585899387e+02   3.1509699873e+01    0.3184801    0.2673345 -37.95  0.001013888    1.462    0.316
        37  -9.5556    105.1979    147.2069   1.2457590481e+02   3.1984417872e+01    0.2726288    0.2098977 -21.97  0.001149983    1.851    0.460
        38 -12.0828     91.6344    150.7951   1.2871540006e+02   3.3471061715e+01    0.2717373    0.2439079  16.15 0.0005687755    1.330    0.248
        39 -11.6433     46.4902    150.0105   1.4083604069e+02   3.9830098443e+01    0.2632923    0.2187748  76.55  0.001075316    1.068    0.064
        40  -8.7532    192.3417    144.1976   1.0406172250e+02   1.5845088945e+01    0.1698825     0.123985 -40.71  0.000355053    1.541    0.351
        41 -13.9717     11.3825    207.0641   1.5236183865e+02   3.1781233965e+01     1.278198    0.7313911  31.96  0.007738082    1.641    0.391
        42 -11.2048     35.5934    230.2467   1.4842168266e+02   2.5435838762e+01    0.3095988    0.1415794  55.85  0.001463572    1.607    0.378
        43 -10.0588    112.4997    136.6230   1.2075767111e+02   3.2918669541e+01    0.2960778    0.2398359   7.55 0.0009825748    1.604    0.377
        44 -10.6997    100.2494    133.8814   1.2356696475e+02   3.5709030615e+01    0.2784803    0.2342863 -28.15 0.0004597446    1.499    0.333
        45 -12.9510     58.6072    133.6013   1.3553414180e+02   4.2119900117e+01     2.293869    0.7490938 -81.57  0.005621763    7.627    0.869
        46 -12.9259     48.4131    230.2840   1.4595870958e+02   2.4050779942e+01    0.3468168    0.2860477  57.91 0.0009458786    1.203    0.169
        47  -9.3638    108.9576    123.6984   1.1914675754e+02   3.6359657752e+01    0.2024016    0.1724971  47.36 0.0003642765    1.092    0.085
        48  -9.2767    118.4705    128.9868   1.1765459274e+02   3.3406789983e+01    0.1972326    0.1263394 -25.80 0.0008070478    2.444    0.591
        49 -11.0986    168.3521    113.4603   1.0198471970e+02   2.5891258129e+01    0.3833434     0.322505 -84.64  0.001059907    1.542    0.351
        50 -15.3395     56.5362    217.9812   1.4366082288e+02   2.5182238228e+01     6.679602    0.6184654  38.04   0.01864366    4.016    0.751
        51 -11.0207    248.2586    248.5444   1.1195037205e+02  -4.4152479767e+00    0.2906639      0.13608  19.63  0.001932935    1.725    0.420
        52 -11.1898    238.2293    248.3271   1.1342838952e+02  -3.2125527692e+00     0.286592    0.1048885  21.74  0.001442161    3.016    0.668
