#   1 NUMBER                 Running object number                                     
#   2 MAG_AUTO               Kron-like elliptical aperture magnitude                    [mag]
#   3 X_IMAGE                Object position along x                                    [pixel]
#   4 Y_IMAGE                Object position along y                                    [pixel]
#   5 X_WORLD                Barycenter position along world x axis                     [deg]
#   6 Y_WORLD                Barycenter position along world y axis                     [deg]
#   7 A_WORLD                Profile RMS along major axis (world units)                 [deg]
#   8 B_WORLD                Profile RMS along minor axis (world units)                 [deg]
#   9 THETA_WORLD            Position angle (CCW/world-x)                               [deg]
#  10 FWHM_WORLD             FWHM assuming a gaussian core                              [deg]
#  11 ELONGATION             A_IMAGE/B_IMAGE                                           
#  12 ELLIPTICITY            1 - B_IMAGE/A_IMAGE                                       
         1 -12.9982    219.4946     55.6570   2.5419499266e+01   2.5084679588e+01     1.037583    0.9254097 -47.32  0.007241423    1.062    0.059
         2 -13.0858    238.8541     42.2103   2.0722182024e+01   2.3030633113e+01     1.049499    0.7300392  47.50  0.006926382    1.828    0.453
         3  -9.3733      2.6622      9.3323   7.9792914095e+01   7.7825040032e+01     0.121303   0.09445098  52.57 0.0007051966    1.741    0.426
         4  -9.6460      2.9719      2.4875   7.5342068413e+01   7.9180552647e+01    0.1934577    0.1129091  16.25   0.00105218    1.648    0.393
         5 -10.8420     42.2876    213.7444   9.5134278793e+01   2.5602618987e+01    0.3168979    0.1868698  53.71  0.001837463    1.578    0.366
         6 -12.6532     37.6807    170.9440   9.3208292150e+01   3.5168680058e+01     1.397914    0.7593608  -7.34 0.0006399567    2.879    0.653
         7 -11.5662     45.8690    165.3604   9.0272762913e+01   3.5645396355e+01    0.3271259    0.2958639  -8.28 0.0004753236    1.234    0.190
         8 -15.4617      9.3086    234.3819   1.0364153624e+02   2.4552131276e+01     10.46344     5.218401 -84.03   0.06407592    2.260    0.558
         9  -9.8876    248.4930    245.4922   5.7094861952e+01  -1.7514920458e+00    0.1006618   0.06435282  -0.27 0.0002594618    1.011    0.011
        10 -10.2139     77.9702    204.4352   8.5528181470e+01   2.3614497793e+01    0.2381437    0.1898684 -84.31 7.129789e-05    1.545    0.353
        11  -8.4799    119.5768    236.4738   7.9340669541e+01   1.3111244270e+01     0.118787   0.09170408  19.90 6.895515e-05    1.014    0.014
        12 -10.9518    242.5009    170.3380   4.6214761716e+01   7.0001632715e+00    0.2638375    0.1650515   0.35  0.001718475    1.520    0.342
        13 -10.3900    230.6245    167.8176   4.7514286442e+01   8.7851252376e+00    0.2485151    0.1282165 -32.93   0.00144496    1.706    0.414
        14  -8.7308    110.8676    167.3607   7.2044527340e+01   2.6664859287e+01    0.1944872    0.1581633  26.55 0.0004311135    1.105    0.095
        15 -10.5351    244.4252    160.3114   4.4155816244e+01   7.9762898820e+00    0.2027708    0.1707575 -71.16  0.001338064    2.565    0.610
        16 -11.7032     68.3705    151.2132   8.1643276007e+01   3.6340325083e+01    0.5495819    0.4255665  47.48  0.001263288    1.261    0.207
        17 -12.9327     68.3777    143.8018   8.0510187006e+01   3.8105600718e+01     1.403067    0.7878958  65.67  0.003174308    2.637    0.621
        18 -11.3924     23.6808    155.8181   9.6195863180e+01   3.9990990283e+01    0.3657563    0.2598844  89.58  0.001641449    1.412    0.292
        19 -12.8364     44.0375    152.4181   8.9462215657e+01   3.8921615320e+01    0.5595484    0.3561482 -18.16  0.001400672    2.140    0.533
        20 -10.4173     86.7450    139.5105   7.3991361910e+01   3.6468594711e+01    0.3403905     0.286616   4.36 0.0008589486    1.269    0.212
        21  -9.0696     90.9098    136.3553   7.2109932812e+01   3.6543873221e+01    0.2695214     0.197371 -35.13 0.0006020404    1.505    0.336
        22 -10.9025    243.4229    128.7185   3.8351602830e+01   1.2011510346e+01     0.288152    0.1365012 -46.00  0.001439375    2.643    0.622
        23 -13.8609      8.6787    207.9353   1.0299124917e+02   2.9610524099e+01     2.668287     1.327072 -34.50   0.01267788    3.438    0.709
        24 -11.5691     73.8428    136.9276   7.7604725378e+01   3.8999729276e+01    0.4199242     0.324764 -56.52 0.0003165048    1.345    0.257
        25 -10.5073     59.5244    156.6513   8.5128248908e+01   3.6163652858e+01    0.2523236    0.2433602 -14.30  0.000417077    1.117    0.105
        26  -9.8965     88.4770    124.6064   7.0478270625e+01   3.9666174293e+01    0.3055705    0.2479271   7.71 0.0006008215    1.355    0.262
        27 -11.2538     52.2023    115.7981   8.1392263705e+01   4.7160956480e+01    0.8091163    0.2720378 -75.94  0.001932826    6.567    0.848
        28 -10.1514    104.4915    129.9439   6.6706916091e+01   3.5721631793e+01    0.6086485    0.3352823  42.73  0.002591538    1.786    0.440
        29  -9.0844    204.3316    110.8150   4.0099519292e+01   2.0583231677e+01    0.2661392    0.1665804  34.32  0.001427573    1.796    0.443
        30 -10.3909     74.9234    227.6344   8.8431193406e+01   1.9655969655e+01     0.239926       0.1512  44.37   0.00145354    1.419    0.295
        31 -10.9598     51.5340    103.0207   7.9180886675e+01   5.0499627996e+01    0.7074216    0.1594073 -60.85  0.002029226    4.048    0.753
        32  -9.0675    101.8264    117.8745   6.4783175477e+01   3.8884277092e+01    0.2144737    0.1935928  -2.84 0.0003406025    1.149    0.129
        33  -8.6917     34.0871     97.0337   8.5311970777e+01   5.4049388793e+01    0.2206186    0.1585781  62.07 0.0004170861    1.569    0.363
        34 -11.0314    243.4648     93.5483   3.1256664710e+01   1.6362228258e+01    0.2915957    0.1126323 -37.16  0.001451985    2.066    0.516
        35  -8.9451     41.6642     91.9687   8.1002588594e+01   5.4537363186e+01    0.2048227    0.1825909 -62.83 0.0005162029    1.109    0.098
        36 -10.1474     53.0687     90.1856   7.5654925200e+01   5.3532746291e+01    0.3709418    0.1844024 -47.86  0.001499241    1.998    0.499
        37  -9.7650    167.1864     87.8245   4.0794435836e+01   3.1309995459e+01    0.1968627    0.1644997   6.21  0.001068812    1.336    0.252
        38 -12.3336      2.0602    194.1082   1.0418342584e+02   3.2915799231e+01    0.3075964    0.2232581  89.34   0.00102552    1.396    0.283
        39  -8.8727    102.1358     82.8919   5.5224024371e+01   4.6409382597e+01    0.2189106    0.2061511  82.92 0.0003683063    1.175    0.149
        40  -9.6999    184.2017     77.1291   3.5113080418e+01   2.9351406482e+01    0.2021994    0.1791051   8.13  0.000631382    1.231    0.188
        41 -14.6568      9.5427    188.8720   1.0208694368e+02   3.3507807482e+01     2.323847     1.380865 -69.79  0.008305735    1.814    0.449
        42  -9.6181    139.4989    248.4815   7.6548959304e+01   9.0982401203e+00    0.1155923   0.08470757  17.65 0.0007209865    1.001    0.001
        43 -10.3951     80.1454    246.8668   8.8829173248e+01   1.5868604860e+01    0.3038504     0.153964  48.87  0.001723209    1.999    0.500
        44 -10.3816     13.2685     59.9687   8.8458925991e+01   6.5333684349e+01    0.2569389    0.2356932  -5.50 0.0004924717    1.116    0.104
        45 -11.1352     10.4177     54.0801   8.8887874115e+01   6.6989028834e+01    0.5965677   0.08736822 -51.80  0.001818035    4.055    0.753
        46 -10.5517      2.2396     50.5328   9.3344163176e+01   6.8280003969e+01    0.3900732     0.102197 -73.97   0.00132176    3.524    0.716
        47 -10.5450      4.0124     39.8754   8.9818951401e+01   7.0823414286e+01    0.3756453    0.1709743  31.07  0.001694116    2.353    0.575
        48  -8.5847    102.6878     10.3231   2.7208358108e+01   5.7635376117e+01    0.1446106    0.1007386 -64.69 0.0003845184    1.656    0.396
        49  -9.4824     94.3238    222.3285   8.3448102424e+01   1.8388655315e+01    0.1224465   0.08598105  -6.98 0.0007049523    1.696    0.410
