#   1 NUMBER                 Running object number                                     
#   2 MAG_AUTO               Kron-like elliptical aperture magnitude                    [mag]
#   3 X_IMAGE                Object position along x                                    [pixel]
#   4 Y_IMAGE                Object position along y                                    [pixel]
#   5 X_WORLD                Barycenter position along world x axis                     [deg]
#   6 Y_WORLD                Barycenter position along world y axis                     [deg]
#   7 A_WORLD                Profile RMS along major axis (world units)                 [deg]
#   8 B_WORLD                Profile RMS along minor axis (world units)                 [deg]
#   9 THETA_WORLD            Position angle (CCW/world-x)                               [deg]
#  10 FWHM_WORLD             FWHM assuming a gaussian core                              [deg]
#  11 ELONGATION             A_IMAGE/B_IMAGE                                           
#  12 ELLIPTICITY            1 - B_IMAGE/A_IMAGE                                       
         1 -12.3134    222.1117     52.3213   8.7171742284e+00   2.4562465465e+01    0.9835343    0.8673915 -49.92  0.004840236    1.079    0.073
         2 -11.8140    240.4291     39.5951   3.9638384635e+00   2.2514873741e+01    0.7717444    0.5416849 -39.47  0.002920488    1.163    0.140
         3 -10.6572      2.1972     24.7247   6.7237255116e+01   7.3966852250e+01    0.6805879   0.08491454 -60.16  0.002085535    4.947    0.798
         4 -10.5665      2.1962     10.8165   6.0542009439e+01   7.6775170537e+01    0.6397388    0.1590661 -55.59  0.002443183    3.589    0.721
         5  -9.5544     12.5135     10.9922   5.2250621858e+01   7.5846726498e+01    0.1872191    0.1046373 -43.94 0.0008582325    1.592    0.372
         6  -7.7479    158.3030      9.2962   3.2634968430e+00   4.4738191664e+01    0.1324068    0.0974096  40.99 0.0003287673    1.580    0.367
         7  -8.8571     17.2611      4.2749   4.3997196328e+01   7.6402062904e+01    0.1843869   0.09391774 -47.53 0.0007996372    2.412    0.585
         8  -8.8180     41.8002    231.5921   8.3020876248e+01   1.9855336215e+01    0.3510876    0.1412952 -88.25  0.001561258    2.935    0.659
         9  -8.9229     58.2322    248.1351   8.0770473752e+01   1.4935448255e+01    0.2868503    0.1702056 -88.96  0.001782316    1.885    0.470
        10  -8.1335     32.9728    249.2252   8.5705117488e+01   1.7458114925e+01    0.2013986    0.1113948  72.62  0.001269033    1.674    0.403
        11 -11.9530     17.7967    185.9797   8.5559133303e+01   3.2142988617e+01    0.8502082    0.5726075  -9.94  0.001208222    2.465    0.594
        12 -14.3750     28.3843    178.3112   8.2437679293e+01   3.2989530318e+01     6.277585     2.447181  74.33   0.02373857    3.190    0.687
        13  -9.1456    126.8046    229.7893   6.5010306375e+01   9.5400571814e+00    0.2051722    0.1258682  -8.43 0.0009541621    2.830    0.647
        14 -13.4903      8.7679    206.6224   8.8652320816e+01   2.8270174464e+01     1.653809     1.415377  44.71  0.007661995    1.279    0.218
        15 -10.2814     83.2299    196.2677   7.0656573212e+01   2.2249921167e+01    0.2967794    0.2428424 -79.57  0.001752197    1.256    0.204
        16  -9.0722     77.8818    190.9952   7.1322120097e+01   2.4164590570e+01    0.3592553    0.1435543 -51.84  0.001444505    2.735    0.634
        17  -7.4985     94.0000    182.9494   6.6267497219e+01   2.3733620397e+01    0.2221774   0.07851242 -60.87 0.0007982898    2.914    0.657
        18  -8.7660     99.1420    181.2189   6.4728007847e+01   2.3362770514e+01    0.2369084    0.2202319  33.50 0.0007028617    1.094    0.086
        19  -7.7130     92.2316    174.9419   6.5541443228e+01   2.5867301721e+01    0.1831014    0.1167965 -64.31 0.0008299394    1.597    0.374
        20  -9.8677     76.1019    174.5489   6.9681360217e+01   2.8285802695e+01    0.2623772    0.2300373  71.65 0.0003866723    1.071    0.066
        21  -8.5428     73.5014    170.5056   6.9819032153e+01   2.9633262010e+01     0.235696    0.1821416 -31.71 0.0005883377    1.648    0.393
        22 -12.5121     13.0384    244.2208   8.9248236600e+01   2.0321395236e+01     1.112725    0.5513852 -75.95   0.00502168    2.086    0.521
        23  -7.8393    110.4825    167.4439   5.9614703689e+01   2.4770256959e+01    0.1430843    0.1395382  61.63  4.66754e-05    1.007    0.007
        24 -10.4806     50.2132    164.4093   7.5355212568e+01   3.4126998691e+01    0.4645989    0.3177154 -20.69  0.001391081    2.261    0.558
        25 -10.3069     56.2452    160.1272   7.3158949795e+01   3.4499188045e+01    0.3273242    0.2870009 -36.01  0.000907313    1.369    0.269
        26  -9.8312     84.7758    163.7276   6.5787578768e+01   2.9701135519e+01    0.4253589    0.2738878  63.73  0.001933843    1.803    0.445
        27 -10.9929     80.0853    133.9729   6.1891599139e+01   3.8042186081e+01     0.922353    0.3426225 -57.59 0.0004793316    2.455    0.593
        28 -12.0838     59.9975    139.7600   6.9118530874e+01   3.9366619468e+01     1.838363    0.5713824 -70.82  0.005440027    3.783    0.736
        29 -11.7841     67.5033    152.6914   6.8910544378e+01   3.4965616336e+01     1.062268     0.642848  85.37  0.002017234    2.037    0.509
        30 -11.3111     74.7368    148.0158   6.6059099055e+01   3.5168108926e+01    0.7417141    0.5562611 -16.50  0.002097506    1.855    0.461
        31 -12.2542     69.0844    144.6102   6.7159344978e+01   3.6859814280e+01     1.678761    0.8553344  80.68  0.005383437    3.734    0.732
        32 -10.4849     28.1387    153.4939   8.0364366722e+01   3.9265337555e+01    0.3503289    0.2106631 -74.06 0.0009636854    1.450    0.310
        33 -12.3083      5.9153    249.1074   9.0712773538e+01   2.0076689784e+01    0.4574413    0.3048785  53.95  0.001796973    1.086    0.079
        34 -11.7248     53.8408    147.6233   7.2169532303e+01   3.8052242211e+01    0.5403741    0.4104159  -8.56  0.001068859    1.830    0.454
        35  -9.0493     38.0579    143.1908   7.6322499835e+01   4.1004630560e+01     0.563655    0.2334996  70.24  0.001791973    3.965    0.748
        36 -14.0868      8.2076    220.5507   8.9326418253e+01   2.5381157000e+01     5.019317     1.789996  16.24     0.010042    5.735    0.826
        37  -9.2349     94.7078    134.9640   5.7696955809e+01   3.5410484727e+01    0.5143227     0.330384 -14.14  0.001905293    2.821    0.645
        38 -10.4032     73.1689    135.1568   6.4249003797e+01   3.8771979227e+01    0.3979756     0.212704  61.50  0.001471665    2.611    0.617
        39  -9.1625    105.8172    128.9542   5.3120207372e+01   3.4973241943e+01    0.5680164     0.307005 -41.62  0.002208235    1.964    0.491
        40  -8.7374     88.2812    155.4251   6.3456414178e+01   3.1244787978e+01    0.2774042    0.2199504 -88.40 0.0006906606    1.344    0.256
        41  -7.5851    142.2465    216.3475   5.9974215514e+01   9.7275293860e+00     0.124054   0.09206979 -12.73 0.0005152146    1.578    0.366
        42  -8.9770     68.7408    124.5608   6.3600117336e+01   4.2235515073e+01    0.2657511    0.1559762  26.00 0.0007532464    1.989    0.497
        43 -11.3157     52.9134    117.3106   6.7492241241e+01   4.6314323809e+01     1.112097    0.4677506 -79.69  0.003401312    3.688    0.729
        44 -10.4443     48.2675    106.3794   6.6983067732e+01   4.9833770937e+01    0.7765503    0.3777102  65.53  0.002486184    3.891    0.743
        45  -8.3565     93.8587    121.9320   5.5045718881e+01   3.8897447186e+01    0.2392797    0.2059288 -30.24 0.0004030975    1.267    0.211
        46  -8.0955     93.0000    209.9481   6.9988102652e+01   1.7981383647e+01    0.1888009   0.07369661 -62.61 0.0007820688    2.803    0.643
        47  -9.7425     30.9385    117.4895   7.5164480070e+01   4.8638440559e+01    0.5623935    0.2843417  69.13  0.001832925    2.596    0.615
        48  -8.1869    104.0765    116.9071   5.0717799841e+01   3.8306562705e+01    0.2374369    0.1872401 -19.71 0.0004173163    1.554    0.357
        49  -8.5656    205.1155    110.7396   2.5780139622e+01   1.8709528668e+01    0.2558176    0.1880318 -34.50 0.0008219289    1.177    0.150
        50  -7.6990     33.2715    100.3844   7.1454264990e+01   5.3059771640e+01    0.1564187   0.09047106 -45.05 0.0006022617    1.706    0.414
        51  -9.4914      7.3958     75.2342   7.7706933285e+01   6.1631880409e+01    0.3828828    0.1885796   6.10  0.001784775    2.552    0.608
        52 -10.9633      1.9603     89.6409   8.2181476236e+01   5.8122966901e+01    0.9995671    0.1463719 -75.35  0.002686723    5.171    0.807
        53 -10.7366      2.1916     77.8423   8.0469532413e+01   6.1200531960e+01    0.8404751   0.06483766 -70.38  0.002231011    5.296    0.811
        54  -9.3808     52.0277     97.0110   6.3497126613e+01   5.1875994181e+01    0.2387839    0.1752972  74.06 0.0008745404    1.675    0.403
        55 -10.7775    230.6580     46.1877   6.3680597855e+00   2.3623074295e+01     0.462362    0.3799227  40.19  0.001225817    1.632    0.387
        56 -11.6229    212.4990     57.2751   1.1042500193e+01   2.5912196602e+01    0.5927174    0.5050284   9.84  0.003135881    1.535    0.349
        57  -9.0766     50.8792    245.6255   8.2054581364e+01   1.6209603445e+01    0.3044513    0.1430859 -77.17  0.001647239    2.355    0.575
        58  -9.7321      1.7473     60.1073   7.7625744483e+01   6.5737840452e+01    0.4613154   0.04639519 -67.24  0.001343184    4.533    0.779
        59  -9.5722     13.4326     60.3896   7.1653665738e+01   6.5053520531e+01    0.2365229    0.2096897 -73.83 0.0005649673    1.168    0.144
        60  -9.7178      1.9365     50.5555   7.5453737134e+01   6.8076913347e+01    0.3520038    0.1491421 -76.42  0.001525462    2.358    0.576
        61  -8.3458    111.7634    244.9596   6.9808604264e+01   8.9584089139e+00    0.1504582    0.1407557  52.55   0.00084588    1.165    0.142
        62  -8.5573     13.4309     44.2317   6.7004716506e+01   6.8926898944e+01    0.1764236    0.1161166 -72.19 0.0005760629    1.626    0.385
        63 -10.1006     19.9228     30.9900   5.7792386497e+01   7.1288087844e+01    0.3516748    0.2186886  46.50   0.00179577    2.331    0.571
        64  -8.5315     32.2024     30.6037   5.0066286985e+01   6.9978716599e+01    0.1850421     0.119153  13.26 0.0009590719    1.731    0.422
        65  -9.3022     72.2021    242.4136   7.7578171306e+01   1.4343765860e+01    0.2424854    0.1485056  43.59  0.001346683    1.304    0.233
        66  -7.9604     60.1775     21.5493   3.0932247611e+01   6.6916238873e+01    0.1887835     0.116117  33.30 0.0006730008    1.643    0.392
        67  -9.8093     29.7343    240.8490   8.5928364244e+01   1.9333219165e+01    0.3529245    0.2271357  28.59  0.001919036    1.620    0.383
        68  -9.2531     28.4579    235.8242   8.5936545113e+01   2.0419452218e+01    0.2431249    0.1760254  75.19 0.0009730825    1.205    0.170
        69 -12.1097      3.7298    237.4557   9.0769684830e+01   2.2434262153e+01    0.6723417    0.4322277 -70.12  0.002504257    1.788    0.441
