#   1 NUMBER                 Running object number                                     
#   2 MAG_AUTO               Kron-like elliptical aperture magnitude                    [mag]
#   3 X_IMAGE                Object position along x                                    [pixel]
#   4 Y_IMAGE                Object position along y                                    [pixel]
#   5 X_WORLD                Barycenter position along world x axis                     [deg]
#   6 Y_WORLD                Barycenter position along world y axis                     [deg]
#   7 A_WORLD                Profile RMS along major axis (world units)                 [deg]
#   8 B_WORLD                Profile RMS along minor axis (world units)                 [deg]
#   9 THETA_WORLD            Position angle (CCW/world-x)                               [deg]
#  10 FWHM_WORLD             FWHM assuming a gaussian core                              [deg]
#  11 ELONGATION             A_IMAGE/B_IMAGE                                           
#  12 ELLIPTICITY            1 - B_IMAGE/A_IMAGE                                       
         1 -13.0817    177.4752     53.2552   5.3596701259e+01   3.3861505942e+01     1.786053     1.058979  36.94 0.0008327188    2.089    0.521
         2 -13.4842    192.2752     39.9756   4.7487591781e+01   3.1994316765e+01     1.126646    0.9712339  50.02  0.004188019    1.229    0.186
         3 -13.4824    197.4122     34.0952   4.5188489059e+01   3.1476438615e+01     1.215551      1.04199 -10.96  0.001093179    1.397    0.284
         4 -13.7304    217.0524      9.4903   3.6819280011e+01   2.9568690153e+01     1.391989     1.005845  53.05  0.006079087    1.563    0.360
         5 -10.1305    189.4672     14.7289   4.0946268500e+01   3.5685178305e+01    0.2407703    0.2000575 -88.98 0.0007168202    1.095    0.087
         6 -10.6195     54.5569    222.0024   1.1857766085e+02   2.1667490908e+01     0.233707    0.1308079  48.93 0.0003792187    1.501    0.334
         7 -19.5323     17.6631    145.3507   1.1965774059e+02   4.2627338061e+01     19.33557     4.736473 -75.65   0.06626698    3.874    0.742
         8  -8.9300     93.7393    205.3926   1.0870894821e+02   1.9638056558e+01      0.20928    0.1694534 -15.98  0.001013743    1.866    0.464
         9  -9.3893     96.3920    202.2175   1.0771856971e+02   1.9894264930e+01    0.2530053    0.1585047 -65.80  0.001004782    1.689    0.408
        10 -10.8996    192.9901    195.0947   8.5518145875e+01   4.3880400669e+00    0.9651439    0.5031581 -61.56   0.00296482    5.691    0.824
        11 -12.3186     56.3863    196.9807   1.1589820997e+02   2.6662690269e+01    0.6912358    0.2563967 -52.40  0.002849004    3.270    0.694
        12 -10.1548    203.8193    200.8155   8.4424741747e+01   1.5363397759e+00    0.1717699    0.1646214  44.99  0.001076296    1.336    0.252
        13 -11.1737    140.0219    197.7946   9.7342059940e+01   1.3483273756e+01    0.3306412    0.2264873  22.84  0.001626779    1.683    0.406
        14  -9.8720     34.7503    197.2108   1.2051949561e+02   2.9147971837e+01    0.1595283    0.1213037  68.02 0.0003922236    1.103    0.093
        15  -9.3156     81.9065    194.7325   1.0999333190e+02   2.3683519911e+01    0.1887033    0.1754727  50.19  0.001197747    1.176    0.150
        16  99.0000     57.0852    218.9975   1.1782255032e+02   2.1952060410e+01    0.4374939    0.2029308  62.75  0.002150712    2.206    0.547
        17 -11.3297    149.6341    188.1693   9.3531296525e+01   1.3652173454e+01    0.4856414    0.3476583 -76.98  0.001853087    2.035    0.509
        18 -10.0610     96.9383    190.5029   1.0599755612e+02   2.2322132779e+01    0.2875254    0.2122684 -35.97  0.001505848    1.787    0.440
        19 -10.0917     94.1037    186.8588   1.0613476756e+02   2.3571753347e+01     0.309803    0.2378596 -83.39 0.0005412567    1.349    0.259
        20 -11.3121     98.6437    181.6234   1.0428869331e+02   2.4018278031e+01    0.5009051    0.3821159 -34.42   0.00204642    1.682    0.406
        21 -10.3955    128.0155    185.9843   9.8083673175e+01   1.8046596264e+01    0.2254492    0.1783632  -6.53  0.001092059    1.714    0.417
        22 -11.3225    143.6035    178.1140   9.3056894405e+01   1.6837890642e+01    0.4496708    0.2720792 -47.51  0.001224803    1.744    0.427
        23 -10.0343    188.4131    176.6537   8.2834058719e+01   8.5122534609e+00    0.3606223    0.3196709 -66.37  0.001472414    1.446    0.308
        24  -9.7242    149.5881    177.1907   9.1499824863e+01   1.5893120071e+01    0.2364595    0.2147683  79.18 0.0004746609    1.246    0.197
        25 -11.7236     63.3285    250.1338   1.1915531388e+02   1.5271891920e+01    0.2538844    0.1256469  52.07  0.001495528    1.579    0.367
        26  -9.9502     58.2365    176.0713   1.1316329335e+02   3.1136570911e+01    0.2213633     0.170154  54.38 0.0004622776    1.243    0.195
        27  -9.7322     84.0289    173.7125   1.0662273569e+02   2.8109510493e+01    0.1885374     0.171178  65.58 0.0002694775    1.055    0.052
        28 -10.5441    131.5961    172.2582   9.4786306456e+01   2.0346507217e+01    0.2992015    0.2536652  19.49  0.001575815    1.302    0.232
        29 -10.7304     43.5796    172.4610   1.1621332039e+02   3.3726167396e+01     0.567644    0.2135296  50.45  0.001810271    2.716    0.632
        30  -8.8735    194.4273    171.7155   8.0558884414e+01   8.2645883029e+00    0.1932607    0.1334732 -25.98 0.0006174098    1.509    0.337
        31 -10.6404    139.0599    170.6692   9.2702900525e+01   1.9282615178e+01    0.3731743    0.2726898  41.17  0.001104887    1.311    0.237
        32  -9.4846    185.6783    169.9803   8.2027947943e+01   1.0288171053e+01    0.2050848     0.186334 -28.39 0.0006591693    1.121    0.108
        33 -10.1365    240.2043    169.5623   7.1363830730e+01   2.6813656419e-01    0.1847625     0.117902  25.81 0.0005318315    1.642    0.391
        34  -9.4127    231.6612    169.3368   7.2837002365e+01   1.7813018531e+00    0.1283737    0.1109002 -69.94 0.0007051188    1.756    0.430
        35  -9.5828     58.4841    228.7572   1.1837627515e+02   1.9845629787e+01    0.1422237     0.102601 -88.34 0.0005252499    1.307    0.235
        36  -8.9869    187.4947    162.5250   8.0049670030e+01   1.1346640914e+01    0.2567829    0.1383226 -51.30 0.0008399333    2.243    0.554
        37 -11.7354     95.0756    151.0081   1.0000557775e+02   3.1737390667e+01    0.6880822    0.5343953 -41.46   0.00303849    1.402    0.287
        38 -10.9064    133.7569    145.2457   8.8724325623e+01   2.5963936613e+01     1.283007    0.3109836 -53.64  0.002945768    5.932    0.831
        39  -9.8602    187.3408    151.8491   7.7714005510e+01   1.3438501483e+01    0.2510459    0.2099615  50.88 0.0006270902    1.293    0.226
        40  -9.6823    112.9670    150.9504   9.5287545999e+01   2.8635785151e+01    0.3280971    0.2114056  77.25  0.000824072    2.464    0.594
        41  -9.6747    109.2076    147.4483   9.5562565934e+01   3.0142337161e+01    0.2575857    0.2035339 -59.00 0.0002824657    1.256    0.204
        42  -9.4506    174.7105    149.1623   7.9850361702e+01   1.6609709249e+01    0.2647367     0.205986  51.32 0.0006797881    1.363    0.266
        43  -9.2045     48.5230    217.5233   1.1939365481e+02   2.3307865756e+01     0.182399    0.1119749  31.09 0.0006441923    1.889    0.471
        44 -10.9905    107.0088    137.5953   9.4080744075e+01   3.2879919387e+01    0.5049784    0.3587635 -30.03  0.002146306    1.724    0.420
        45 -10.6776    105.9167    130.6991   9.2853418618e+01   3.4721514836e+01    0.3933338    0.3392039 -61.64  0.001261985    1.147    0.128
        46 -11.7239     95.0733    137.2423   9.7293962245e+01   3.5054672245e+01    0.3088817    0.2688281 -44.39 0.0003521395    1.168    0.144
        47 -10.4086    135.9865    129.0759   8.4376148972e+01   2.9165491034e+01     0.620988    0.1882958 -48.44   0.00181185    3.374    0.704
        48  -9.2655    160.8656    127.7561   7.7900446495e+01   2.4058639327e+01    0.3106458      0.21019 -67.70  0.001241992    2.115    0.527
        49 -10.4009    102.0586    124.6155   9.2541961109e+01   3.6870804398e+01    0.3035243    0.2459576 -14.75 0.0005688851    1.513    0.339
        50 -10.6455    120.2233    123.1107   8.7096547459e+01   3.3764788358e+01    0.4023346    0.3150345   5.30  0.001846771    1.647    0.393
        51 -10.7498    114.9963    128.8157   8.9906909392e+01   3.3462885419e+01    0.4743955    0.3286739  28.34 0.0008455216    1.644    0.392
        52  -9.3285    109.9273    118.0761   8.8717119337e+01   3.6951084731e+01    0.2221901     0.216621 -64.76 0.0003281707    1.033    0.032
        53 -10.0051    231.2471    113.7362   6.0418938959e+01   1.1254799340e+01    0.2650482    0.2630203  56.11 0.0007532437    1.132    0.117
        54  -9.6643    134.7575    112.8901   8.0555639686e+01   3.3037477163e+01    0.3874238    0.1320176 -46.54   0.00118745    2.944    0.660
        55  -9.2219    167.6927    112.6309   7.2418693767e+01   2.5649664191e+01      0.31888    0.2315353 -80.21  0.001165541    2.078    0.519
        56 -11.4555    118.4407    110.3579   8.4315238564e+01   3.7042352610e+01     0.657431     0.469183  67.35  0.002840786    1.865    0.464
        57  -9.4269    205.6183    110.1461   6.3984361660e+01   1.7414657006e+01    0.2714259    0.2195217  39.48 0.0006352672    1.312    0.238
        58  -9.8663    134.5491    105.2275   7.8525110359e+01   3.4752029631e+01    0.4859073    0.1527562 -44.94  0.001442454    3.160    0.684
        59  -9.6903     50.4307    224.6269   1.1959151472e+02   2.1656336535e+01    0.1812919    0.1046518  85.47  0.000706565    1.693    0.409
        60  -9.7058    184.5213    212.9690   9.0468133352e+01   2.8833363404e+00    0.1891942     0.131154 -39.61  0.001034707    1.603    0.376
        61  -8.3506     56.8399    209.0909   1.1697958615e+02   2.4017673115e+01    0.1889795    0.1401099 -73.13 0.0006113371    1.340    0.254
        62 -12.7301     32.7189    206.7976   1.2168613788e+02   2.7330668085e+01    0.3403283    0.1604202  56.28  0.001107561    1.867    0.465
        63  -8.9336    184.4710     77.0519   5.9141165529e+01   2.8310307477e+01    0.2315073     0.147801 -35.11 0.0006772117    1.549    0.354
        64 -11.9555    248.2760    245.2714   8.4029394657e+01  -1.1211455654e+01    0.5035195    0.2820819 -33.99  0.003103915    2.014    0.504
        65 -10.3073     71.8666    245.1449   1.1720835583e+02   1.5043105856e+01    0.2510444    0.1483544 -72.12  0.001549172    1.830    0.454
        66 -11.0649     65.7335    204.5749   1.1466812409e+02   2.3816793094e+01    0.3429068    0.1881257 -65.76  0.001360443    1.807    0.447
        67  -8.9349     70.1652    199.5783   1.1317422843e+02   2.4289913215e+01    0.1760992     0.120427  36.99 0.0008497979    1.499    0.333
        68  -9.0819    167.8582    231.1071   9.6741093079e+01   2.7614714742e+00    0.1810526    0.1565041  42.06 0.0004224784    1.158    0.137
        69  -8.9910     44.4218    230.2026   1.2114881694e+02   2.1290848529e+01    0.1457551   0.08788151  80.61 0.0008961395    1.507    0.336
