#   1 NUMBER                 Running object number                                     
#   2 MAG_AUTO               Kron-like elliptical aperture magnitude                    [mag]
#   3 X_IMAGE                Object position along x                                    [pixel]
#   4 Y_IMAGE                Object position along y                                    [pixel]
#   5 X_WORLD                Barycenter position along world x axis                     [deg]
#   6 Y_WORLD                Barycenter position along world y axis                     [deg]
#   7 A_WORLD                Profile RMS along major axis (world units)                 [deg]
#   8 B_WORLD                Profile RMS along minor axis (world units)                 [deg]
#   9 THETA_WORLD            Position angle (CCW/world-x)                               [deg]
#  10 FWHM_WORLD             FWHM assuming a gaussian core                              [deg]
#  11 ELONGATION             A_IMAGE/B_IMAGE                                           
#  12 ELLIPTICITY            1 - B_IMAGE/A_IMAGE                                       
         1 -12.0104    205.1628     42.1610   4.1484631714e+01   2.9229435688e+01    0.9766923    0.5112369 -37.60  0.004785211    1.871    0.466
         2 -12.1904    212.3653     37.2149   3.9523446158e+01   2.8278954348e+01    0.9841751    0.7166294 -53.64  0.005869563    1.229    0.186
         3 -11.7744    231.3002     20.6485   3.4146747625e+01   2.6280464880e+01    0.6918474    0.5188811 -62.49  0.002887158    1.092    0.084
         4 -10.8103      2.3630     18.2632   9.2521029554e+01   7.1978538481e+01    0.9001299    0.1115213 -52.50  0.002697869    7.263    0.862
         5  -9.2847    249.7029      2.5067   2.9313283656e+01   2.4638070213e+01    0.2495984    0.1754246 -60.40  0.001560251    1.113    0.102
         6 -10.7719     75.4346    219.8585   1.0771380663e+02   1.8368415576e+01    0.7587404    0.1583567  44.93  0.002453557    3.942    0.746
         7 -13.4001      9.2992    207.8979   1.2102916943e+02   2.8879727448e+01     2.015224    0.9619379 -81.31  0.006180076    1.805    0.446
         8 -14.0722     38.4785    193.4525   1.1343651874e+02   2.9157725252e+01     9.886833     3.734749  80.59   0.02844387    5.768    0.827
         9  -7.9717    178.4715    223.4606   8.5787512886e+01   1.4136404176e+00    0.1304038    0.1156596  18.34 0.0001857438    1.026    0.025
        10 -11.5688    129.3361    230.9449   9.7258288334e+01   7.8939769288e+00    0.7694989    0.3537102  36.86   0.00349227    1.917    0.478
        11  -8.3214     32.3183    222.4082   1.1722705800e+02   2.3310224854e+01    0.1742549   0.09267693  46.81 0.0009560391    1.604    0.377
        12  -9.6286     43.5918    218.2830   1.1452412529e+02   2.2891978171e+01     0.309388      0.20649  56.88 0.0008334226    1.282    0.220
        13  -8.8222     33.0308    235.0232   1.1797251387e+02   2.0568063986e+01    0.1464568    0.1125644  75.71 0.0005484349    1.073    0.068
        14 -11.2116     57.4953    240.6995   1.1350039007e+02   1.6430567551e+01    0.6462093    0.4234012  28.68 0.0005053718    1.745    0.427
        15 -11.5453     28.4382    203.7020   1.1662330746e+02   2.7893238799e+01    0.4630642    0.4305734 -23.15  0.001160425    1.524    0.344
        16  -7.4588     57.2973    189.6265   1.0852476222e+02   2.7765610565e+01    0.1483371   0.09047366  70.34 8.408491e-05    1.743    0.426
        17 -10.2891     57.6470    177.0436   1.0689595633e+02   3.0777484169e+01    0.4596022    0.2950177 -32.85  0.002068549    2.343    0.573
        18 -10.1508     63.2237    171.5885   1.0471829820e+02   3.1384121798e+01    0.3169543     0.265231 -43.08 0.0007715563    1.388    0.280
        19 -11.9494     11.4661    232.6662   1.2202123983e+02   2.3373533101e+01    0.8823942    0.4315219  87.63  0.001809355    1.822    0.451
        20  -9.9764     11.0298    169.8021   1.1788485998e+02   3.7565520846e+01    0.2235018    0.1915485  72.16 0.0007807887    1.126    0.112
        21  -9.4851     89.2115    166.7936   9.7094103275e+01   2.8710956772e+01    0.2857808    0.1865749 -76.59  0.001291172    1.705    0.414
        22 -10.1279     73.3293    162.3706   1.0063597064e+02   3.2260193975e+01    0.3312115    0.2838183 -66.86 0.0006398128    1.119    0.107
        23 -11.6806     60.2426    158.2907   1.0358916970e+02   3.5119453498e+01    0.5383655    0.3160985 -43.69  0.001151459    1.982    0.495
        24 -10.9400     81.0634    156.2035   9.7480737972e+01   3.2640762427e+01    0.6843038    0.4521498 -35.94   0.00170622    1.914    0.478
        25 -10.5139     73.3896    154.8307   9.9378670009e+01   3.4149211169e+01    0.5169127    0.3358325  71.19  0.002319377    1.887    0.470
        26 -11.6235     68.3159    144.5604   9.9045188591e+01   3.7485659212e+01    0.8491337    0.5634534  75.11   0.00294993    1.883    0.469
        27 -13.3569     38.6189    249.3046   1.1784091057e+02   1.7052465419e+01     4.797902      1.40601  26.41   0.01308536    8.946    0.888
        28 -12.9158      6.5045    245.1958   1.2356386454e+02   2.1355444606e+01     1.678206     1.082379  69.97   0.01170658    1.162    0.139
        29  -9.2136     97.0445    140.9834   9.0077810354e+01   3.3802737782e+01    0.5593402    0.3489003 -23.14  0.002102294    2.730    0.634
        30 -10.5386     83.9349    140.4312   9.3723821391e+01   3.6149983114e+01    0.3367743    0.2720486 -48.24 0.0004730979    1.241    0.194
        31 -10.8958     58.8579    132.8938   9.9759239351e+01   4.1741643749e+01    0.9276266    0.3787116 -77.27  0.002626885    4.743    0.789
        32  -9.7446     71.9286    132.9679   9.5798421194e+01   3.9889135873e+01    0.2875116    0.2071254  56.51 0.0006214785    1.531    0.347
        33  -9.2154    106.7658    131.1049   8.5170852907e+01   3.4455059690e+01    0.3552825    0.3137703  33.75  0.001420025    1.192    0.161
        34  -8.9212     94.6287    127.1153   8.7759540076e+01   3.7642298728e+01    0.2726201    0.2249701  25.04   0.00058093    1.348    0.258
        35 -10.6801     23.3176    224.1687   1.1919059919e+02   2.3922987787e+01    0.3998841    0.2260138  64.15  0.002328844    1.500    0.333
        36  -7.8764    105.7150    119.4231   8.2711771820e+01   3.7450548178e+01    0.1982795    0.1504744  26.55 0.0003281382    1.497    0.332
        37  -8.2870    204.5674    110.8287   5.7807316534e+01   1.8067470717e+01    0.2842293     0.188731  33.42  0.001309821    1.990    0.498
        38 -10.5771     84.7951    220.9044   1.0575290200e+02   1.6795768068e+01    0.5191361    0.3149714 -80.66  0.001560827    1.890    0.471
        39  -7.7468     41.4337     92.1792   9.7174508923e+01   5.3808508772e+01    0.1813979    0.1240807 -69.91 0.0005113295    1.548    0.354
        40 -10.5473      2.0855     79.5030   1.0949510356e+02   5.9873203201e+01    0.6090513    0.1138197 -66.36  0.002085799    3.935    0.746
        41  -7.7117     32.3223     61.6685   9.2734155762e+01   6.1453833874e+01    0.1189846    0.1005437  74.18 0.0007049748    1.699    0.412
        42  -9.3008     13.3494     60.2323   1.0059161027e+02   6.3388712638e+01    0.2123639    0.1485595 -36.92 0.0004047184    1.209    0.173
        43 -10.3419      2.0763     53.5145   1.0396439771e+02   6.5470677904e+01    0.5797471   0.09007057 -63.24  0.001764043    5.653    0.823
        44  -8.3787     32.9807     54.9636   9.0377143863e+01   6.2722889525e+01     0.186023    0.1630041 -24.38 0.0003748631    1.050    0.048
        45 -12.5964    113.6854    231.0892   1.0065020539e+02   1.0320967074e+01      2.02357    0.5903361  34.48   0.00711091    3.304    0.697
        46 -11.1562    220.4595     30.5007   3.7199296806e+01   2.7372858116e+01     0.569656    0.4294787  40.93  0.001504894    1.931    0.482
        47 -11.4622     97.8476    229.6160   1.0390097520e+02   1.3037643574e+01    0.7893201    0.3789914  60.68  0.003281154    2.718    0.632
        48  -8.0691    131.0046     38.4724   5.2270595756e+01   4.7344325359e+01    0.1772776    0.1159086 -88.28 0.0003491431    2.117    0.528
        49 -11.0502    102.4535    228.6406   1.0278277298e+02   1.2538474036e+01    0.4404059    0.3058791  54.88   0.00245628    1.338    0.252
        50  -9.9104     77.1430    225.4608   1.0793977692e+02   1.6927417744e+01     0.346811    0.1826186 -78.86  0.001648238    2.224    0.550
