#   1 NUMBER                 Running object number                                     
#   2 MAG_AUTO               Kron-like elliptical aperture magnitude                    [mag]
#   3 X_IMAGE                Object position along x                                    [pixel]
#   4 Y_IMAGE                Object position along y                                    [pixel]
#   5 X_WORLD                Barycenter position along world x axis                     [deg]
#   6 Y_WORLD                Barycenter position along world y axis                     [deg]
#   7 A_WORLD                Profile RMS along major axis (world units)                 [deg]
#   8 B_WORLD                Profile RMS along minor axis (world units)                 [deg]
#   9 THETA_WORLD            Position angle (CCW/world-x)                               [deg]
#  10 FWHM_WORLD             FWHM assuming a gaussian core                              [deg]
#  11 ELONGATION             A_IMAGE/B_IMAGE                                           
#  12 ELLIPTICITY            1 - B_IMAGE/A_IMAGE                                       
         1 -15.3255    105.0729    109.4828   2.9132191337e+02   5.8745921080e+00   0.07858938     0.062336 -27.69  0.008915248    1.380    0.275
         2 -15.6076      6.9936     69.8524   2.9220116466e+02   6.9151747389e+00   0.08039261   0.04958576 -61.82  0.006374358    1.613    0.380
         3 -15.4929     54.8263     71.5372   2.9166312138e+02   6.6095229158e+00    0.1123995   0.07363949  32.70   0.00913076    1.510    0.338
         4 -15.2078     84.7237     66.5622   2.9128972548e+02   6.4869007693e+00    0.1479561   0.06674717 -28.51  0.009241641    4.914    0.797
         5 -15.3101    119.4481     54.7591   2.9081888067e+02   6.4128529220e+00    0.0625771   0.04055864   9.54  0.001885314    1.862    0.463
         6 -15.6955    146.7874     30.5927   2.9035607166e+02   6.5238694192e+00    0.1317678   0.05383948  29.41   0.01096881    2.404    0.584
         7 -15.0171    122.6775     36.7476   2.9067034606e+02   6.5988916199e+00   0.05651203   0.03436804   7.74  0.003060919    2.130    0.531
         8 -14.9056    166.2894     30.3391   2.9013123855e+02   6.4091779661e+00   0.05082167   0.04044957  16.14  0.003053321    1.323    0.244
         9 -13.7760    187.6458     12.7769   2.8977789396e+02   6.4804525759e+00   0.05510455   0.03294126 -31.70  0.004474479    2.082    0.520
        10 -12.9684    195.0125     23.3787   2.8975941312e+02   6.3151528400e+00   0.03860198   0.01819573 -64.85  0.002831053    2.232    0.552
        11 -15.1790     42.2751      8.1471   2.9141509978e+02   7.4080795777e+00   0.09565888   0.06174688 -46.05  0.008142123    1.561    0.359
        12 -14.5372     25.2433     31.7094   2.9175627183e+02   7.2413525805e+00   0.06319879   0.04255163  72.04  0.006237962    1.990    0.497
        13 -13.4972      8.0795      3.1712   2.9177680967e+02   7.6695722433e+00   0.03603771   0.03092215  54.08  0.004293121    1.230    0.187
        14 -15.1827      8.0717     29.3812   2.9193892606e+02   7.3706683789e+00   0.06286404   0.04369067  47.81  0.006702787    1.530    0.346
        15 -14.3039     25.1388     13.7683   2.9164653388e+02   7.4466365714e+00   0.03268558   0.02843621  31.29  0.002202239    1.152    0.132
        16 -13.8938     17.6627     12.4288   2.9172405558e+02   7.5066666488e+00   0.03556609   0.02093327 -72.72  0.002281554    1.957    0.489
        17 -14.9334     13.9043     20.2973   2.9181584469e+02   7.4394095319e+00   0.05049665   0.04129024   3.72  0.004375414    1.339    0.253
        18 -13.5835    232.0604      2.1614   2.8920410444e+02   6.3328995276e+00   0.07858481   0.02873824  18.84  0.005172489    4.135    0.758
        19 -14.4956    215.1434     20.4000   2.8951072241e+02   6.2274629732e+00   0.06968873   0.02643674 -63.63  0.005427775    2.764    0.638
        20 -14.7597    218.6876     14.9976   2.8943666769e+02   6.2675836266e+00   0.05610838   0.04702391  68.21  0.004884061    1.328    0.247
        21 -15.7544     99.4868     12.8693   2.9078815467e+02   7.0107226574e+00    0.0769558   0.04406306  23.44  0.003169475    1.835    0.455
        22 -12.3615    202.3084     11.4745   2.8960208123e+02   6.4067181885e+00   0.01465626   0.01107862 -36.40 0.0007305631    1.403    0.287
        23 -11.6968    162.1201      8.8573   2.9004571483e+02   6.6791846294e+00   0.01703401  0.009139298  50.89  0.001518573    2.218    0.549
        24 -11.6577    125.9646      8.6980   2.9045883779e+02   6.8989301698e+00   0.01211935  0.008832964 -47.02  0.001320866    1.368    0.269
        25 -11.3804    153.8357      8.0060   2.9013529046e+02   6.7388535706e+00   0.01112818  0.009476701  25.97  0.000327261    1.183    0.155
        26 -12.2888    121.5843      4.4028   2.9048239625e+02   6.9742645894e+00    0.0214269  0.009559714  42.09  0.001822721    2.314    0.568
        27 -14.3995    189.7383     26.7501   2.8984066179e+02   6.3085788531e+00   0.07875287     0.042706  81.94  0.005661326    3.918    0.745
        28 -11.1876     67.5045      3.8709   2.9109916110e+02   7.3054884323e+00   0.01117945  0.009260507 -14.35  0.001283543    1.338    0.252
        29 -11.9129     26.5345      3.9756   2.9156993151e+02   7.5499521302e+00   0.01327518   0.00953683   0.33  0.001387274    1.678    0.404
        30 -12.2702     81.0838      1.8924   2.9093114818e+02   7.2464871684e+00     0.028065   0.01119466  20.77   0.00210402    3.103    0.678
        31 -11.3775     59.3849      1.8274   2.9117965237e+02   7.3775202390e+00   0.01452094   0.01020926 -59.95  0.001562453    1.405    0.288
        32 -10.9991     62.4785      1.5058   2.9114216818e+02   7.3626205231e+00    0.0124586    0.0084928  12.20 0.0007521206    1.672    0.402
        33 -12.7859    222.8967     21.5646   2.8942932262e+02   6.1673235817e+00   0.02155903   0.01783457 -38.46 0.0005285886    1.240    0.194
        34 -12.8155    201.3441    191.9217   2.9073027447e+02   4.3538354229e+00   0.02177043   0.01573068 -45.13  0.001931024    1.395    0.283
        35 -14.5416     95.6935    236.2832   2.9221059569e+02   4.4820825626e+00   0.09126768   0.04502194  53.68  0.007475703    2.732    0.634
        36 -12.0087     40.9772    248.5768   2.9291142802e+02   4.6693821567e+00   0.02385657   0.00985224 -65.74  0.001904234    2.637    0.621
        37 -13.8565     27.6370    246.2224   2.9304946807e+02   4.7760986696e+00   0.03774409   0.03433636  84.19  0.004626737    1.171    0.146
        38 -12.4101     26.4410    236.8490   2.9300566805e+02   4.8904061366e+00   0.04127761   0.01896203  11.47  0.002985111    3.577    0.720
        39 -14.3830      8.0712    245.8586   2.9327088683e+02   4.8972149286e+00   0.04831092   0.03820537  43.74   0.00347944    1.292    0.226
        40 -13.4480     30.0487    169.9217   2.9255338363e+02   5.6339151842e+00   0.04693593   0.02710786 -22.66  0.003531568    2.587    0.613
        41 -14.5850     14.0239    157.6522   2.9266139258e+02   5.8700166768e+00     0.135336   0.06712251 -26.68  0.009836206    3.644    0.726
        42 -13.9748     22.4607    181.0836   2.9270885395e+02   5.5517206467e+00   0.04171051   0.03427709 -20.76  0.003671932    1.340    0.254
        43 -15.0012      8.8719    183.3981   2.9287859830e+02   5.6065115118e+00   0.06514605   0.05703348   7.71  0.007841432    1.200    0.167
        44 -14.5408     15.5622    175.3609   2.9275264397e+02   5.6583944907e+00   0.06474619   0.03356263  47.95  0.005286959    2.184    0.542
        45 -10.8213    107.6925    192.8940   2.9180644731e+02   4.9059209931e+00   0.01099897  0.007629584 -44.10 0.0008961909    1.468    0.319
        46 -10.6152     81.2530    193.3889   2.9211186074e+02   5.0589210694e+00   0.00966308   0.00583708  38.40 0.0009522509    1.648    0.393
        47 -13.4124     87.2042    180.7604   2.9196604350e+02   5.1675478570e+00   0.06098246   0.01797825  44.75  0.003895105    4.218    0.763
        48 -12.4315    110.8035    182.7719   2.9170851426e+02   5.0029043945e+00   0.02597243   0.01411596 -11.82  0.001928943    3.587    0.721
        49 -12.6684     48.7674    180.8985   2.9240665963e+02   5.3963824151e+00   0.03144829   0.01656217 -53.52  0.002966288    1.823    0.451
        50 -11.0751    198.8161    183.3788   2.9070639477e+02   4.4666051728e+00  0.009435823  0.006357603  12.51 0.0009513828    1.700    0.412
        51 -11.5957    122.6031    181.9297   2.9156839353e+02   4.9416490791e+00   0.02282234   0.01270639  69.28  0.001807778    3.123    0.680
        52 -12.5082    194.8657    177.1056   2.9071277314e+02   4.5620270335e+00   0.01887024   0.01572623 -78.97  0.001747111    1.285    0.222
        53 -12.6746    131.9914    173.1908   2.9140716080e+02   4.9850719533e+00   0.02270688   0.02092993 -82.22  0.002799989    1.128    0.113
        54 -13.6036    123.8335    166.2317   2.9145752922e+02   5.1136082774e+00   0.04007157   0.02531311 -87.43  0.003768327    2.162    0.537
        55 -12.8487    122.5145    155.1718   2.9140438622e+02   5.2478886544e+00   0.02936779   0.01743602 -56.21  0.002731238    1.630    0.386
        56 -11.1205    177.4739    167.4959   2.9085211679e+02   4.7764941117e+00  0.006477376  0.006439989 -60.02 0.0001889683    1.012    0.011
        57 -12.9005     25.5484    157.0162   2.9252552312e+02   5.8083550935e+00   0.02984667   0.02277433  29.93  0.003364078    1.311    0.237
        58 -10.2626    107.7200    159.6731   2.9160139315e+02   5.2853527721e+00  0.006847973  0.004866353 -30.66 0.0002772438    1.596    0.374
        59 -11.4054    155.3834    157.6962   2.9104408997e+02   5.0213800359e+00   0.01589186  0.008735573  51.33  0.001433941    2.161    0.537
        60 -12.7992    111.6709    155.8281   2.9153247998e+02   5.3055490726e+00   0.02834449   0.01704221  68.49  0.002505768    2.487    0.598
        61 -12.6954     77.8696    157.1495   2.9192740028e+02   5.4933682530e+00    0.0208714   0.01461713  12.84  0.001190175    1.601    0.375
        62 -13.5005     74.2072    153.6075   2.9194749205e+02   5.5558118048e+00   0.03615398   0.02540523  20.07  0.002859858    1.500    0.333
        63 -12.1958     55.8806    155.9399   2.9217163651e+02   5.6390303230e+00   0.01988295   0.01301139  -5.06  0.001380991    2.066    0.516
        64 -12.4097     85.9942    153.3902   2.9181124956e+02   5.4875790844e+00   0.02744457   0.01853923 -42.55  0.002881313    1.531    0.347
        65 -11.4240     41.6897    154.5539   2.9232556275e+02   5.7398791027e+00   0.01535806  0.009184462  70.05  0.001331148    2.564    0.610
        66 -12.2388    103.5071    149.7491   2.9158838925e+02   5.4240401689e+00   0.01879574   0.01357636 -41.29    0.0014686    1.431    0.301
        67 -12.3945      6.8239    148.2103   2.9268577733e+02   6.0209802748e+00   0.02218242   0.01602562 -75.10  0.002385164    1.519    0.342
        68 -12.1487    244.4286    147.3354   2.8996285230e+02   4.6030505143e+00   0.01684314   0.01144913 -68.99  0.001760223    1.553    0.356
        69 -13.2207    208.5379    154.6633   2.9041794568e+02   4.7358724629e+00   0.03411127   0.02291344  30.78  0.003610673    1.480    0.324
        70 -11.5000     44.7153    145.2664   2.9223373395e+02   5.8279004275e+00   0.01161911   0.01061622   4.48 0.0005754425    1.134    0.118
        71 -11.4028     38.6105    145.7025   2.9230632424e+02   5.8594766819e+00   0.01167208  0.009788577 -25.65 0.0007428931    1.279    0.218
        72 -11.4119    149.3659    140.7498   2.9100823787e+02   5.2511360936e+00   0.01669574   0.01066602  58.81  0.001622476    1.937    0.484
        73 -11.7443     89.1799    140.8239   2.9169730314e+02   5.6120385473e+00    0.0147111  0.008457352 -27.07  0.001055592    2.427    0.588
        74 -13.1054     42.6310    139.5704   2.9222251921e+02   5.9054765800e+00   0.05676181   0.01885525 -55.09  0.004198013    2.734    0.634
        75 -11.6583     47.0117    135.1484   2.9214510944e+02   5.9297676557e+00   0.03308255   0.00991809 -51.20  0.002396529    3.091    0.676
        76 -11.7958     64.3139    134.6642   2.9194399334e+02   5.8316006215e+00    0.0201135  0.008471422 -59.51  0.001691488    2.285    0.562
        77 -10.9239     61.0006    134.0000   2.9197783756e+02   5.8590546152e+00   0.01382905  0.009658243  20.48 0.0008514874    1.506    0.336
        78 -12.7438    246.5123    134.0240   2.8985669449e+02   4.7423551833e+00   0.02289706   0.01879102  85.26  0.002536231    1.387    0.279
        79 -14.1234    232.9786    127.7037   2.8997207209e+02   4.8961509929e+00    0.0445014    0.0313948  64.80   0.00462063    1.738    0.425
        80 -13.2562    223.4518    128.6103   2.9008647041e+02   4.9432924097e+00    0.0313927   0.02128709  67.83  0.003133786    1.910    0.477
        81 -13.2339    132.9802    129.7053   2.9112744084e+02   5.4758531583e+00   0.04256255    0.0159614 -60.91  0.003375928    2.609    0.617
        82 -13.4972     99.3683     94.9179   2.9129724643e+02   6.0751957638e+00   0.04227393   0.01662309  42.00  0.003378903    2.639    0.621
        83 -12.3580    110.6799    131.8456   2.9139583006e+02   5.5854781146e+00   0.02519873   0.01740326  -3.89  0.002550422    1.844    0.458
        84 -13.1484    109.8777     96.1420   2.9118446918e+02   5.9980558930e+00   0.02159616    0.0150326  74.26 0.0009335772    1.875    0.467
        85 -14.7444    105.4387    123.0210   2.9140133534e+02   5.7177700371e+00    0.1127252    0.0488977  19.48  0.008861918    2.863    0.651
        86 -11.4490    235.9817    249.0000   2.9068719909e+02   3.4936708324e+00    0.0111569   0.00374309  27.81 0.0008109216    3.002    0.667
        87 -13.9814     89.2695    109.4411   2.9150260524e+02   5.9699991834e+00   0.05684646   0.03233624   8.52  0.005038487    2.388    0.581
        88 -13.1033      4.1918    119.9290   2.9254190306e+02   6.3599149955e+00   0.03328366   0.02877668   2.69  0.002601065    1.235    0.190
        89 -13.7140     28.0917    123.5915   2.9229062256e+02   6.1751164361e+00   0.05371174   0.02755462 -47.95   0.00495443    1.945    0.486
        90 -14.0018     32.5324    111.4791   2.9216510261e+02   6.2869232060e+00   0.04480812   0.01885848 -56.74  0.003816319    2.236    0.553
        91 -14.4261      2.7087     96.8219   2.9241657965e+02   6.6327759600e+00   0.07597497    0.0311515 -66.44  0.005640432    2.724    0.633
        92 -14.9816     18.1370    110.5987   2.9232463216e+02   6.3831333369e+00   0.05742851   0.05156573  15.47  0.004571923    1.140    0.123
        93 -15.7310     26.5697     94.5616   2.9212912742e+02   6.5158737322e+00    0.1155682   0.07408898  14.66   0.01159898    1.778    0.438
        94 -11.3194    184.9520    124.2529   2.9049939538e+02   5.2251868586e+00   0.01046508  0.008860359  63.99 0.0004824766    1.293    0.226
        95 -12.5460    180.6463    121.0816   2.9052900068e+02   5.2873371408e+00   0.01810943    0.0131036  26.70  0.001350196    1.396    0.284
        96 -11.7154     51.7899    117.2919   2.9198031388e+02   6.1051603450e+00   0.02154818   0.01087871 -81.83   0.00162524    3.315    0.698
        97 -12.5020    176.6380    111.5915   2.9051612189e+02   5.4198223408e+00   0.01930346    0.0135595 -57.49  0.002082839    1.394    0.283
        98 -12.3614     45.5390    110.0497   2.9200726408e+02   6.2253529068e+00   0.02748225   0.01697291 -36.43  0.002690993    1.836    0.455
        99 -12.4977    121.0663    111.5586   2.9115165947e+02   5.7547454186e+00   0.01716892   0.01001864  44.31  0.001664471    1.794    0.443
       100 -11.7266     49.2583     94.1501   2.9186655831e+02   6.3846804349e+00   0.01969506    0.0135814 -83.13  0.002015109    1.756    0.430
       101 -13.1227     62.4799    102.8755   2.9176891687e+02   6.2057559576e+00   0.06224154   0.03461437 -74.46  0.005635285    2.196    0.545
       102 -13.2087     43.2102     90.8951   2.9191578370e+02   6.4580975702e+00   0.06445927   0.01420526 -62.55  0.003802524    4.768    0.790
       103 -12.5191     47.9154    100.7076   2.9192241050e+02   6.3178297569e+00   0.02547549   0.01708152  44.35  0.002569104    1.546    0.353
       104 -12.6823     52.5303     98.1649   2.9185384206e+02   6.3192131583e+00   0.02469472   0.01426993 -34.15  0.002250185    2.106    0.525
       105 -11.2556    222.5187    109.6536   2.8997978289e+02   5.1652268529e+00   0.01163605  0.006149102  28.22 0.0009597643    1.898    0.473
       106 -10.8150    152.1912    105.3994   2.9075742080e+02   5.6377767162e+00   0.01003282  0.005701784  39.79 0.0009576273    1.763    0.433
       107 -13.3680    122.9893    102.8701   2.9107595195e+02   5.8423935245e+00   0.02636121   0.01955185  18.85   0.00290188    1.419    0.296
       108 -12.8278    135.9251    103.2884   2.9093048483e+02   5.7597935054e+00   0.02834222   0.01604576  24.49  0.001905838    1.836    0.455
       109 -11.8487    129.0033    102.4643   2.9100460792e+02   5.8108511752e+00   0.01383009   0.01071352  25.66 0.0009432695    1.306    0.234
       110 -13.0022    137.2284     96.2875   2.9087227699e+02   5.8318777008e+00   0.02473207   0.01747905 -78.16  0.002000276    1.615    0.381
       111 -12.8630    249.0222     98.6262   2.8960882812e+02   5.1309776566e+00   0.02151331   0.01042837 -62.16  0.001917604    2.068    0.516
       112 -11.0744    188.8053     96.8053   2.9028550022e+02   5.5152274884e+00   0.00949542  0.007849857  66.08  0.001082581    1.349    0.259
       113 -12.5313    127.4865     95.6013   2.9097953591e+02   5.8983324621e+00   0.02218884   0.01063918  47.21  0.001892902    2.378    0.579
       114 -11.3876     76.0309     95.7709   2.9156981653e+02   6.2056004439e+00   0.01022943  0.009236615 -59.56 0.0002348734    1.099    0.090
       115 -15.4768    165.1097     78.8215   2.9044515628e+02   5.8632995356e+00    0.1061725   0.06191326  12.11   0.00505097    2.142    0.533
       116 -13.7910    188.5220     84.1471   2.9021035913e+02   5.6613715344e+00    0.0380502   0.02333198  15.76  0.001972005    1.873    0.466
       117 -13.5140     84.3133    115.6318   2.9159757910e+02   5.9290464046e+00   0.04818068   0.02554144   9.49  0.004010898    2.709    0.631
       118 -11.9187     89.7134     87.5709   2.9136242505e+02   6.2170873541e+00   0.02084732    0.0109578  37.12  0.001935252    1.869    0.465
       119 -13.4296    135.0333     79.5355   2.9079377089e+02   6.0363111570e+00   0.04092893   0.01888811  29.11  0.003602535    2.146    0.534
       120 -12.2091    125.5833     86.6048   2.9094568547e+02   6.0124885838e+00   0.01831941   0.01493116  70.87  0.002089786    1.398    0.285
       121 -12.8628    131.8134     85.6319   2.9086834742e+02   5.9861062699e+00   0.03223278    0.0149312  41.28  0.002815331    2.197    0.545
       122 -10.6414     79.0224     87.4924   2.9148441107e+02   6.2821793823e+00  0.009945044  0.006451582  28.53 0.0004823867    1.544    0.352
       123 -13.9511    238.5066     81.3366   2.8962174652e+02   5.3916757246e+00   0.05174686   0.02087999  45.55  0.004042032    2.832    0.647
       124 -13.8085    170.3836    242.2778   2.9139429709e+02   3.9650559219e+00   0.04886441   0.03676844   9.54  0.005373535    1.480    0.324
       125 -11.9846      5.6121     50.6410   2.9209845260e+02   7.1427601203e+00   0.01594351    0.0143622 -53.36  0.001444487    1.095    0.087
       126 -10.8406     98.2529     84.1783   2.9124364361e+02   6.2045213747e+00  0.009228117  0.007523701  60.66 0.0005089944    1.351    0.260
       127 -13.0496    193.0247     75.3625   2.9010445963e+02   5.7344259772e+00   0.02096256   0.01551512  35.31  0.001415233    1.345    0.257
       128 -13.9961    199.4777     69.9818   2.8999734161e+02   5.7568599670e+00   0.03926982   0.02373354  23.07  0.002482453    1.738    0.425
       129 -12.4078    219.8082     75.1661   2.8979710148e+02   5.5749890378e+00   0.01795777     0.014091 -54.25  0.001237866    1.251    0.201
       130 -12.9934    216.8728     79.8188   2.8985947794e+02   5.5396511616e+00   0.02002556   0.01818006 -35.34  0.001283244    1.116    0.104
       131 -13.1707    210.5765     77.5975   2.8991766583e+02   5.6030008400e+00   0.03412091   0.01928576  56.56   0.00305614    2.304    0.566
       132 -12.5969    145.0158    231.4658   2.9161742017e+02   4.2410246529e+00   0.02449594   0.01042982 -54.41  0.002090985    2.209    0.547
       133 -13.6250     10.3726    210.5328   2.9302799883e+02   5.2873283724e+00    0.0493589   0.03542825  26.28  0.005393379    1.410    0.291
       134 -14.0085    131.7826     66.6879   2.9075147329e+02   6.2025025413e+00   0.05892239     0.040635  26.12  0.006304605    1.470    0.320
       135 -13.7784    155.6983     45.3294   2.9034539326e+02   6.3021074041e+00     0.049624   0.02745111  -1.23  0.003951462    3.102    0.678
       136 -14.4797    101.2985     50.2577   2.9099893738e+02   6.5733768594e+00   0.04554907   0.02832734  42.20  0.002289586    1.643    0.391
       137 -12.8322     16.0809    197.6038   2.9288333895e+02   5.4010164264e+00   0.03775598   0.01345208 -46.68  0.002610055    2.942    0.660
       138 -12.3717     24.8791    217.4172   2.9290431862e+02   5.1218925980e+00    0.0267037   0.02138507  80.90  0.002976952    1.450    0.310
       139 -13.8024     25.6118    227.7840   2.9295954814e+02   4.9989959082e+00    0.0455483   0.02021872 -44.80  0.003815559    2.407    0.584
       140 -12.2683     41.9876     77.3791   2.9184637015e+02   6.6197749689e+00   0.01732386   0.01467679 -48.56  0.001001582    1.167    0.143
       141 -11.9396    241.7519     71.6560   2.8952467110e+02   5.4824448572e+00   0.01652067   0.01209115  64.25  0.001044838    1.627    0.385
       142 -12.1076    113.8044     80.7061   2.9104406908e+02   6.1506753629e+00   0.01775873   0.01687975 -70.87  0.001458929    1.063    0.060
       143 -11.0303    115.0486     71.1259   2.9097056014e+02   6.2525455750e+00  0.009899656  0.008534834 -29.39 0.0003871048    1.214    0.177
       144 -13.6328     20.3298    224.3494   2.9299887850e+02   5.0698463161e+00   0.02810479   0.02425926 -11.75  0.001810048    1.254    0.203
       145 -12.1743    158.1185     64.1212   2.9043411748e+02   6.0731623116e+00   0.01815815  0.009699094 -70.98   0.00162351    2.172    0.540
       146 -11.7562    100.6203     64.7388   2.9109631307e+02   6.4121987585e+00   0.01656056   0.01189154 -42.59  0.001177794    1.427    0.299
       147 -13.5092     79.2936     60.3057   2.9131326518e+02   6.5909223372e+00    0.0325694   0.02299399 -23.53   0.00339276    1.703    0.413
       148 -14.1299    177.8814     57.5876   2.9016751319e+02   6.0285344014e+00   0.03660129   0.02909401  80.44  0.002309575    1.474    0.321
       149 -12.0070     38.8882     60.4654   2.9177745275e+02   6.8314501220e+00   0.01734014   0.01211256  65.48   0.00177696    1.777    0.437
       150 -12.9402     25.4784     59.5256   2.9192542929e+02   6.9224858781e+00   0.02311547   0.01599943 -31.73  0.002409286    1.643    0.391
       151 -11.7112     31.4468     58.3073   2.9184945715e+02   6.9006581796e+00   0.01515779  0.009686717 -45.13  0.001006044    1.590    0.371
       152 -12.5885    248.2829     54.3073   2.8934248982e+02   5.6407212248e+00   0.02681125   0.01919175  76.29  0.002440431    1.785    0.440
       153 -12.0826    249.9902     49.0136   2.8929014963e+02   5.6907259087e+00   0.01743232   0.01472018 -46.88 0.0008933224    1.177    0.150
       154 -12.2557    230.2897     55.1381   2.8955316418e+02   5.7400253171e+00   0.02321839   0.01172491  39.13  0.002130258    1.966    0.491
       155 -11.3027    159.1162     55.6422   2.9037017484e+02   6.1638769411e+00   0.01189093  0.009310564 -78.49  0.001325846    1.399    0.285
       156 -12.3338     63.9804     50.5587   2.9142852259e+02   6.7940806219e+00   0.02086204   0.01547482  45.16  0.001197652    1.394    0.283
       157 -13.4085     68.7906     48.6847   2.9136178756e+02   6.7866017596e+00   0.03770576   0.02515189 -89.38  0.003710746    1.974    0.493
       158 -12.4839     67.4613     42.4978   2.9133875855e+02   6.8651788532e+00   0.01740065   0.01300865  22.45  0.001288034    1.376    0.273
       159 -11.8476     86.4385     49.3835   2.9116381795e+02   6.6726567294e+00   0.01207188   0.01183813 -27.78 0.0005759238    1.015    0.015
       160 -12.8056    235.4047    229.2052   2.9057167534e+02   3.7230726181e+00   0.01376524   0.01014199  70.80  0.001453989    1.664    0.399
       161 -12.7054    147.0231    238.5097   2.9163785695e+02   4.1484957649e+00   0.01894263   0.01400151 -82.95  0.001195586    1.566    0.362
       162 -14.5801    217.4620     41.9619   2.8961802010e+02   5.9677359460e+00   0.05620563   0.03237785  26.56   0.00482679    1.766    0.434
       163 -12.3627    202.2323     46.2821   2.8981892508e+02   6.0104846850e+00   0.01973014  0.009850621  36.49  0.001806462    1.954    0.488
       164 -11.8675     91.0282     80.2363   2.9130203209e+02   6.2929328808e+00   0.01823949   0.01465374   0.02   0.00107663    1.394    0.283
       165 -14.0495      8.7061     42.9305   2.9201534468e+02   7.2122626290e+00   0.08281975   0.03694576  34.16  0.007259041    2.154    0.536
       166 -13.0576     34.3517     32.9434   2.9165940058e+02   7.1727255832e+00   0.02474923   0.01615028  43.36   0.00183779    1.579    0.367
       167 -13.4501     57.4881    203.6925   2.9244705503e+02   5.0835997091e+00    0.0491637   0.02127082 -68.43   0.00392945    2.706    0.630
       168 -13.1065     53.0251    214.2809   2.9256316905e+02   4.9892973904e+00   0.03029751   0.01796445  52.52  0.002883563    1.978    0.495
       169 -13.4079     68.6988    221.2143   2.9242654814e+02   4.8161497053e+00   0.04513883   0.01529576 -55.86  0.003498716    2.691    0.628
       170 -14.6211     63.0491    214.9189   2.9245245959e+02   4.9219596113e+00   0.06733319   0.05504278 -85.83  0.007752484    1.358    0.264
       171 -11.6682    248.7457    224.8738   2.9039278832e+02   3.6921538083e+00    0.0137563  0.007781312  52.29  0.001255567    2.113    0.527
       172 -10.7549    163.4997    225.4707   2.9136937271e+02   4.1984117667e+00  0.006559896  0.006353177 -28.79 0.0001700304    1.033    0.032
       173 -13.8073    205.3148     40.3466   2.8974686528e+02   6.0595330373e+00   0.04274398   0.01659646  43.73  0.003334922    2.800    0.643
       174 -11.7027    169.1997     42.9203   2.9017593648e+02   6.2481739273e+00   0.01411532  0.009803366  30.40 0.0009357322    1.434    0.303
       175 -13.1871    111.1278     42.0689   2.9083562207e+02   6.6076919290e+00   0.02649706   0.01533995  15.52   0.00141278    2.039    0.510
       176 -13.1019    243.0131     36.2234   2.8929046071e+02   5.8786646441e+00   0.04051576   0.01637966  34.16  0.003389244    2.352    0.575
       177 -14.1779     97.5011    217.0135   2.9207143686e+02   4.6914562696e+00   0.04077337   0.02848989 -21.02  0.004196986    1.764    0.433
       178 -12.4752    104.8945     36.2378   2.9087093613e+02   6.7117010601e+00   0.02162522  0.008325893 -55.92  0.001762897    2.416    0.586
       179 -12.9496     75.8774     37.5679   2.9121176563e+02   6.8709036886e+00   0.01830509   0.01231677  26.52 0.0008978844    1.504    0.335
       180 -12.2787     70.7112     36.6941   2.9126559078e+02   6.9118903870e+00   0.01567071    0.0121857   3.76 0.0009192972    1.449    0.310
       181 -13.1032     56.2685     27.8028   2.9137620070e+02   7.0999920032e+00   0.02669604   0.01662411  27.58  0.001755822    1.616    0.381
       182 -11.7509     45.4526     36.4998   2.9155405121e+02   7.0656265997e+00   0.01191546   0.01011733 -40.10 0.0007090525    1.192    0.161
       183 -12.6368     47.3771     32.1532   2.9150509695e+02   7.1036817328e+00   0.02194831    0.0135631 -25.63  0.001754227    2.134    0.531
       184 -11.6593     51.7744     36.2928   2.9148026366e+02   7.0300865711e+00   0.02111616  0.008766155  24.06  0.001695907    2.625    0.619
       185 -11.7331    211.4098     33.2269   2.8963301140e+02   6.1038618219e+00   0.01244473    0.0103737  50.40 0.0004252762    1.254    0.202
       186 -13.2548     57.3912    246.9313   2.9271373618e+02   4.5899355585e+00   0.05007857   0.02968784   8.01  0.004599455    2.220    0.550
       187 -12.8930     85.0854    215.3657   2.9220324090e+02   4.7847620425e+00   0.01628571    0.0143101  66.04  0.001542523    1.227    0.185
       188 -12.9479    185.6509    213.0613   2.9103991165e+02   4.2069072172e+00   0.02348617   0.01172022 -65.26  0.002095395    2.104    0.525
       189 -11.4065     96.7833     30.8232   2.9093036324e+02   6.8222351128e+00   0.01340339   0.01022832  55.41  0.001091022    1.441    0.306
       190 -11.9820     97.8640     27.1589   2.9089528298e+02   6.8575325354e+00   0.01567165   0.01316183 -70.89  0.001317109    1.228    0.186
       191 -10.7216     89.0000     30.9289   2.9102023347e+02   6.8678126194e+00   0.01116325  0.003715123 -61.62 0.0008084657    2.984    0.665
       192 -11.6395    136.8004    211.2376   2.9158670551e+02   4.5214880022e+00   0.01156909  0.009050714 -76.92 0.0009696392    1.385    0.278
       193 -11.0895     39.7772    211.0169   2.9269463233e+02   5.1059246617e+00   0.01581279  0.008147731  36.57  0.001465086    1.899    0.473
       194 -11.7320     80.4757    208.6340   2.9221454564e+02   4.8893433862e+00   0.01501214   0.01003311  68.01   0.00147047    1.962    0.490
       195 -11.8228     71.9168    206.3442   2.9229833882e+02   4.9668271942e+00   0.01521245   0.01217417  18.85  0.001738924    1.297    0.229
       196 -10.8171    149.9664    206.5306   2.9140725813e+02   4.4961322589e+00   0.01014857  0.006539564  24.67   0.00102817    1.594    0.373
       197 -11.3783     70.7971     16.9751   2.9114254910e+02   7.1363006480e+00   0.01073166   0.00933956  29.15 0.0003874162    1.153    0.133
       198 -12.0751    133.5016    201.8729   2.9156671149e+02   4.6483041355e+00     0.019542   0.01869404  87.64  0.001924195    1.081    0.075
       199 -11.8841     45.2553    197.7347   2.9255036286e+02   5.2249638947e+00   0.01962289   0.01247317 -67.36  0.001987353    1.645    0.392
       200 -12.3897     41.7051    201.0085   2.9261109502e+02   5.2087948950e+00   0.01439066   0.01225028 -86.67  0.001520499    1.280    0.219
       201 -13.1557     39.4574    195.0370   2.9260011364e+02   5.2905127807e+00   0.02430187   0.02180516 -80.37  0.001715322    1.165    0.142
       202 -11.2864    213.1072    200.6913   2.9065011707e+02   4.1828628442e+00   0.01409026   0.01198722 -69.31  0.001661421    1.201    0.168
       203 -12.9919    164.5976    194.8263   2.9116791944e+02   4.5418430315e+00   0.03692476   0.02090569 -84.89  0.003130805    2.667    0.625
       204 -11.8659    248.8995    194.3557   2.9020255992e+02   4.0395083332e+00   0.01403535  0.009604928 -52.63  0.001489592    1.427    0.299
