#   1 NUMBER                 Running object number                                     
#   2 MAG_AUTO               Kron-like elliptical aperture magnitude                    [mag]
#   3 X_IMAGE                Object position along x                                    [pixel]
#   4 Y_IMAGE                Object position along y                                    [pixel]
#   5 X_WORLD                Barycenter position along world x axis                     [deg]
#   6 Y_WORLD                Barycenter position along world y axis                     [deg]
#   7 A_WORLD                Profile RMS along major axis (world units)                 [deg]
#   8 B_WORLD                Profile RMS along minor axis (world units)                 [deg]
#   9 THETA_WORLD            Position angle (CCW/world-x)                               [deg]
#  10 FWHM_WORLD             FWHM assuming a gaussian core                              [deg]
#  11 ELONGATION             A_IMAGE/B_IMAGE                                           
#  12 ELLIPTICITY            1 - B_IMAGE/A_IMAGE                                       
         1 -12.3057    244.8322    107.2290   7.1200621270e+01   1.0436553144e+01     5.261485    0.6072832 -46.32    0.0118648    7.567    0.868
         2 -12.6693    222.9657     41.0246   6.0299888367e+01   2.5500680444e+01     3.047963     1.014182 -55.83   0.01154078    3.447    0.710
         3 -11.5613    181.0945     77.7872   7.4509999362e+01   2.9313101691e+01     1.920967    0.7083472 -53.23  0.006245941    3.550    0.718
         4  -9.2409    246.8959     17.1287   5.3543014412e+01   2.3631422369e+01    0.2753628    0.1918919 -68.63  0.001095876    1.112    0.101
         5  -9.1237    191.3513     15.3201   5.8283900530e+01   3.5607487699e+01    0.4410408    0.2532332 -89.61  0.002119707    1.696    0.410
         6  -9.0900    196.7133      4.0823   5.5312817886e+01   3.5584779397e+01     0.229985    0.2069089  67.33 0.0007522067    1.327    0.246
         7  -9.0930    197.6144     12.3058   5.6965030563e+01   3.4539608364e+01    0.4059403    0.1935082 -75.90  0.001884165    2.548    0.608
         8 -10.7289    186.9262      4.6637   5.6411855130e+01   3.7684154183e+01     1.003821    0.5097745  86.68  0.005263353    1.895    0.472
         9 -10.4300    177.4857      3.5954   5.7180491220e+01   3.9887058553e+01    0.5127841    0.2843233  83.00  0.002764242    1.619    0.382
        10 -10.8007    148.5919     10.3226   6.2517317741e+01   4.5773248323e+01    0.5451906     0.203493  61.75  0.002509798    2.114    0.527
        11  -8.7911    163.7108      7.0149   5.9613831149e+01   4.2664110771e+01    0.1685818    0.1435574  87.26  0.000785297    1.073    0.068
        12  -8.8767    145.3903      5.5300   6.1716412224e+01   4.6918390442e+01    0.2409556    0.1777686  41.72 0.0006784147    1.449    0.310
        13  -9.7256    170.1794      6.4477   5.8681974703e+01   4.1259075544e+01    0.3166303    0.2078016 -28.70  0.001918733    1.873    0.466
        14  -9.1930    250.0603    178.9476   8.4816222313e+01  -3.4906516898e+00    0.2984798    0.1933899 -55.00   0.00155447    1.795    0.443
        15 -11.5702    232.1112    250.5192   1.0112817946e+02  -1.2593018605e+01    0.2236137    0.1315365  29.51            0    1.584    0.369
        16  -8.7340     21.5073    177.0308   1.3633154928e+02   3.5252678490e+01    0.1960619    0.1061994 -70.89 0.0004640987    1.520    0.342
        17  -9.2682    239.3820    169.4294   8.4733483169e+01  -5.4579966909e-02    0.2708974    0.2399086  -1.56 0.0001656464    1.205    0.170
        18  -8.6309     10.5046    172.4704   1.3842452014e+02   3.7364712991e+01    0.1271676    0.1009657 -78.48 9.089534e-05    1.039    0.038
        19  -8.9661     94.0484    167.4156   1.1657892040e+02   2.7991382115e+01    0.2559605    0.2026767 -59.94   0.00060834    1.201    0.167
        20  -9.1988    238.7927    174.2484   8.5797374892e+01  -8.4581128915e-01    0.3067749    0.2468475  48.59  0.001124214    1.478    0.323
        21  -8.4013    160.6269    165.7078   9.9713206544e+01   1.5673810333e+01    0.2465422    0.2237547  -8.51 0.0004817418    1.226    0.184
        22  -9.0257    239.6144    164.5491   8.3713446711e+01   8.1135154292e-01    0.2353155     0.219161  46.79 0.0006132892    1.255    0.203
        23  -7.8778    249.2965    164.0430   8.2013462780e+01  -6.9947141811e-01    0.1874257    0.1513205 -38.67 0.0004061575    1.052    0.049
        24 -10.2929    207.4272    162.1971   8.9046178073e+01   7.0849844086e+00    0.2547373     0.239828 -61.68  0.000293644    1.114    0.102
        25  -8.4231     93.1369    152.0731   1.1383159026e+02   3.1971671370e+01    0.2137003    0.2007615 -67.35 0.0002980907    1.011    0.011
        26  -7.2155    137.3127    147.3161   1.0122305364e+02   2.4731069178e+01    0.1581029    0.1266147 -10.13 0.0004372522    1.641    0.391
        27  -8.8539    227.0118    144.9012   8.1807261950e+01   6.7977851348e+00    0.2051733    0.1851698 -47.08 0.0002835357    1.022    0.021
        28  -8.9463     67.5438    143.3647   1.1920503396e+02   3.8152718705e+01    0.4525184    0.3285986  76.17  0.001862688    1.704    0.413
        29  -7.9476    212.5782    143.6394   8.4091569961e+01   9.8317329995e+00    0.2262556     0.175429  79.02  0.001127202    1.647    0.393
        30  -7.6843    155.1801    142.8509   9.5875877009e+01   2.2012670702e+01    0.2016082    0.1836708  -6.52 0.0002758051    1.253    0.202
        31 -11.1489    244.9364    124.7991   7.4772757153e+01   7.2505504329e+00    0.5335871    0.4170074 -41.43  0.003100623    1.158    0.137
        32  -7.5644    163.6509    178.2356   1.0165359693e+02   1.2249480174e+01    0.2135375    0.1379138 -40.17 0.0007520862    1.588    0.370
        33  -8.5988    249.9305    240.0567   9.6134802803e+01  -1.3395501637e+01    0.1766688    0.1407422  -6.62 0.0003444481    1.008    0.008
        34  -7.5069     20.3857    126.1430   1.2979742650e+02   4.7672909545e+01    0.1750677     0.107958 -75.71 0.0004491396    1.556    0.357
        35  -8.6149    183.1543    120.0407   8.4376723839e+01   2.0841188067e+01    0.2167164    0.2044273 -17.80            0    1.193    0.162
        36  -9.0840    167.9776    113.9146   8.6042142978e+01   2.5493804333e+01    0.4126529    0.2979286 -82.21  0.001653023    1.826    0.452
        37  -8.5063    186.4954    112.9758   8.2041445251e+01   2.1529294696e+01    0.2410603    0.1425654 -44.04  0.001042077    1.617    0.382
        38  -7.4905    198.3653     97.6691   7.6261628926e+01   2.1829361070e+01    0.1573634     0.106827 -77.10  0.000703607    1.814    0.449
        39  -8.9911    169.0067     97.0370   8.1619014090e+01   2.8620964558e+01    0.2172795    0.2043125 -83.07  0.001188569    1.014    0.013
        40  -7.5498    108.9965    234.4826   1.2369273606e+02   9.7802527160e+00    0.2007925    0.1224914  41.71  0.000389184    1.495    0.331
        41  -7.4233    131.9582     95.9662   8.9730691339e+01   3.7209535489e+01    0.1702525    0.1679395 -56.01  0.000937016    1.018    0.018
        42  -7.7567    136.2322     93.9069   8.8117589911e+01   3.6675142635e+01    0.2299765    0.1934251 -73.76  0.001137028    1.342    0.255
        43  -8.5132    192.3192     92.5650   7.6110883616e+01   2.4125888124e+01     0.239622    0.1813751 -20.68 0.0009500428    1.765    0.433
        44  -9.7782    225.1735     89.8069   7.0299410846e+01   1.7435146209e+01     0.237934    0.2076931 -89.00 0.0002656606    1.119    0.106
        45  -9.6363    162.6249     86.8399   8.0320676119e+01   3.2002458603e+01    0.5091999    0.3106404  32.30  0.002084926    2.338    0.572
        46  -8.3433    230.1649     85.9074   6.8778324699e+01   1.7066873852e+01    0.2178735     0.199606  58.00 0.0008450314    1.321    0.243
        47  -9.0086    144.8483     84.8790   8.3638696814e+01   3.6448646424e+01    0.3200936    0.2597403 -43.01 0.0009112009    1.258    0.205
        48 -10.2660    160.6730     75.8770   7.7857192367e+01   3.4391637696e+01    0.3487037    0.2687181 -17.77  0.001741668    1.679    0.405
        49  -8.3999    112.0886     78.0330   8.9835530103e+01   4.4843600310e+01    0.2013476    0.1961646  26.05 0.0002944481    1.025    0.024
        50 -10.8242    234.5814     31.8667   5.7315912242e+01   2.4275546975e+01    0.4281044    0.3073257  49.13  0.001643347    1.959    0.490
        51  -8.1548    169.0253     70.7942   7.4933089262e+01   3.3293641854e+01    0.2134772    0.1777099 -85.86 0.0003992706    1.220    0.180
        52  -9.2339    187.3640     67.9334   7.1050181084e+01   2.9492215880e+01    0.2512498    0.2237514 -70.08 0.0003780715    1.060    0.057
        53  -8.4924    150.8020     95.7631   8.5198162143e+01   3.3038046650e+01    0.3051494    0.2380425  -6.17 0.0008765017    1.779    0.438
        54  -9.8044    168.6123     58.9207   7.1963888358e+01   3.5258471970e+01    0.3533762    0.1828948 -45.92  0.001585569    1.982    0.495
        55  -9.7512    198.1494     59.4510   6.7408701947e+01   2.8342343646e+01    0.2824894    0.2233578  53.02  0.000755297    1.403    0.287
        56  -9.6911    204.4292     54.8918   6.5503207027e+01   2.7605448093e+01    0.3559962    0.2326331  47.47  0.001390042    1.861    0.463
        57 -11.3306    180.2306     56.5907   6.9438442216e+01   3.2896068715e+01     0.474713    0.3562018  -2.07  0.002334201    2.157    0.536
        58  -7.7428    143.8449     59.7142   7.6916492717e+01   4.0896992033e+01    0.3023801    0.1802426  17.33 0.0007441697    3.673    0.728
        59 -10.4300    125.5807     56.0773   7.9904378570e+01   4.5558011896e+01    0.2425712    0.2244533  50.80 0.0002028195    1.015    0.015
        60 -10.5726    160.5395     50.8477   7.1290017291e+01   3.8320714439e+01    0.6195167    0.4096613 -89.04  0.003011591    1.861    0.463
        61 -10.8893    151.5613     44.9326   7.1327161330e+01   4.1217672287e+01    0.7027797    0.3747971  78.97  0.002907101    2.590    0.614
        62  -7.1852     18.6739    129.7532   1.3086980273e+02   4.6956994515e+01    0.1250499   0.08426584 -38.89            0    1.537    0.350
        63  -7.8619    249.4974     45.4894   5.8505019138e+01   1.9418215230e+01    0.1851314   0.08955256 -52.49 -2.521301e-05    1.729    0.422
        64  -7.3448    137.0458     52.9686   7.6440496587e+01   4.3443065258e+01    0.1611555    0.1448559  58.81 0.0009477561    1.026    0.025
        65  -9.3030    126.9750     39.0000   7.4502461383e+01   4.7570021355e+01    0.3833073   0.06834957  57.09  0.001060801    5.021    0.801
        66  -7.6841    140.6911     27.6848   6.8535513908e+01   4.5811434938e+01    0.1306928   0.08970448  36.32 0.0004548829    1.631    0.387
        67  -7.4234    167.8243     24.3482   6.3336361323e+01   3.9962753003e+01    0.1760986   0.09782246  58.21 0.0003470046    1.594    0.373
        68  -8.0502    114.3027     24.6885   7.2859436160e+01   5.1970034806e+01    0.1198451   0.09583902 -79.87 0.0004649022    1.610    0.379
        69  -6.9586    192.2915     21.3136   5.9506288434e+01   3.4732592808e+01    0.1156495   0.09003814  46.43 0.0002747995    1.592    0.372
        70 -10.1864    144.0789    227.3911   1.1503427602e+02   5.3039562471e+00    0.2456876    0.2224277 -43.88 0.0001568001    1.195    0.163
        71  -9.8473    139.8711     18.7720   6.6186383796e+01   4.6932765251e+01    0.3150949    0.1501341  42.04  0.001464318    2.320    0.569
        72 -10.5769      2.1109    214.9342   1.4382382302e+02   2.8298884974e+01    0.6773548    0.2018573 -76.66  0.002502569    2.783    0.641
        73  -9.2801      7.5556    212.4713   1.4258666140e+02   2.8327289899e+01    0.2652538    0.1048685  34.86  0.001320043    2.653    0.623
        74  -8.5592     16.8655    218.5931   1.4122739397e+02   2.6014559754e+01    0.2021281    0.1364527 -73.20 0.0005155041    1.329    0.247
        75  -7.5690    146.0120    213.0334   1.1222636124e+02   7.9500133230e+00    0.1638089     0.161841  61.15 0.0002978069    1.038    0.037
        76 -11.0577     12.1636    206.6399   1.4120502595e+02   2.9194760255e+01    0.5162956    0.2094387 -74.66  0.002506458    2.038    0.509
        77 -12.0843     42.4853    180.2500   1.3170311477e+02   3.2196432237e+01     1.061075    0.9898477 -44.54  0.004927617    1.301    0.231
        78 -12.2973     25.9598    193.1976   1.3703031019e+02   3.0916103207e+01    0.8941574    0.6782991  85.47  0.002842046    1.117    0.104
        79 -10.6045     33.9521    187.0303   1.3454696719e+02   3.1524537817e+01     0.434344    0.3717366 -28.73  0.001069581    1.590    0.371
        80  -9.5843    162.5108     13.0378   6.1256349588e+01   4.2362197478e+01    0.2033036    0.1392799  70.98 0.0006327524    1.220    0.180
