#   1 NUMBER                 Running object number                                     
#   2 MAG_AUTO               Kron-like elliptical aperture magnitude                    [mag]
#   3 X_IMAGE                Object position along x                                    [pixel]
#   4 Y_IMAGE                Object position along y                                    [pixel]
#   5 X_WORLD                Barycenter position along world x axis                     [deg]
#   6 Y_WORLD                Barycenter position along world y axis                     [deg]
#   7 A_WORLD                Profile RMS along major axis (world units)                 [deg]
#   8 B_WORLD                Profile RMS along minor axis (world units)                 [deg]
#   9 THETA_WORLD            Position angle (CCW/world-x)                               [deg]
#  10 FWHM_WORLD             FWHM assuming a gaussian core                              [deg]
#  11 ELONGATION             A_IMAGE/B_IMAGE                                           
#  12 ELLIPTICITY            1 - B_IMAGE/A_IMAGE                                       
         1 -10.3642     50.6190     36.4760   9.0013556557e+01   6.3173435379e+01    0.7823836     0.594788 -76.75  0.004084923    2.629    0.620
         2  -9.3019     38.6385      8.8308   8.2528624331e+01   6.9046747285e+01    0.6203713    0.3261055   3.47   0.00297653    2.642    0.622
         3  -9.5190     39.6638     14.9880   8.5148306953e+01   6.8042160004e+01    0.3413411    0.1873855  -9.44  0.001729846    2.182    0.542
         4 -10.5417     39.5302     29.9122   9.1914168042e+01   6.5663128339e+01    0.5892836    0.3049016 -43.11  0.003034699    1.660    0.397
         5 -11.8514     44.9469     22.3792   8.6329484979e+01   6.6249336097e+01    0.9627517     0.865898 -58.30  0.006155386    1.717    0.417
         6  -8.9960     90.9117     29.0473   7.2500108586e+01   5.7745904732e+01    0.3790359    0.2142278 -39.18  0.001790083    1.875    0.467
         7 -12.6752    115.9024      4.3419   5.5483946838e+01   5.5078859134e+01     9.723295          nan  61.98    0.0151339   16.414    0.939
         8 -12.6290    155.0839     20.8964   5.4148020605e+01   4.3811510542e+01     1.827843     1.184542  67.74  0.008739875    1.536    0.349
         9 -12.8633    174.0871     17.1254   4.9889593697e+01   3.9298213723e+01     1.925983     1.344342  21.92  0.007871685    1.723    0.420
        10 -12.5130    166.6346     16.4420   5.0773167177e+01   4.1303402010e+01     1.168464     1.070796 -28.48  0.005048301    1.152    0.132
        11  -9.9130     71.0886      5.5236   6.8111406176e+01   6.4378673599e+01    0.4952163     0.302297  35.31  0.002480789    1.494    0.331
        12 -11.1245     78.1419     15.2698   7.0456488354e+01   6.1981257086e+01    0.9968733     0.407795 -24.14  0.004278409    2.404    0.584
        13 -11.4272     84.3519      3.9373   6.3195036405e+01   6.1996343245e+01     1.042378    0.5976603  40.29  0.005097953    1.550    0.355
        14 -10.0356    116.6306     17.0361   6.0491449637e+01   5.3683188750e+01    0.8688745    0.2920983 -32.13   0.00324166    2.905    0.656
        15  -9.3424    110.9921     16.4997   6.1628515962e+01   5.5032187674e+01    0.4550555    0.2535598  41.21  0.002148537    1.664    0.399
        16 -11.4117    128.2338     17.9091   5.8236535985e+01   5.0842815495e+01     1.410733     1.000654  52.32  0.006252892    1.309    0.236
        17  -9.4841     94.1312     17.2768   6.6451915911e+01   5.8600448486e+01    0.3751516    0.3066406 -88.12   0.00158387    1.915    0.478
        18 -10.1463    248.0441     15.7166   4.1393529018e+01   2.1102099476e+01     0.345942    0.2907847  73.78  0.002174388    1.245    0.197
        19  -9.1496     63.8347     15.9989   7.5798094037e+01   6.4399381384e+01    0.4288621    0.2626992  64.27  0.001850079    3.752    0.733
        20  -9.5113     69.7423     14.1142   7.2762935671e+01   6.3637763536e+01    0.3655534    0.2179354 -37.95  0.001921964    1.863    0.463
        21  -8.9453     20.2987     13.6614   9.3610861003e+01   7.0346765158e+01    0.5268567    0.1714057 -32.17  0.002218593    3.118    0.679
        22  -9.7890    104.0780     11.9276   6.1432740366e+01   5.7056915723e+01    0.4431126    0.3009036 -19.73  0.002181237    1.468    0.319
        23 -10.5446    249.6056      5.8340   3.8971063696e+01   2.1820738637e+01     0.691478    0.2514658 -30.07  0.003018327    2.499    0.600
        24 -10.2455     60.8760      2.5225   7.0156019915e+01   6.6489554342e+01    0.7078311    0.3924604   9.39  0.003608391    2.000    0.500
        25 -10.6906    131.2554      3.5236   5.2121579689e+01   5.1470022381e+01    0.9185705    0.3494033  52.47  0.003552582    2.169    0.539
        26 -12.5824    143.8599      3.9364   5.0090460565e+01   4.8304187677e+01       2.4418     1.211678  79.02   0.01003363    2.437    0.590
        27  -9.8449    192.7383      5.4108   4.3987114875e+01   3.5640517646e+01    0.2626533    0.2273566  28.86  0.001354918    1.308    0.235
        28  -8.7497    222.7733      5.1676   4.0965741057e+01   2.8162127313e+01    0.1790053    0.1517765  43.76  0.001072596    1.370    0.270
        29  -9.8932    203.8508      3.7732   4.2364869347e+01   3.2976307989e+01    0.2708627    0.2172443  66.08  0.001238809    1.196    0.164
        30  -8.6139     60.4931      9.4974   7.3862285102e+01   6.5764622239e+01    0.2180863    0.1457258 -12.99 0.0009964847    1.318    0.241
        31  -8.4016     26.8874      3.3093   8.5142626348e+01   7.1215830300e+01    0.2064657    0.1278154 -32.78  0.001311812    1.412    0.292
        32  -8.4481     52.2630      1.9435   7.3123716691e+01   6.7956316222e+01    0.2306672     0.154382  25.46  0.001420695    1.357    0.263
        33  -8.7288     40.7213      1.6923   7.7808083964e+01   6.9687208318e+01    0.2786165    0.1356986  32.83  0.001516167    2.039    0.510
        34  -8.7379     16.8930      1.7949   8.9424066438e+01   7.2470644660e+01    0.1774406     0.147046  -0.09  0.001009471    1.309    0.236
        35  -9.5167     87.1726     48.8389   8.1652174712e+01   5.5329451185e+01    0.3855754    0.2389339 -25.67  0.001838623    1.604    0.376
        36  -9.5205     83.2065     47.5895   8.2482229395e+01   5.6255325033e+01    0.4078568    0.3447473  -3.31  0.002355757    1.117    0.105
        37  -8.2280    203.2256     45.7674   5.4298478123e+01   2.8267951366e+01    0.2281821    0.1235322 -14.16 0.0008083127    2.441    0.590
        38  -8.2943    110.9570     46.0410   7.3384090014e+01   5.1073010640e+01    0.2335074    0.2096463   6.27  0.001297328    1.041    0.040
        39 -10.1787      3.3840     40.5993   1.1136164678e+02   6.6582931582e+01    0.4097436    0.3496173  89.58  0.003030764    1.560    0.359
        40  -8.5978    145.0147     41.3547   6.3250258001e+01   4.3812376055e+01    0.4587472    0.1910018  39.40  0.001558409    2.856    0.650
        41 -10.8107    174.0323    242.1183   1.0418098809e+02   1.7119375922e+00    0.4216391    0.2322452  22.77  0.002155091    2.367    0.578
        42  -9.9006    207.1460    220.7080   9.5034996128e+01  -8.8040877833e-01    0.1966801    0.1423617  46.21 0.0007001315    1.427    0.299
        43  -8.4364    211.6516    214.7019   9.3213671859e+01  -8.3823413357e-01     0.131882   0.08410026  15.23 0.0007035685    1.683    0.406
        44  -8.4723    124.0213    206.0186   1.0862712862e+02   1.5673159389e+01    0.1781001    0.1521189  58.35  0.001138903    1.021    0.021
        45  -8.7235    241.5322    202.4855   8.5737671313e+01  -4.2059718519e+00    0.2896408   0.08030793  31.38 0.0008101076    6.011    0.834
        46  -8.8996     68.0828     36.2957   8.3267064892e+01   6.0699828510e+01    0.3172476    0.2455442  47.05  0.001825318    1.638    0.389
        47  -8.9266     12.2680     33.8217   1.0542125023e+02   6.7395527229e+01    0.3873876    0.1541085 -53.39  0.001712105    1.906    0.475
        48  -8.3403     27.1462     35.1434   9.9311222528e+01   6.5981707323e+01    0.2020801    0.1338584 -29.19 0.0006440447    1.278    0.218
        49  -8.5522    196.4939     34.4952   5.1990591779e+01   3.1475402559e+01    0.3365709   0.05826988  50.47 0.0008102964    5.715    0.825
        50 -10.1731    226.0308     28.9817   4.6792028598e+01   2.4738071034e+01    0.4609924    0.3364467  64.76  0.001467368    1.387    0.279
        51  -9.3229     86.4518     31.0844   7.4768631482e+01   5.8316262287e+01    0.3158311    0.1874675  32.44  0.001325274    1.724    0.420
        52 -11.3434      9.7708    141.9856   1.2555319462e+02   4.3837569113e+01    0.4851098    0.3530949  38.06  0.003396867    1.648    0.393
        53  -7.6052     24.6264    141.3145   1.2204876732e+02   4.2766314897e+01    0.1283148   0.07441036  70.35 0.0007032252    1.790    0.441
        54 -12.8205    241.1294    131.3750   7.0746383743e+01   6.0820422452e+00     1.564101     1.346422  26.67  0.006091606    1.186    0.157
        55  -9.9207     17.0152    126.5055   1.2222609764e+02   4.6762543183e+01    0.2192429    0.1339229  73.09  0.001281579    1.706    0.414
        56  -9.6343     17.3794    104.7646   1.1930394116e+02   5.1712154211e+01    0.3121507    0.1945743 -63.56  0.001899439    1.241    0.194
        57  -9.4521     66.6515     29.6253   8.0969481289e+01   6.1994477439e+01    0.2833544    0.2146018  -9.46  0.001550464    1.190    0.159
        58  -8.6116    125.6320     28.6121   6.2934611719e+01   5.0224540409e+01    0.2738167    0.2254178  -6.78  0.001477603    1.212    0.175
        59 -10.1884     74.2192     26.0350   7.6680629415e+01   6.1267186226e+01    0.5226734    0.3628732  64.40  0.002600762    2.473    0.596
        60  -9.2180     41.0316    142.2389   1.1824142502e+02   4.0970000663e+01    0.2671846    0.1833749 -56.97  0.001599341    1.409    0.290
        61  -9.9435     46.8433    100.0082   1.0982666270e+02   5.0193353567e+01    0.5217323    0.1096676 -54.90  0.001775833    3.344    0.701
        62  -9.2069     30.5153    101.5809   1.1499750096e+02   5.1403547220e+01     0.251695    0.1754786 -60.18   0.00119111    1.154    0.134
        63  -8.8064    104.0674     26.2882   6.7494455856e+01   5.5404088053e+01    0.3875736    0.2534365  63.59  0.001864133    1.918    0.479
        64  -8.5130     21.1603     23.2811   9.7408513234e+01   6.8655836374e+01    0.2914789     0.197055  20.26  0.001918733    1.688    0.408
        65  -9.2658      2.2954     88.4893   1.2135633207e+02   5.6346125311e+01    0.4012571    0.1737631 -77.36  0.002043364    2.003    0.501
        66 -11.5446     43.1622     81.8578   1.0700996191e+02   5.4735289797e+01     1.037154    0.7614428 -13.88  0.006019058    1.686    0.407
        67  -9.9878     25.1542     65.0066   1.0917264966e+02   6.0081177132e+01     0.603127    0.2201696 -53.94  0.002053806    1.989    0.497
        68 -10.5173      4.1238     75.9160   1.1879113961e+02   5.9047491625e+01    0.4556971    0.3953345 -83.90  0.002588116    1.242    0.195
        69 -10.3820     17.2017     74.6298   1.1415570837e+02   5.8550260383e+01    0.6813965    0.3440797 -42.71  0.003715428    1.793    0.442
        70 -10.0857     11.5051     70.5852   1.1529431123e+02   5.9807312090e+01    0.4955248    0.2855796 -46.68  0.002343465    1.437    0.304
        71  -8.2386    138.5885     78.7764   7.7325247757e+01   3.9102197746e+01    0.2274335    0.1422484 -46.97  0.000950214    1.663    0.399
        72  -8.6635     83.9943     69.7045   9.0015098343e+01   5.1906023485e+01    0.1985771    0.1853051   3.66 0.0009547146    1.117    0.105
        73  -9.2688     74.4344     68.6181   9.2798724903e+01   5.3654516269e+01    0.4750864    0.3370236 -12.83   0.00240009    1.701    0.412
        74  -9.4258    227.5533     14.9019   4.3004718291e+01   2.5988405391e+01    0.2717245    0.1786981  72.10  0.001438568    1.486    0.327
        75  -8.7888     19.9717     88.2938   1.1586656272e+02   5.5288110202e+01     0.168576    0.1439095 -63.54  0.001167635    1.097    0.088
        76  -9.5830     47.4403     62.5039   1.0032644323e+02   5.8500021498e+01    0.4738111    0.3309649 -10.83  0.002646406    1.703    0.413
        77  -8.1921     69.5545     61.7364   9.2212578426e+01   5.5789973066e+01    0.2701123    0.1646053  19.06  0.001275746    2.095    0.523
        78  -9.0541    228.0348     78.5578   5.9635280394e+01   1.7335256469e+01    0.3490341    0.2382226  24.28  0.001089572    1.927    0.481
        79  -7.9335     16.5373     58.5122   1.1076132511e+02   6.2100196305e+01    0.1227789   0.09243684 -50.63 5.499432e-05    1.007    0.007
        80  -8.1453     93.1976     57.3880   8.2873937322e+01   5.2685708272e+01    0.1953795    0.1379701  52.90  0.000952836    1.720    0.419
        81  -9.0933    199.0571     55.5405   5.7760470415e+01   2.7940729154e+01    0.2729974    0.2397011 -17.05   0.00042181    1.182    0.154
        82  -8.9447     66.1864     53.4645   9.0547664646e+01   5.7910164371e+01    0.3820959    0.1803266 -51.58  0.001625839    2.286    0.562
        83  -7.6319     35.4608     52.4602   1.0175571507e+02   6.1823553218e+01    0.1273931    0.1011289 -40.12  5.76636e-05    1.009    0.009
        84  -8.5647      9.1464     80.1985   1.1788976195e+02   5.7818484072e+01    0.2824872     0.141278 -66.89  0.001217569    1.520    0.342
        85 -10.4118     82.3364     41.4863   8.0393084169e+01   5.7449821712e+01    0.8720813    0.3638677 -28.73  0.003358372    2.611    0.617
