#   1 NUMBER                 Running object number                                     
#   2 MAG_AUTO               Kron-like elliptical aperture magnitude                    [mag]
#   3 X_IMAGE                Object position along x                                    [pixel]
#   4 Y_IMAGE                Object position along y                                    [pixel]
#   5 X_WORLD                Barycenter position along world x axis                     [deg]
#   6 Y_WORLD                Barycenter position along world y axis                     [deg]
#   7 A_WORLD                Profile RMS along major axis (world units)                 [deg]
#   8 B_WORLD                Profile RMS along minor axis (world units)                 [deg]
#   9 THETA_WORLD            Position angle (CCW/world-x)                               [deg]
#  10 FWHM_WORLD             FWHM assuming a gaussian core                              [deg]
#  11 ELONGATION             A_IMAGE/B_IMAGE                                           
#  12 ELLIPTICITY            1 - B_IMAGE/A_IMAGE                                       
         1  -9.3424     88.6155      6.8383   3.8083006440e+01   5.9822177171e+01    0.1586743    0.1145665 -39.56 0.0005820467    1.718    0.418
         2 -10.8657     22.6757      6.2855   6.4451751058e+01   7.2613764160e+01    0.4582096    0.1968242  17.82  0.001891312    3.168    0.684
         3  -9.7047     29.0298      1.9966   5.8292315779e+01   7.2161232743e+01    0.1831094    0.1376651  17.84 0.0003199214    1.018    0.018
         4  -8.5417     46.6685      1.3709   4.9264911339e+01   6.9132616887e+01      0.11005   0.09753454 -87.08 0.0001896159    1.833    0.454
         5 -11.1652    157.5172    246.5657   8.0141720941e+01   2.7360631203e+00    0.4225958    0.2322279 -10.53  0.001984823    2.287    0.563
         6 -10.5094    169.4501    249.0488   7.7906083551e+01   8.6140172038e-01    0.3505498    0.2113062 -10.09  0.001277684    1.712    0.416
         7  -9.8687    124.2623    249.0839   8.8031467543e+01   6.5029804162e+00    0.3399811    0.2003509  50.83  0.001651926    2.315    0.568
         8  -9.6979    120.4907    246.4610   8.8575742580e+01   7.4575673146e+00    0.2342831    0.1718736  16.75 0.0008180155    1.151    0.132
         9 -11.3930     99.6142    245.0320   9.3334514296e+01   1.0363030832e+01    0.6259152     0.361251 -69.70  0.002543642    2.431    0.589
        10 -10.3881     95.4626    249.5860   9.4826321784e+01   1.0007473716e+01     0.238969    0.1930247  12.18 0.0007618212    1.148    0.129
        11 -11.2648     90.2133    248.0018   9.5892424440e+01   1.0948871593e+01    0.4139188    0.3217516 -51.54   0.00171479    1.502    0.334
        12 -11.0826     83.1021    247.0255   9.7471624120e+01   1.1993396672e+01    0.6384934    0.3411985 -32.95  0.002869415    2.652    0.623
        13  -8.5196     75.5263    250.4621   9.9587790914e+01   1.2216236102e+01    0.1270849    0.1072825  25.66 -1.352936e-05    1.046    0.044
        14  -9.9480     71.9994    250.4389   1.0040703330e+02   1.2626882188e+01    0.2407795    0.1480037  24.49 0.0006458118    1.417    0.294
        15 -13.7217     43.5320    190.9572   1.0183403194e+02   2.8928731031e+01     2.738181     1.706184  68.24   0.01308663    1.887    0.470
        16 -14.4771      7.1284    155.5810   1.0912507991e+02   4.0815904791e+01     2.802654     1.797268  86.61   0.01463097    1.576    0.365
        17 -14.8837      5.5128    209.8793   1.1327128839e+02   2.7771185619e+01     1.530373     1.124257  82.95  0.006919331    1.276    0.216
        18 -13.4372     26.5418    234.6857   1.0976182917e+02   2.0583036688e+01    0.6551384    0.3853517 -77.87  0.003713596    1.796    0.443
        19 -15.0391      9.1620    227.7403   1.1335002581e+02   2.3557807819e+01     1.301516    0.8228461  12.05  0.005046673    1.811    0.448
        20 -14.8794      5.7509    247.3059   1.1499607572e+02   1.9803900307e+01    0.9462323    0.6233913  57.42  0.006262645    1.286    0.222
        21 -15.0004     13.0946    241.3560   1.1315334098e+02   2.0388779183e+01    0.9989821    0.5432444  72.69   0.00323703    1.859    0.462
        22 -13.1965      4.6042    188.9025   1.1228442155e+02   3.2721913126e+01     0.602835    0.3996519  62.58  0.002091523    1.457    0.313
        23  -8.8806    183.3459    247.3146   7.4716869855e+01  -5.2585738415e-01    0.1345499   0.07873458  -5.18 0.0007047485    1.716    0.417
        24 -10.0164    219.6462    244.8248   6.7194264459e+01  -4.2038096133e+00    0.2392319    0.2028779 -60.81 0.0009626478    2.546    0.607
        25 -10.5138    153.5417    243.4643   8.0577019273e+01   3.7613161654e+00     0.450615    0.2655268 -11.54  0.002247654    1.962    0.490
        26 -10.3665    134.1205    246.0690   8.5358070651e+01   5.7869964160e+00    0.2082183    0.1540423   1.40 0.0007762836    1.259    0.205
        27  -9.8025    173.4131    243.1279   7.6174801964e+01   1.3314702347e+00    0.3489926    0.1506301  18.05   0.00153176    2.358    0.576
        28  -9.2310    128.4950    243.4756   8.6315073518e+01   6.9764995439e+00    0.1346475    0.1097311  14.89 9.503095e-05    1.006    0.006
        29 -10.6235    115.2828    242.3377   8.9279992968e+01   8.8903051563e+00    0.3379852    0.1857336  37.41  0.001686491    1.654    0.395
        30 -10.5352    217.5197    239.0257   6.6674752361e+01  -3.1508775893e+00    0.2081385    0.1929133 -31.23  0.001077124    1.752    0.429
        31 -11.1156     90.8423    237.9135   9.4632883400e+01   1.2853481015e+01    0.4780853    0.3032954  43.19  0.002265304    1.512    0.339
        32  -8.7395    165.6600    239.2717   7.7268309923e+01   2.9346499217e+00    0.1204667   0.09389011  39.56 0.0002128929    1.608    0.378
        33  -9.3132    144.7072    239.5091   8.2007359123e+01   5.5881870030e+00    0.1918858    0.1097199  13.95 0.0007852423    1.674    0.403
        34 -10.2492    231.4568    237.6381   6.3914341997e+01  -4.4182945394e+00    0.2631692    0.1652047  25.06  0.000926311    1.637    0.389
        35 -10.8288    227.6437    234.5208   6.4095992296e+01  -3.5834023612e+00    0.4409251    0.1551497 -33.51  0.002093207    2.492    0.599
        36 -10.1888    244.9777    236.4902   6.1393649634e+01  -5.6039987782e+00    0.2080345    0.1322843 -25.80 0.0006524588    1.269    0.212
        37 -10.7798     92.3134    224.5958   9.2684668217e+01   1.5411482249e+01    0.5340069    0.2991861  37.96  0.002575452    1.611    0.379
        38 -10.0470     87.0314    222.3214   9.3748365713e+01   1.6573645917e+01    0.3234929    0.1727775 -45.32  0.001492976    2.088    0.521
        39 -10.8182     94.7981    231.8711   9.2953798990e+01   1.3579704224e+01    0.3308854    0.2593839  42.47 0.0005488878    1.255    0.203
        40  -9.8240    105.7692    236.7873   9.0866562697e+01   1.1184891870e+01    0.2924279     0.164806  31.04  0.001459088    1.499    0.333
        41 -10.5058    103.8216    233.1958   9.0891580674e+01   1.2149835393e+01    0.2363386    0.2156472   4.95 0.0003361558    1.094    0.086
        42 -14.3849     28.8354    245.5274   1.0990719842e+02   1.8133620763e+01     1.117419    0.8576835  50.78  0.006777952    1.117    0.105
        43 -10.5538    160.9103    239.2193   7.8307496123e+01   3.5474412857e+00    0.2007337    0.1883812  55.12 0.0009253776    1.612    0.380
        44 -11.1361    187.1800    234.6779   7.1958592984e+01   1.0086391170e+00    0.5205017    0.2634305  37.58   0.00257419    2.245    0.554
        45 -10.4443    169.4900    235.7219   7.5885795045e+01   3.0464216352e+00    0.3143835    0.1815538  38.67  0.001481879    1.947    0.486
        46  -9.9926    124.3905    236.1783   8.6298241181e+01   8.8691144642e+00    0.2695747    0.1911404  45.63  0.001463306    1.603    0.376
        47  -9.8971    123.2994    231.9198   8.5972832429e+01   9.8299619289e+00    0.2602593    0.2008608 -74.70  0.001059619    1.902    0.474
        48 -10.7257    113.4057    236.0166   8.8917188944e+01   1.0343886376e+01    0.2575043    0.1600905  38.02 0.0005441587    1.503    0.335
        49  -9.4952    222.2382    234.6940   6.5106376913e+01  -3.0329133641e+00    0.1731401    0.1071103  -8.39  0.001049555    1.381    0.276
        50  -9.0512    130.6625    235.3177   8.4686543038e+01   8.2015520770e+00    0.1329717    0.0974195  49.26 0.0007048859    1.703    0.413
        51  -9.9718     52.2957    239.5623   1.0408822557e+02   1.6996665777e+01    0.1891194     0.182405  67.72 0.0002280922    1.136    0.120
        52 -11.1513     63.3234    234.3003   1.0097501998e+02   1.6878965928e+01    0.2539426    0.1945452  53.07 0.0002170008    1.285    0.222
        53  -9.9180     67.5274    230.1340   9.9535886200e+01   1.7277458024e+01    0.4332345    0.2379133  17.81  0.002072023    1.858    0.462
        54 -10.5207    176.8252    232.9065   7.3858328498e+01   2.5873887179e+00    0.3923868    0.2460614 -23.07  0.002161898    1.531    0.347
        55 -10.2321    206.8777    231.6681   6.7517106368e+01  -8.6609759933e-01    0.2423412    0.1863083 -38.01  0.001102622    1.561    0.360
        56  -9.2945    150.4896    233.4995   7.9794533971e+01   5.9038297667e+00    0.1365625    0.1108838   7.53 -9.618582e-05    1.001    0.001
        57 -10.3627    239.2454    231.4254   6.1557030470e+01  -4.3447703774e+00    0.2026414    0.1385966  32.31  0.001328006    1.908    0.476
        58 -11.1413    197.4135    219.1826   6.7314290710e+01   2.2569325756e+00    0.7957969    0.2448379 -33.58  0.002916678    3.551    0.718
        59 -10.4561    196.7305    227.6340   6.8863823430e+01   9.7199948692e-01    0.2395746    0.2206903   7.92  0.001055282    1.442    0.306
        60  -9.6436    185.9988    224.9731   7.0628783935e+01   2.7458537290e+00     0.263979    0.2101834  25.91  0.001243871    1.360    0.265
        61  -9.3547    168.5229    230.5022   7.5278392940e+01   4.0613843383e+00    0.1364255    0.1065739   0.82 -1.316676e-05    1.050    0.047
        62  -9.6864    118.6328    229.6910   8.6797045488e+01   1.0890548652e+01    0.2050848    0.1824023 -66.04   0.00075216    1.439    0.305
        63  -9.9998     81.2383    229.1670   9.6015168034e+01   1.5842149611e+01    0.2273974    0.1631203  18.65  0.000517105    1.304    0.233
        64 -10.0487    225.9756    227.9274   6.3324357328e+01  -2.4530004669e+00    0.1807769    0.1328438  -9.66 0.0003607947    1.005    0.005
        65  -9.1269    150.3216    228.6372   7.9091385100e+01   6.8075392829e+00    0.1286495    0.1037047  53.88 0.0007041298    1.780    0.438
        66  -9.1979    209.0082    227.2796   6.6385051524e+01  -4.3957253780e-01    0.1746709    0.1321628   1.27 0.0005500384    1.076    0.070
        67  -9.4043    101.8066    226.8194   9.0576003636e+01   1.3709596435e+01    0.1788761    0.1472612  46.00 0.0003101154    1.286    0.223
        68 -10.3583    242.6046    223.8488   5.9752750535e+01  -3.6261917771e+00     0.193947    0.1246749   4.65 0.0005259266    1.380    0.275
        69  -9.6704    107.8466    223.5582   8.8627448932e+01   1.3579199730e+01     0.245454    0.1899861 -87.72 0.0008129937    1.859    0.462
        70 -10.2891     63.0515    223.4552   9.9985331955e+01   1.9236408515e+01    0.3969195    0.1699473  44.84  0.001692059    2.251    0.556
        71  -9.6921    122.7462    223.0039   8.4837150419e+01   1.1661480236e+01    0.3228908    0.2016802 -61.16 0.0008380818    2.076    0.518
        72  -9.3209    122.8317    218.4143   8.4137790025e+01   1.2577298295e+01    0.2076299     0.125297  26.04 0.0001365743    1.466    0.318
        73  -8.7612    131.5025    222.4608   8.2611117418e+01   1.0558626223e+01    0.1429171    0.1175712   4.93 5.717907e-06    1.079    0.074
        74 -14.0523     11.0603    178.4769   1.0982060679e+02   3.4813187945e+01     1.978756     1.178183  -3.68  0.009641598    2.116    0.527
        75  -9.0855    250.7282    221.3224   5.7996313904e+01  -4.0950657304e+00   0.09682459   0.08137615 -30.76 0.0002726177    1.572    0.364
        76  -8.9016     82.0701    220.8319   9.4840045991e+01   1.7523330852e+01    0.1843016     0.145988   0.56 0.0005128909    1.339    0.253
        77 -11.2367     75.6237    222.8790   9.6727552233e+01   1.7875489227e+01     0.342917    0.2468682  -4.54 0.0004757474    1.632    0.387
        78 -10.1467     71.3971    219.4818   9.7431984305e+01   1.9131314536e+01    0.2339393    0.2091448  33.90  0.000760746    1.022    0.021
        79  -9.5229    114.8964    217.6225   8.6013215880e+01   1.3846345756e+01    0.3449691    0.1891333   2.28 0.0005869067    2.668    0.625
        80  -9.9553    222.9262    216.4404   6.1959688044e+01  -3.9390995521e-01    0.3579856    0.1787446  11.32  0.001480392    2.343    0.573
        81  -8.9476     81.4636    216.4691   9.4470860729e+01   1.8556221355e+01    0.1389334    0.1236702  30.67 0.0008085313    1.032    0.031
        82 -10.9194    233.0136    212.5862   5.9512331292e+01  -9.6126154489e-01    0.4905362     0.216555 -37.69  0.002556383    1.962    0.490
        83 -10.9953     98.9222    234.7194   9.2282683429e+01   1.2475489065e+01    0.3329353    0.2092418  19.70 0.0002688342    1.455    0.313
        84 -10.3634    186.3156    212.9656   6.8532859454e+01   4.7455809726e+00    0.3382376     0.201325 -15.09  0.001172551    1.783    0.439
        85  -9.3625    176.5248    214.4828   7.0886837777e+01   5.8020983505e+00    0.1363092    0.1123924  -0.78 0.0004641061    1.026    0.026
        86 -10.7498     69.9048    213.4259   9.7137962457e+01   2.0664593981e+01    0.3128842    0.2305516  -0.03 0.0007535615    1.536    0.349
        87 -11.0606     61.2208    204.4274   9.8430461409e+01   2.3763962181e+01     0.498074    0.3484638  13.96  0.001307601    1.481    0.325
        88 -10.1593     63.3010    213.2973   9.8858660980e+01   2.1475152372e+01    0.2826631    0.2016722 -18.76  0.001325915    1.732    0.423
        89 -11.8365     61.0705    209.9827   9.9087164389e+01   2.2491269407e+01    0.5788329    0.3670009  38.14  0.002853826    1.436    0.303
        90 -10.2574    195.2898    212.8728   6.6662926646e+01   3.5770640246e+00    0.2288467    0.1656178  29.05  0.001342402    1.450    0.310
        91 -11.1358    191.6930    228.6829   7.0059686746e+01   1.4214772897e+00    0.4772776      0.32283 -43.32            0    1.718    0.418
        92  -9.8383     84.8922    211.1355   9.2899986056e+01   1.9304750261e+01    0.2529187     0.178684  -1.80  0.001254837    1.634    0.388
        93  -9.9889     88.2206    208.5585   9.1676205190e+01   1.9447649544e+01     0.285327    0.2087703 -15.96 0.0008836968    1.588    0.370
        94  -9.4016    207.5634    209.7213   6.3683002834e+01   2.5244464131e+00    0.2518749    0.1024005 -35.06  0.001134431    2.241    0.554
        95 -10.0927    166.4353    214.5225   7.3125073220e+01   7.1855260949e+00      0.23728     0.195222   2.81 0.0005182187    1.014    0.014
        96 -10.6902     70.2999    206.7002   9.6244755002e+01   2.2154372946e+01    0.4668827    0.2500738 -77.67    0.0019953    2.457    0.593
        97 -10.1332    109.3235    205.8116   8.5689835136e+01   1.7151554511e+01    0.3412736     0.204765 -37.99  0.001361807    1.819    0.450
        98  -9.8939    189.2903    204.6059   6.6444680306e+01   5.7985325516e+00    0.4262086    0.2141504  -5.32  0.001529163    3.704    0.730
        99  -9.8058    123.9861    205.9926   8.1918736388e+01   1.4992772428e+01    0.2054997    0.1773943   9.26            0    1.025    0.024
       100 -10.3851    240.7836    204.3174   5.6780143750e+01  -5.9998863001e-01    0.2270751    0.1555297 -12.80 0.0006034556    1.200    0.167
       101  -9.3783    182.6362    202.1533   6.7408502583e+01   7.1605572425e+00    0.2582145     0.124548 -50.69  0.001093924    2.609    0.617
       102 -11.6016    100.6239    201.6095   8.7365221558e+01   1.9318635052e+01    0.4668504    0.2675769  12.41  0.001979897    2.010    0.502
       103 -11.7634     86.7070    200.8627   9.1030289810e+01   2.1404151161e+01    0.5892946    0.2799559  37.66  0.002464869    1.940    0.484
       104 -10.4980     83.7659    196.6218   9.1243922276e+01   2.2784757463e+01    0.2587301    0.1673536  35.87  0.000595775    1.439    0.305
       105  -9.9475    161.0066    199.7524   7.1794402680e+01   1.0754039518e+01    0.3620209    0.2265052  52.96  0.001425485    2.559    0.609
       106  -9.6646    122.0200    200.0098   8.1449934525e+01   1.6562438213e+01    0.2927103    0.2165864  58.11  0.001204735    1.818    0.450
       107 -10.4424    118.0215    197.2647   8.2042010449e+01   1.7757248260e+01    0.2298298    0.1986539  44.24  0.001246132    1.275    0.216
       108 -10.6291    235.3254    202.3746   5.7361680938e+01   3.1442129189e-01    0.3299272    0.1692308 -20.03 0.0009882714    1.970    0.492
       109  -9.6763    184.0402    198.0482   6.6367465812e+01   7.7021540898e+00    0.2015773    0.1674893  -6.61  0.001198202    1.006    0.006
       110 -10.7660     66.1687    189.4667   9.5227977473e+01   2.6751653723e+01    0.3069719    0.2412769 -50.07 0.0009355847    1.317    0.241
       111 -11.4259     68.8336    195.6560   9.5276937368e+01   2.4931463614e+01     0.602137    0.3451549 -75.05  0.002668089    2.113    0.527
       112 -11.2486     64.7083    196.9730   9.6593566523e+01   2.5117378895e+01    0.6000281    0.2450361  17.63  0.002160963    2.891    0.654
       113 -10.9910    210.5676    194.3729   6.0375185437e+01   4.6717965224e+00    0.2999558    0.2163769 -26.21  0.001794961    1.180    0.153
       114 -10.2838    190.5930    194.7704   6.4395047307e+01   7.3559831796e+00    0.4522243    0.2151522 -34.63  0.002053037    1.988    0.497
       115  -9.4249    247.4753    194.5222   5.4005608354e+01   1.0319301441e-01    0.2190129    0.1148119 -29.54 0.0007819396    1.540    0.351
       116 -10.1656    247.1940    190.6266   5.3373295863e+01   7.1605864507e-01    0.1787198    0.1388202 -29.37 0.0005611237    1.203    0.169
       117 -12.5077    110.2102    192.3878   8.3321351151e+01   2.0012163490e+01    0.5972371    0.3144752  23.88  0.002488274    1.868    0.465
       118 -11.4417    124.0469    192.7614   7.9695838032e+01   1.7833666056e+01    0.3460546    0.2315817 -54.68  0.001432787    1.682    0.406
       119 -10.9330    142.9287    192.3620   7.4802532960e+01   1.4997502924e+01    0.2936074    0.2034158 -34.49  0.001453775    1.444    0.307
       120 -11.8340     91.5360    188.4094   8.7848513629e+01   2.3654218907e+01    0.4865375    0.3014937 -34.69  0.002165777    1.832    0.454
       121 -10.2797    242.2137    190.9191   5.4218925214e+01   1.2512553352e+00    0.2984107    0.1534953 -30.83  0.001171856    1.593    0.372
       122 -11.5721    129.2080    189.6428   7.7800881488e+01   1.7716243463e+01    0.3371668    0.2537574  12.45  0.001696777    1.288    0.224
       123 -11.9647    104.9211    187.7367   8.3996620704e+01   2.1865915395e+01    0.5361474    0.2972317   7.12  0.002021384    2.538    0.606
       124 -12.3853    139.6250    183.1064   7.3925979558e+01   1.7474774644e+01    0.6109675    0.3067219 -27.83   0.00225287    2.697    0.629
       125 -12.4672    126.9282    184.3368   7.7441637691e+01   1.9238945252e+01    0.7335397    0.3001367  24.04  0.002505413    2.822    0.646
       126  -9.2185    180.2711    185.0242   6.4747923181e+01   1.0661340927e+01    0.1877219    0.1596955 -16.38  0.001089036    1.056    0.053
       127 -10.5382    192.2969    182.9167   6.1825833346e+01   9.2393087535e+00    0.4296765    0.2886899  30.40  0.001657883    1.514    0.340
       128 -12.3981     69.3336    182.4453   9.3354730073e+01   2.8079565665e+01    0.6791075    0.4413043  53.17  0.002929847    1.739    0.425
       129 -14.5553     42.7431    245.8316   1.0678850828e+02   1.6712015090e+01     3.440133     1.218196  17.67   0.01314943    3.544    0.718
       130  -9.4130    202.9717    183.5440   5.9824123324e+01   7.5708055206e+00    0.1919591    0.1235175  28.59  0.001029404    1.592    0.372
       131 -12.6874    147.7392    185.7784   7.2400885272e+01   1.5610598791e+01    0.6052582    0.4283867  29.74  0.003038922    1.345    0.257
       132  -9.6020    214.7237    182.3548   5.7390541753e+01   6.1257852049e+00    0.1950324    0.1688884 -29.76  0.001254784    1.234    0.190
       133  -9.8764    211.8463    179.1079   5.7310005802e+01   7.0758666468e+00    0.2809542    0.1705972 -29.45  0.001302399    1.458    0.314
       134 -11.8344    153.8719    168.9445   6.7616034964e+01   1.8110861348e+01     0.493471    0.1799688 -48.19  0.001151022    2.853    0.649
       135 -12.1254    151.2081    178.9310   7.0244350097e+01   1.6474991281e+01    0.4156372    0.2840028   3.16  0.001206802    1.667    0.400
       136  -9.4195    201.7497    178.7538   5.9152000789e+01   8.5880331678e+00     0.213508    0.1904039 -14.51 0.0007075585    1.134    0.118
       137 -10.0800    206.1173    176.5329   5.7891153715e+01   8.3397393262e+00    0.3702676    0.2231296  19.23  0.001879942    1.863    0.463
       138 -10.9569    121.5872    175.2511   7.7186985133e+01   2.2135118858e+01    0.3220221    0.2569442  22.52 0.0008501646    1.180    0.152
       139 -11.0353    115.8111    175.7752   7.8870714249e+01   2.2947326009e+01     0.402611    0.2346646  17.37 0.0008222946    1.920    0.479
       140 -11.0598    100.8891    175.8867   8.3101694198e+01   2.5258115054e+01    0.2703402     0.228419  27.27  0.001399154    1.124    0.110
       141 -10.2460    193.5996    172.9452   5.9635397299e+01   1.0854026555e+01    0.4336255    0.2347689 -50.51  0.001957073    2.183    0.542
       142 -10.8736    132.0104    174.5000   7.4251738786e+01   2.0592285844e+01    0.2759765    0.2466896  52.16  0.001465329    1.330    0.248
       143 -11.6811    134.3656    170.7337   7.2895284490e+01   2.1031365012e+01    0.4012898    0.2964096  63.16  0.001370287    1.994    0.498
       144  -9.4250     50.5186    175.0702   9.7954501588e+01   3.2145504257e+01    0.2088367    0.1397265 -69.42 0.0009241859    1.531    0.347
       145 -10.8688    238.3369    173.4826   5.1719405188e+01   4.4259013999e+00    0.3340577    0.1802894   0.69  0.001457885    3.306    0.697
       146 -10.9039     43.3485    171.4501   9.9671160340e+01   3.3821375318e+01    0.3346784    0.2333794 -80.67  0.001590868    1.530    0.346
       147 -10.3768     38.9736    172.5009   1.0112135254e+02   3.3989570875e+01    0.3128796    0.1398919  18.39 0.0006231061    2.373    0.579
       148 -10.0705    107.5153    171.4667   8.0402873975e+01   2.5276018972e+01    0.3050223    0.1523075 -54.41  0.001195149    2.117    0.528
       149 -10.6981     65.1723    172.1607   9.3110806155e+01   3.1167264217e+01    0.2175061    0.1885984 -26.77 0.0003916153    1.194    0.163
       150 -11.1435    144.3796    169.2553   7.0024613418e+01   1.9658022196e+01    0.3444482    0.1703043 -33.64  0.001292717    2.297    0.565
       151 -10.1997    128.2527    169.3951   7.4251958613e+01   2.2357484218e+01    0.2835322    0.1716733 -38.08 0.0006670451    1.696    0.411
       152  -9.1053     84.2247    169.9799   8.6982644089e+01   2.9161122985e+01    0.1906514    0.1251511 -58.11 0.0004111041    1.589    0.371
       153  -9.0722    222.6198    172.8284   5.4204116840e+01   6.6270331319e+00    0.1781822    0.1055863 -44.49  0.000472687    1.674    0.403
       154 -11.8840    171.2376    168.9215   6.3570401840e+01   1.5198568906e+01    0.5192331    0.2704246  39.00 0.0005902653    1.983    0.496
       155 -10.0195    233.9619    166.4338   5.1120433620e+01   6.1206214260e+00    0.1646021    0.1190305  33.83  0.001021167    1.600    0.375
       156  -9.5685    215.9404    165.6339   5.4000690015e+01   8.7836094667e+00    0.1750367    0.1535669  -5.29 0.0004522683    1.107    0.097
       157 -11.3308    134.8472    166.0514   7.1830674506e+01   2.1983786448e+01    0.2789683    0.2171026  27.67 0.0009085233    1.232    0.188
       158  -9.9760    157.2489    165.4358   6.6088600907e+01   1.8262558997e+01    0.2023916    0.1365411  43.28 0.0009472481    1.619    0.383
       159 -10.3905     37.3559    164.7690   1.0070039893e+02   3.6121122979e+01    0.1930423    0.1769807  48.48  0.001116359    1.108    0.098
       160 -11.6844    152.3267    162.6042   6.6690506841e+01   1.9702405852e+01    0.4505874    0.2234013 -30.35  0.001687321    2.475    0.596
       161 -10.6119    189.9647    162.4823   5.8283589706e+01   1.3353871377e+01    0.2500348    0.1842099 -35.27 0.0003138137    1.247    0.198
       162 -10.6328    104.9176    162.5543   7.9461897617e+01   2.7812414666e+01    0.3980018    0.2830823  16.49  0.001830363    1.451    0.311
       163 -10.3155    226.3965    161.8851   5.1496257089e+01   7.9051204668e+00    0.2463799      0.17306  29.03 0.0008630144    1.579    0.367
       164 -10.6628     45.9632    165.5688   9.8117686509e+01   3.5055061206e+01    0.3945169    0.1837174  37.69  0.001596647    2.094    0.522
       165 -10.4714    207.2832    157.9757   5.4053344523e+01   1.1411914662e+01    0.3171278    0.1887792 -39.66 0.0008387874    1.507    0.337
       166 -11.1615     42.3958    157.8304   9.8213910559e+01   3.7417854036e+01    0.3100684    0.2807448 -46.62  0.001526029    1.082    0.076
       167 -10.1909     73.4710    157.3282   8.8133550202e+01   3.3840420878e+01     0.454863    0.2023567  44.34  0.001639605    2.518    0.603
       168  -9.8676     58.8549    158.3785   9.2990406407e+01   3.5454105777e+01    0.2030384    0.1378158   4.83  0.000349032    1.666    0.400
       169 -11.0048    173.1174    156.3121   6.0554545319e+01   1.7361098768e+01    0.2620884    0.1842326 -29.32 0.0006282393    1.377    0.274
       170  -9.8719    125.5130    157.5121   7.2581284245e+01   2.5515925624e+01    0.1557818    0.1431005   0.93 -1.88031e-05    1.009    0.009
       171 -10.7230    138.4812    155.1171   6.8601497214e+01   2.3755604022e+01    0.2575116    0.2030121   0.87 0.0007050413    1.351    0.260
       172  -9.7036    165.2957    154.3501   6.1887975231e+01   1.9121614125e+01     0.153807    0.1080547 -10.21 0.0002792117    1.681    0.405
       173  -9.8681     92.7717    153.8670   8.1419166120e+01   3.1862517893e+01    0.2908719    0.2271196 -82.99  0.001350116    1.687    0.407
       174 -10.5642    248.7054    157.1016   4.7159172776e+01   5.6319047840e+00    0.1739041    0.1256676 -29.78 0.0008041126    1.094    0.086
       175 -10.5848    210.1172    150.7976   5.2110942956e+01   1.2219491423e+01    0.2542379    0.1932321  32.31  0.001054275    1.436    0.304
       176  -8.9587    117.5422    151.4969   7.3545292732e+01   2.8294113514e+01    0.1561797    0.1454111   1.35 6.385028e-05    1.004    0.004
       177 -10.4685    163.4140    149.7922   6.1338873046e+01   2.0377474431e+01    0.2179118    0.1305992 -32.32 0.0009567997    1.710    0.415
       178 -10.9853    149.4914    149.5278   6.4596527892e+01   2.2964987743e+01    0.3254197    0.1444797 -44.67  0.001227932    2.228    0.551
       179 -10.1571     22.8642    150.0908   1.0358259738e+02   4.1160499634e+01    0.2084733    0.1784322  67.14 0.0003577764    1.233    0.189
       180 -10.2112    193.2163    149.0582   5.4883119518e+01   1.5292878519e+01    0.1902804    0.1026019 -39.20  0.000492079    1.699    0.411
       181  -8.9464    243.9847    148.0452   4.6172027985e+01   7.6634775746e+00    0.1467686    0.1136969 -31.26  0.000340291    1.035    0.034
       182  -9.6756     94.1474    148.1437   7.9841377413e+01   3.3049408405e+01    0.2389794    0.2000724  -5.29 0.0004092114    1.234    0.190
       183 -12.2942     26.6572    145.5844   1.0178386433e+02   4.2032918375e+01    0.6560984    0.3559963  25.78  0.003020863    1.866    0.464
       184 -13.7528     20.6218    195.5530   1.0851840280e+02   2.9928242324e+01     2.094977    0.8496668  23.51  0.009182435    2.374    0.579
       185  -9.6436    208.9118    144.1859   5.0987274851e+01   1.3559999996e+01    0.1897962    0.1738447 -57.62 0.0005800666    1.301    0.231
       186  -9.5086     50.9776    143.5151   9.3208738257e+01   4.0219455390e+01    0.2111716    0.1198876 -13.39 0.0008091132    2.441    0.590
       187  -9.5468    169.3234    142.3121   5.8375162163e+01   2.0794221549e+01    0.1503103    0.1095491  -4.01 0.0004045041    1.656    0.396
       188 -10.0761    155.2523    141.6704   6.1455540654e+01   2.3537309777e+01    0.2273121    0.1921842  53.47 0.0005558109    1.374    0.272
       189  -9.6603     21.0541    140.1709   1.0300619408e+02   4.3870920389e+01    0.2455729    0.1335499 -29.80  0.001075129    2.092    0.522
       190  -9.1183    142.7923    138.4107   6.3784762891e+01   2.6576225526e+01    0.2195962    0.1412123  25.93  0.000948907    1.688    0.408
       191  -9.2494    212.7754    137.2085   4.8905261286e+01   1.4129453040e+01    0.2160715   0.09280458 -31.60 0.0007389674    2.491    0.599
       192  -9.3222     91.6792    137.3251   7.8332735344e+01   3.6099155635e+01    0.1573037    0.1233148  66.39  0.000567855    1.681    0.405
       193 -13.5682     41.9275    227.9014   1.0563465983e+02   2.0547345396e+01     2.035075     1.284402 -36.06   0.01071429    2.055    0.513
       194 -10.2540    196.5061    135.5189   5.1412157080e+01   1.7180942487e+01    0.1369364    0.1218986 -22.61 0.0008102372    1.024    0.024
       195  -8.9479     40.4556    134.4872   9.5401449687e+01   4.3686002198e+01    0.1453003    0.1350415 -37.66 0.0008088298    1.014    0.014
       196  -9.3050    133.6387    133.6693   6.5071555937e+01   2.9348520073e+01     0.165518    0.1181156  -3.72 0.0007040128    1.802    0.445
       197 -14.4255     32.0755    211.1224   1.0675479970e+02   2.5261175413e+01     1.808769     1.494016 -70.22   0.01121974    1.256    0.204
       198  -9.1242     23.3035    132.3282   1.0120397046e+02   4.5743635057e+01    0.1521758   0.09175723 -38.56 0.0001792515    1.648    0.393
       199 -10.2922    172.4703    131.0067   5.5172441380e+01   2.2405242362e+01    0.2188784    0.1353658 -41.14 -2.101742e-05    1.547    0.354
       200  -9.9006    244.4942    129.9299   4.2709284726e+01   1.0394685432e+01    0.1673477    0.1472815 -32.84 0.0005163003    1.089    0.082
       201  -9.2702    120.5490    130.5807   6.7962647610e+01   3.2534082078e+01    0.1534596    0.1472645  22.56 8.333036e-06    1.075    0.069
       202 -10.8344     31.9609    128.5393   9.7518328272e+01   4.6025973902e+01    0.3900908    0.2256477 -38.88  0.001418671    1.721    0.419
       203 -10.0762     21.5299    127.1468   1.0112650050e+02   4.7218511590e+01    0.2753591    0.1699406 -30.10 0.0009412876    1.693    0.409
       204 -11.2333     11.1504    126.3635   1.0479082442e+02   4.8091348619e+01    0.3582174    0.2530447 -65.78  0.001670878    1.270    0.213
       205  -9.4664     93.4432    122.4084   7.4327882801e+01   3.9387719352e+01    0.3103984    0.1524365 -50.52 0.0007533501    2.074    0.518
       206 -10.0591    248.6746    122.4787   4.0766481522e+01   1.0917031960e+01    0.2823354    0.1480846  35.40  0.001495816    2.686    0.628
       207 -10.1846      2.0122    122.0000   1.0758488310e+02   4.9672986363e+01    0.2367997    0.1823792 -13.48  0.001288474    1.384    0.277
       208  -9.9864      3.6731    119.3133   1.0667935573e+02   5.0284031024e+01    0.2365077    0.1943238 -83.05  0.001055804    1.211    0.174
       209  -9.2099    229.4702    121.5310   4.3166586297e+01   1.3999889535e+01    0.1242932    0.1051277 -38.76 0.0002648723    1.027    0.026
       210  -9.9974    138.1856    121.3966   6.0926014703e+01   3.1067649861e+01    0.2158155    0.1419251  50.67 0.0006086402    1.663    0.399
       211 -10.3196     18.8617    121.1295   1.0126026086e+02   4.8959712136e+01    0.1989028    0.1847499  76.60 0.0002941396    1.191    0.160
       212  -8.9412    105.9970    120.0154   6.9725485235e+01   3.7669835065e+01    0.1866193    0.1697747 -31.23 0.0003412694    1.104    0.094
       213 -10.3657     10.1552    117.1343   1.0399216497e+02   5.0516985210e+01    0.2133427    0.1637561 -42.25  0.000451724    1.187    0.157
       214 -10.5942     28.2862    114.9502   9.6671305641e+01   4.9841091997e+01    0.4313032    0.1713074 -47.00  0.001327672    2.239    0.553
       215  -8.8868     15.5505    116.2585   1.0181625296e+02   5.0426405030e+01    0.1436382   0.09285613  48.94 0.0002160857    1.841    0.457
       216  -9.7924    195.1748    114.0091   4.6992178886e+01   2.1204436560e+01    0.2321841    0.1502904 -63.41  0.001093734    2.098    0.523
       217 -10.0627     38.2130    113.6028   9.2532059582e+01   4.9284704353e+01    0.1966369     0.183744 -52.30 0.0009762499    1.097    0.088
       218  -9.6821    210.7832    113.2087   4.4252251201e+01   1.8493972978e+01    0.1701563     0.145126  -8.47 0.0004559363    1.308    0.235
       219 -10.3104    176.9972    111.5128   4.9772594594e+01   2.5152891765e+01    0.2660305    0.2111696  -4.54 0.0005651892    1.520    0.342
       220  -8.7121     68.6815    112.2765   8.0534209036e+01   4.5834391734e+01    0.1482433    0.1182919  58.39 0.0001765066    1.573    0.364
       221  -9.7932     32.8177    112.6530   9.4478846957e+01   5.0035878937e+01    0.1975984    0.1247296  28.77 0.0007531913    1.641    0.390
       222  -9.4241     56.4836    111.4998   8.4963406703e+01   4.7722137993e+01    0.1505289    0.1391407 -16.09 -5.117744e-05    1.008    0.008
       223 -10.4119      7.5025    111.1514   1.0421536973e+02   5.2179503060e+01    0.2140446    0.1835416  -8.04 0.0002888734    1.219    0.180
       224  -9.0167     99.3684    110.2613   6.9332750087e+01   4.1112223799e+01    0.1607156    0.1176269   2.01  0.000409767    1.648    0.393
       225  -9.4669     88.5088    109.9896   7.2878073016e+01   4.3149008127e+01    0.2244803    0.1509152 -45.63 0.0003703907    1.504    0.335
       226  -9.4367    147.3106    108.9439   5.5555865896e+01   3.1704268513e+01    0.2022872    0.1834673 -31.46  0.000201408    1.099    0.090
       227  -9.9875    133.5445    109.5342   5.9145350723e+01   3.4452522965e+01    0.1514767    0.1437987   8.69 4.270015e-05    1.017    0.017
       228 -10.4211    105.0417    107.9483   6.6915546827e+01   4.0542116143e+01    0.2261376    0.2096057   9.85  0.001187248    1.017    0.017
       229 -12.2123      8.6627    104.8560   1.0287306411e+02   5.3712329024e+01    0.6606868    0.4159113  -2.00  0.003410356    1.697    0.411
       230  -9.4986    116.0582    108.7350   6.3784381237e+01   3.8196313942e+01    0.2169395    0.1886163  31.13 0.0004703345    1.106    0.096
       231 -10.3690    112.0176    104.6725   6.3898400987e+01   3.9868229371e+01    0.2232554    0.1946517  21.99 0.0005036243    1.110    0.099
       232  -8.9304    250.7745    102.9436   3.6871852393e+01   1.3482257614e+01     0.148849   0.07871813 -38.52 0.0002594477    1.547    0.354
       233  -9.0243     90.5022    102.5024   7.0208678433e+01   4.4483059387e+01    0.1547697    0.1445113   9.08 -2.708626e-05    1.021    0.020
       234  -9.6517    232.9127    100.4257   3.8531042760e+01   1.6693700070e+01    0.2213767    0.1345932 -47.65 0.0006413232    1.447    0.309
       235  -9.7418     92.8594     99.8423   6.8678293753e+01   4.4631989261e+01    0.1963853    0.1803834  60.90            0    1.280    0.219
       236 -10.7624    196.0141     97.3510   4.3151937112e+01   2.3833120206e+01    0.3122618    0.2190705 -69.86  0.001312422    1.820    0.451
       237  -9.5333     87.5093     93.9168   6.8849676254e+01   4.6906169516e+01    0.2233117    0.1500167 -44.46 0.0005547453    1.537    0.349
       238 -10.7058     93.4826     91.5165   6.6107790027e+01   4.6287179821e+01    0.2535953    0.2374437  16.30  0.001372927    1.038    0.036
       239  -9.8283     49.5992     91.8392   8.2966047397e+01   5.3337097200e+01    0.2549956    0.1858908   6.74 0.0006839146    1.373    0.272
       240  -9.1390     82.5417     89.5185   6.9343511116e+01   4.8751834501e+01    0.1525841    0.1394013   7.11 8.156348e-05    1.003    0.003
       241  -9.3853     56.3191     89.6646   7.9579091459e+01   5.2945194855e+01    0.1441721     0.116895  63.39 0.0007049211    1.701    0.412
       242 -10.1544    108.8086     86.8097   5.9841592216e+01   4.4146805856e+01    0.2091775    0.1867539  83.60  0.001085492    1.396    0.284
       243  -9.7049    152.4692     85.4680   4.8336922163e+01   3.4892253442e+01    0.1398163    0.1370157  70.42 2.431793e-05    1.019    0.019
       244  -9.1419     37.6778     84.3245   8.6207711483e+01   5.6480700324e+01    0.1376717    0.1103402  57.63 0.0007047183    1.682    0.406
       245 -10.6586     17.0643     79.4990   9.4586813338e+01   5.9419612078e+01    0.2389487    0.1874087 -80.72 0.0008363046    1.565    0.361
       246  -9.5406     54.0050     78.4932   7.7364241005e+01   5.5753339282e+01    0.1934141      0.11506  49.38 0.0004456418    2.314    0.568
       247 -10.5908     11.4315     77.7191   9.6886298277e+01   6.0192372347e+01    0.2932473    0.2037727  39.83   0.00107913    1.768    0.434
       248  -9.8387     42.8281     74.6894   8.1213599530e+01   5.8059302516e+01    0.2682325   0.09614853 -51.40 0.0009941411    2.656    0.624
       249  -9.3609    178.4324     72.9966   4.0337385929e+01   3.1250996948e+01    0.1893824    0.1260285 -37.53 1.871644e-05    1.499    0.333
       250 -10.5001    147.6405     70.9461   4.5467730879e+01   3.8354245390e+01    0.3026429    0.2822087   1.58  0.001305556    1.187    0.157
       251  -9.4819     95.9609     70.9944   5.9012024813e+01   4.9779916140e+01    0.1785966       0.1591  28.34 0.0009715436    1.022    0.022
       252  -9.3515     33.7857     70.6352   8.4287626366e+01   5.9981391247e+01    0.1909265    0.1180421  29.47 0.0005322249    1.647    0.393
       253  -9.8534     17.0000     66.9598   9.1625742556e+01   6.2298689321e+01    0.2168757   0.07025015 -60.74 0.0008049452    2.960    0.662
       254  -9.7106    234.8138     60.0789   3.0424617006e+01   2.2011010026e+01    0.1663966    0.1246806 -59.81 0.0002905388    1.148    0.129
       255  -9.0930     75.9644     58.0114   6.1623664892e+01   5.6061766539e+01     0.180222    0.1438697  31.33 0.0004487171    1.123    0.110
       256 -10.3043     35.9897     53.9754   7.7899780512e+01   6.3182615883e+01     0.212181    0.1799799   0.06 0.0005929461    1.055    0.052
       257  -9.4488    156.1830     53.1357   3.9027220073e+01   3.9022267637e+01    0.1864945     0.150309 -75.11 0.0005431435    1.327    0.246
       258 -10.0197     21.3840     50.8364   8.4592080487e+01   6.5371984327e+01    0.2449984    0.1300435 -63.98  0.001099442    2.603    0.616
       259  -9.6894     88.7215     48.9094   5.3894647328e+01   5.4943420890e+01     0.186837    0.1767352  19.97 0.0003582463    1.107    0.096
       260  -9.8333     43.7966     49.6307   7.2426644333e+01   6.2968002900e+01    0.1941668     0.114264  36.71 0.0009463828    1.719    0.418
       261  -9.1391    165.1814     46.7773   3.5901575463e+01   3.7821376327e+01    0.1635517     0.147153  36.95 0.0003828172    1.282    0.220
       262  -9.2790    111.3585     42.8270   4.5299846156e+01   5.0768580169e+01    0.1822384    0.1313543 -11.56 0.0003997575    1.726    0.421
       263  -9.4641      8.8385     43.3535   8.9379604619e+01   6.7876313011e+01    0.1776621    0.1327976 -13.12 0.0005905979    1.109    0.099
       264  -9.6360     27.4917     42.5030   7.8258950585e+01   6.6358888771e+01    0.1354788    0.1076054  -7.05 4.311648e-05    1.029    0.028
       265  -8.9358     90.9932     39.2212   4.9678182666e+01   5.5823069911e+01     0.186982    0.1010716  50.28 0.0005444732    1.622    0.384
       266  -9.8794    158.4720     36.9523   3.4364543483e+01   4.0549040415e+01    0.1928094    0.1570488  70.97 0.0003267154    1.106    0.096
       267  -9.2639     68.3046     36.3266   5.6366444100e+01   6.0933358980e+01     0.141917   0.09467476  15.47 0.0005484567    1.647    0.393
       268  -9.3177     11.2675     36.0188   8.5401967301e+01   6.9129369273e+01    0.1768973    0.1347767 -26.54    0.0003546    1.109    0.098
       269  -9.5338    216.9835     34.4851   2.7032154767e+01   2.8431315954e+01    0.1504634   0.08241634  47.78 0.0008090498    2.499    0.600
       270  -9.2129     35.9070     31.5217   6.9172425249e+01   6.7173454608e+01    0.1872573    0.1116951  27.84 0.0002880741    1.473    0.321
       271  -9.3257      7.8524     26.8562   8.4109115675e+01   7.1084492333e+01    0.1495725     0.133272  -6.34 0.0003548331    1.288    0.223
       272  -9.3354    141.9675     25.4723   3.3768684439e+01   4.5645656755e+01    0.2024073     0.111604  65.04  0.001023677    1.569    0.363
       273  -9.7958     67.8144     25.0295   5.1889342591e+01   6.2502792961e+01    0.1869015    0.1764093  66.78  0.001149856    1.373    0.272
       274  -9.9015     26.5677     22.1636   7.0190370016e+01   6.9894054625e+01     0.281788    0.1262302  41.87  0.001246698    2.813    0.645
       275  -9.5837     76.9851     20.7488   4.6934730427e+01   6.1081691276e+01    0.2325405    0.1630747   4.67  0.001284425    1.665    0.399
       276 -10.4140     14.9450     18.3794   7.5676789338e+01   7.1857703752e+01    0.2384691    0.1630751 -41.52 0.0002942314    1.636    0.389
       277  -8.9576    229.2876    249.6765   6.6190052438e+01  -5.8497180488e+00   0.09537766   0.08450469  -2.73 0.0006875901    1.604    0.377
       278  -9.8540    114.9494    248.1677   9.0085818580e+01   7.8472243789e+00    0.2805543    0.1892532  35.55  0.001216734    1.341    0.254
       279  -9.4635    177.2302    247.6394   7.6043885168e+01   1.4886456492e-01    0.2085795    0.1602512  87.88 0.0009689836    4.054    0.753
