#   1 NUMBER                 Running object number                                     
#   2 MAG_AUTO               Kron-like elliptical aperture magnitude                    [mag]
#   3 X_IMAGE                Object position along x                                    [pixel]
#   4 Y_IMAGE                Object position along y                                    [pixel]
#   5 X_WORLD                Barycenter position along world x axis                     [deg]
#   6 Y_WORLD                Barycenter position along world y axis                     [deg]
#   7 A_WORLD                Profile RMS along major axis (world units)                 [deg]
#   8 B_WORLD                Profile RMS along minor axis (world units)                 [deg]
#   9 THETA_WORLD            Position angle (CCW/world-x)                               [deg]
#  10 FWHM_WORLD             FWHM assuming a gaussian core                              [deg]
#  11 ELONGATION             A_IMAGE/B_IMAGE                                           
#  12 ELLIPTICITY            1 - B_IMAGE/A_IMAGE                                       
         1 -12.0358    107.5376     28.9269   6.6764168082e+01   5.4599874039e+01    0.4995934     0.295824 -23.68 0.0003536678    1.733    0.423
         2 -11.1409     14.8305     18.4946   9.8344187594e+01   7.0420672077e+01    0.3415571     0.143421 -37.76  0.001831224    1.883    0.469
         3 -11.9626     18.2299     23.8175   9.8812609087e+01   6.9219067817e+01    0.3565165    0.2626333 -48.29  0.001203849    1.305    0.234
         4 -12.1878      2.0858     25.0349   1.0719570247e+02   7.0071295431e+01    0.3900108    0.1634602 -56.92  0.002147682    1.894    0.472
         5 -11.6661      5.6516     17.1456   1.0252361325e+02   7.1301477027e+01    0.4846434    0.2641955 -52.81  0.003019964    1.579    0.367
         6 -11.4118    182.2161     18.9929   4.8570193059e+01   3.7199155435e+01     0.332105    0.2900756  15.73 0.0009379638    1.343    0.255
         7 -10.4617    201.7126     12.2847   4.4258632911e+01   3.2910798731e+01    0.1878728    0.1547434  44.31 0.0004125768    1.374    0.272
         8 -10.6829     66.5195     13.6705   7.3051122802e+01   6.4641193635e+01     0.465645    0.2805105   3.95  0.002369723    1.950    0.487
         9 -11.1823    116.6035     15.0608   5.8911356885e+01   5.4209123772e+01     0.320343    0.2180774  14.44  0.001612539    1.646    0.392
        10 -10.6999     21.7175     12.0616   9.1979547592e+01   7.0887710837e+01    0.2955944    0.1694242  43.81  0.001633396    2.902    0.655
        11 -11.4349    169.2373     14.0297   4.8858119760e+01   4.1119255574e+01    0.3874799     0.221573  65.03 0.0003209306    1.590    0.371
        12 -12.2856    176.0050     11.0002   4.6979706688e+01   3.9672594426e+01    0.5739322    0.2838869  41.61  0.002102863    2.370    0.578
        13 -11.0278    132.9186     12.9308   5.4602737195e+01   5.0503377852e+01    0.2908604    0.2155369 -38.26 0.0003697293    1.472    0.321
        14 -11.4148    210.0722     12.1963   4.3349560203e+01   3.0809442360e+01    0.4415565    0.2961745   0.88  0.002149957    2.174    0.540
        15 -11.5797    128.1577      9.1312   5.4113064211e+01   5.2046483364e+01    0.3944834    0.2015633 -23.11  0.001790485    2.070    0.517
        16  -9.8144     51.3258     13.4712   7.8904300157e+01   6.7086837720e+01    0.2157151   0.09987546 -33.07 0.0008105336    1.957    0.489
        17 -10.5752    150.8166     11.9365   5.1016995438e+01   4.6095084746e+01    0.2780443     0.181545  53.09 0.0003536116    1.396    0.284
        18 -10.9340     75.1931     12.8151   6.9590968663e+01   6.3200269888e+01    0.2531773    0.2464363 -28.21  0.001246748    1.347    0.258
        19 -10.1358     73.7580      8.5762   6.8059873319e+01   6.3953683836e+01    0.4471975     0.131884  43.24   0.00173493    3.086    0.676
        20 -10.3851    218.5455     11.9953   4.2455853781e+01   2.8726567313e+01    0.2643788    0.1869716  74.16 0.0006714661    1.340    0.254
        21 -10.0124     97.7724     12.1640   6.2436184580e+01   5.8748661774e+01    0.1887445    0.1737444 -13.16 0.0005646934    1.165    0.141
        22 -10.0604      4.8209      9.4443   9.9769219625e+01   7.2675975564e+01     0.217733    0.1359524 -49.72  0.001460456    1.475    0.322
        23 -11.5830     13.7993     11.0541   9.5629420180e+01   7.1748415081e+01    0.3194095    0.2125822 -11.45 0.0006972167    1.384    0.278
        24  -9.5495      8.9792     11.0000   9.8185882652e+01   7.2128728709e+01     0.233974    0.1040753  29.48  0.001324671    2.687    0.628
        25  -9.5124    229.4384     10.9900   4.1202195963e+01   2.6193404987e+01    0.1858128    0.1216689 -34.31  1.22128e-05    1.499    0.333
        26 -11.4601    164.6307      8.5679   4.7777288740e+01   4.2866394441e+01    0.5112091    0.2595608 -48.99  0.002202463    2.228    0.551
        27 -11.4101    165.7185      3.6026   4.6042283258e+01   4.3051443654e+01    0.3321994    0.2658246  32.60  0.001225301    1.374    0.272
        28 -11.7636    160.7945      3.1681   4.6572997077e+01   4.4360223335e+01    0.5169052    0.3425349  65.33  0.002139349    1.344    0.256
        29 -11.8304    193.8176      8.1893   4.3989742663e+01   3.5356503544e+01    0.4375517    0.2572991  82.39  0.001652221    1.668    0.401
        30 -12.1262    195.6681      3.3760   4.2444098233e+01   3.5363344436e+01    0.6408904    0.2548645  64.23  0.002686158    2.195    0.544
        31 -10.8521    185.2561      8.9258   4.5191535179e+01   3.7485318750e+01    0.2432417    0.1835992  68.26 0.0002452073    1.218    0.179
        32 -11.3182    146.2785      8.3423   5.0527053135e+01   4.7602441794e+01    0.2969517    0.1786923  37.16  0.001402207    1.761    0.432
        33  -9.7601     46.8798      9.0000   7.8556818275e+01   6.8328230713e+01    0.2092736    0.1423801  21.31 0.0006549328    1.398    0.285
        34 -10.3121     51.4701      6.7467   7.5465988853e+01   6.7937030907e+01    0.2950982    0.1730135  10.20  0.001579223    1.915    0.478
        35 -11.1996    108.1755      7.8397   5.7942877261e+01   5.6885992493e+01    0.5076701    0.2184963  57.56  0.001656145    2.124    0.529
        36 -10.6032    111.9788      4.9768   5.5877716014e+01   5.6280756253e+01    0.2929379     0.188611 -33.21  0.001135504    1.697    0.411
        37 -10.7750    106.8869      3.8707   5.6579432708e+01   5.7546680729e+01    0.5356124    0.2301863  30.60  0.002096548    2.865    0.651
        38 -11.5220    208.8874      4.7454   4.1497958224e+01   3.1891356408e+01    0.3539113    0.2611947 -60.74 0.0004016049    1.275    0.216
        39 -10.6892     87.3485      6.2037   6.2696096499e+01   6.1551024628e+01    0.2489421    0.2166675 -24.82 0.0003918666    1.279    0.218
        40 -10.5532     90.3548      1.6406   5.9757025497e+01   6.1360186350e+01    0.3199599    0.1463512  51.85  0.000970763    1.932    0.482
        41 -10.9423     61.5791      6.2678   7.1244138955e+01   6.6370547873e+01    0.2612091    0.2312489 -42.63  0.001542305    1.560    0.359
        42 -10.2673     24.7442      6.8907   8.7895161375e+01   7.1369928434e+01    0.2076724    0.1529385 -42.71  0.001098419    1.573    0.364
        43 -10.5873     20.3866      6.7989   9.0101567564e+01   7.1824503710e+01    0.2533008    0.1591626 -29.01 0.0007746868    1.244    0.196
        44 -11.0618    171.0137      6.2878   4.6184442908e+01   4.1432184290e+01    0.1973049    0.1668694  74.25 0.0003768528    1.075    0.070
        45 -11.4067    134.2091      5.5836   5.1633962223e+01   5.0887090945e+01    0.3610096    0.2114386  45.90  0.001195478    1.569    0.363
        46 -11.2853     38.6965      3.4403   7.9294774797e+01   7.0174785586e+01    0.3672863    0.2868595 -47.89  0.002377443    1.961    0.490
        47 -10.4335     31.2379      4.2481   8.3269609531e+01   7.1012158357e+01      0.29878    0.1882486 -48.38  0.001168131    2.317    0.568
        48  -9.6013     46.5511      4.4944   7.6362283100e+01   6.8946352923e+01    0.1694689   0.09814152  25.58  0.000148472    1.690    0.408
        49 -10.0167     49.5464      2.5346   7.4056614542e+01   6.8732635213e+01    0.2392078    0.1413801  34.03 0.0005772821    1.614    0.380
        50 -10.2492     13.0759      3.1880   9.2208429552e+01   7.3037971771e+01    0.2330222    0.2119633  85.03  0.001690957    2.240    0.554
        51 -10.4474    217.9986      2.4924   4.0088688456e+01   2.9867562266e+01     0.236847    0.1893018 -39.47 0.0005578333    1.269    0.212
        52 -11.6247    181.6625      1.8967   4.3549079003e+01   3.9092066413e+01     0.650147    0.1631134  66.39  0.002219119    3.166    0.684
        53 -10.5586    115.7430      1.9893   5.3843926223e+01   5.5664473241e+01    0.2139266    0.1721646  53.74 0.0003969677    1.133    0.117
        54 -10.1318    248.9183      2.8501   3.7761712507e+01   2.2564314616e+01    0.2038773    0.1597402 -47.03 0.0003645117    1.175    0.149
        55 -11.1029     74.1874      2.0198   6.4726531735e+01   6.4558793985e+01    0.2805712    0.1895374  42.15 0.0007588087    1.364    0.267
        56 -10.3642    148.2969      1.4175   4.7804580252e+01   4.7710966167e+01    0.2664436    0.1123209  62.79  0.001024819    2.011    0.503
        57 -10.0092     43.6315      1.3480   7.5945082884e+01   6.9747334176e+01     0.178459    0.1036938  40.35 0.0002151974    1.836    0.455
        58 -10.1386    111.3252    227.7059   1.1245724989e+02   1.3262364146e+01    0.2120047    0.1534519 -89.81 0.0008027987    1.528    0.346
        59  -9.8990    200.5425    249.0972   9.8923797989e+01  -4.2283241210e+00    0.1836033    0.1673128 -15.97 0.0009134033    1.356    0.263
        60 -11.6240    201.5676    244.6795   9.8115848309e+01  -3.8524933071e+00    0.2815965    0.1801132  31.04 0.0004266819    1.259    0.206
        61 -10.3397    204.2502    240.4306   9.7023903427e+01  -3.7496125613e+00     0.259461    0.1523752  38.04  0.001034575    1.367    0.269
        62  -9.9367    186.9488    250.4641   1.0148252638e+02  -2.2843772904e+00    0.1655459    0.1123272  36.75 0.0003326636    1.137    0.121
        63 -11.5021    127.4843    248.1155   1.1173335961e+02   7.4115536014e+00    0.3101873    0.2466077 -70.19  0.002210476    1.534    0.348
        64  -9.4169    105.9842    249.9842   1.1570210573e+02   1.0374902322e+01     0.140992    0.1028871  53.86 0.0009780355    1.040    0.039
        65 -11.4800     38.6100    249.4844   1.2692472562e+02   1.9402850407e+01    0.2483161    0.1832201  58.29 0.0008266144    1.213    0.176
        66 -12.2357      3.1544    232.6715   1.3169975843e+02   2.6082992366e+01    0.7003651    0.2455366 -88.18  0.004000475    2.454    0.592
        67 -10.2140     30.9574    250.6001   1.2818501315e+02   2.0088326515e+01    0.1435007   0.08659527  55.50  0.001062545    1.236    0.191
        68 -11.7373     31.8905    244.6246   1.2772915257e+02   2.0997982053e+01    0.3004904    0.1969561  37.43 0.0006493627    1.824    0.452
        69 -11.7134      2.1406    224.3143   1.3151573927e+02   2.7682372893e+01     0.308183     0.137075  88.20  0.001622862    1.794    0.442
        70 -12.9338     12.2894    234.8148   1.3035751589e+02   2.4805427764e+01     1.114017    0.4698212  64.87  0.006535253    1.798    0.444
        71 -12.2693     16.4394    245.0421   1.3016692296e+02   2.2599788397e+01     0.526323    0.2844939  58.77  0.002977538    1.308    0.235
        72 -11.6774     10.3629    249.1493   1.3126120282e+02   2.2528560007e+01    0.4303429    0.1753279  59.18  0.002639138    1.705    0.413
        73 -11.9706      3.6870    246.3544   1.3214873297e+02   2.3662699640e+01    0.3632005    0.2537009 -75.97  0.003016051    1.651    0.394
        74 -10.3895    108.8220    225.1433   1.1264432699e+02   1.4103403570e+01    0.1839292    0.1502817  57.83 0.0003137502    1.033    0.032
        75  -9.7445     93.5532    227.5584   1.1576615258e+02   1.5994709650e+01    0.2235851    0.1125065 -66.46  0.001213904    2.201    0.546
        76  -9.2456     55.4264    228.5024   1.2276528607e+02   2.1058927215e+01    0.1127963   0.08530902  69.98 6.632488e-05    1.037    0.036
        77  -8.9595    175.3051    227.6810   1.0038740593e+02   2.7033892918e+00    0.1189726   0.09091063  64.96 0.0005951444    1.631    0.387
        78  -9.9474    234.3930    226.1815   8.9520640199e+01  -6.7047017458e+00    0.1465207    0.1077156 -36.59  0.000944274    1.704    0.413
        79  -9.7528     19.8697    226.0420   1.2870367767e+02   2.5610756783e+01    0.1709033    0.1023594  73.14  0.001211607    1.228    0.185
        80  -9.4837    164.5132    225.5257   1.0209945204e+02   4.8549567892e+00    0.1267395    0.1044476  42.98 -5.083722e-06    1.033    0.032
        81  -8.7962    123.3079    225.3183   1.0991119887e+02   1.1769374214e+01    0.1128951   0.09532849  12.68 0.0007031619    1.636    0.389
        82  -9.6447     78.6761    222.8355   1.1807726732e+02   1.9005264907e+01    0.1978543     0.107951  75.06  0.001060645    1.990    0.498
        83 -10.1431     36.1239    223.1605   1.2577519767e+02   2.4370270377e+01    0.2329123    0.1289854  66.55  0.001503512    1.427    0.299
        84  -9.4560    144.1763    222.1266   1.0550365838e+02   8.8524359682e+00    0.1689216      0.13271  66.36 0.0005936412    1.328    0.247
        85 -11.8314     84.0871    220.7753   1.1686670837e+02   1.8618294294e+01    0.1999265    0.1599556  77.57 0.0003213883    1.107    0.096
        86  -9.6425     63.8214    220.8779   1.2065193608e+02   2.1395691504e+01    0.2870798    0.1320606  72.26  0.001399504    2.506    0.601
        87  -9.3571     31.7880    222.1888   1.2646541586e+02   2.5041220998e+01    0.1309118    0.1107062  82.12 0.0003857811    1.302    0.232
        88 -10.6935    228.7338    220.1224   8.9482040682e+01  -5.0855095948e+00    0.2016433    0.1634181  31.56 0.0003226952    1.208    0.172
        89 -10.6461    135.7982    218.9058   1.0669208062e+02   1.0811988561e+01    0.3302218    0.2506896 -84.94  0.001987266    1.608    0.378
        90  -9.4858    110.1176    220.8540   1.1190990888e+02   1.4666325756e+01    0.1490505     0.135721  43.58 0.0003167556    1.265    0.209
        91  -9.8802     54.6289    221.1701   1.2235216118e+02   2.2524550056e+01    0.1776318    0.1129883  80.05 0.0008003467    1.355    0.262
        92  -8.9275    157.7820    219.9966   1.0258719902e+02   6.8786689989e+00    0.1332218    0.1061365 -49.08 0.0008197509    1.498    0.332
        93  -9.4808     13.6475    219.7138   1.2941596408e+02   2.7420011113e+01    0.1543558    0.1307104  -7.51  0.001136429    2.446    0.591
        94  -9.8376      7.7374    219.9189   1.3040965997e+02   2.7960872254e+01     0.236698   0.08793495  54.23  0.001020978    2.011    0.503
        95  -9.5901     96.3911    218.2128   1.1425684582e+02   1.7276019698e+01    0.1552418    0.1069915 -86.17 0.0003234901    1.531    0.347
        96  -9.8924     46.8550    218.1805   1.2353198455e+02   2.4051987021e+01    0.2359196    0.1356609  29.55  0.001346518    2.417    0.586
        97 -10.3909     39.5753    217.7817   1.2481081612e+02   2.4990512584e+01    0.2016516    0.1662959  80.87  0.001530616    1.211    0.175
        98  -9.4233    175.8525    217.1794   9.8699909349e+01   4.1930730163e+00    0.1787595    0.1370098  20.85  0.000478496    1.347    0.257
        99 -10.7496     72.7936    216.3576   1.1857859313e+02   2.1046359654e+01    0.2366322    0.1919121 -52.54 0.0001381343    1.695    0.410
       100 -11.7924     74.4315    211.1188   1.1776582986e+02   2.1832929122e+01    0.2230011    0.1892673  75.16 0.0002808379    1.118    0.105
       101 -10.5413     68.2552    215.1254   1.1932388290e+02   2.1902282446e+01    0.1832468    0.1556518  67.63  0.000321805    1.164    0.141
       102 -10.0246     58.7252    215.8637   1.2117467357e+02   2.3016241787e+01    0.1739088    0.1363277  52.22 0.0003023633    1.264    0.209
       103 -11.7894     24.0135    208.8093   1.2700695116e+02   2.8448002424e+01    0.6202884    0.1897033  46.60  0.002828381    2.522    0.603
       104 -10.2419     31.9047    216.1101   1.2606299046e+02   2.6181214457e+01     0.334488     0.210979 -47.88  0.002017521    2.712    0.631
       105 -11.2075     28.6994    213.0717   1.2643777477e+02   2.7118296595e+01     0.246207    0.2063749  27.54  0.001611919    1.811    0.448
       106 -10.3735    111.6714    213.9723   1.1079040149e+02   1.5676617003e+01    0.2284904    0.1885843 -59.23 0.0007310177    1.417    0.294
       107 -10.3541     85.5415    214.0990   1.1591563958e+02   1.9669159001e+01    0.3198027    0.2622841  56.30  0.002160803    1.139    0.122
       108 -10.9336     13.8555    212.4249   1.2900141351e+02   2.8780708153e+01     0.203441    0.1428991 -77.95 0.0004276207    1.409    0.290
       109 -10.1072      1.4546    204.5384   1.3074262680e+02   3.1470066685e+01    0.1618392   0.09967741 -87.86 8.926918e-05    1.269    0.212
       110 -11.7998      8.3869    210.5055   1.2984270240e+02   2.9678744962e+01    0.4478604    0.1849459 -82.58  0.002636713    1.995    0.499
       111 -11.0362      4.9427    206.2251   1.3022191791e+02   3.0826744246e+01     0.287605    0.1572392  88.59  0.001947204    1.403    0.287
       112 -10.5914    125.5261    212.4222   1.0785086742e+02   1.3686563719e+01    0.2631851    0.2189055  18.37 5.854126e-05    1.553    0.356
       113 -11.6754    129.3807    207.5026   1.0641227057e+02   1.3935011447e+01    0.3979034    0.2678159  23.85  0.001379287    1.981    0.495
       114  -9.0494    164.9809    213.5051   1.0022734796e+02   6.6791500678e+00     0.182562   0.09943643  59.17 0.0008084163    2.418    0.586
       115  -9.4261      1.3610    212.7939   1.3114185444e+02   2.9895561811e+01    0.1370411   0.07404783 -77.01  0.000317151    1.629    0.386
       116 -10.1866    118.0038    212.0107   1.0929209296e+02   1.5010295872e+01    0.1944323    0.1627607  56.53 0.0003833566    1.022    0.022
       117  -8.8648     52.6708    212.7397   1.2204539910e+02   2.4389477563e+01   0.09340489   0.09175662 -66.31  0.000346916    1.565    0.361
       118 -10.7770    155.0138    209.8603   1.0162739371e+02   9.0461305626e+00    0.1901315    0.1828215  57.01  0.000293847    1.125    0.111
       119 -10.9118    144.7500    208.6298   1.0348592515e+02   1.1068013003e+01    0.3606178    0.1730781 -60.15  0.001342403    2.781    0.640
       120  -9.2686    104.3144    209.3330   1.1168722344e+02   1.7724136636e+01    0.1140953    0.1015633  -5.44  0.000704602    1.684    0.406
       121  -9.6757     97.2076    208.8539   1.1304800217e+02   1.8926947284e+01    0.1540107    0.1431123  45.62 0.0005918849    1.299    0.230
       122  -9.9190     81.0775    208.5306   1.1620755301e+02   2.1398125606e+01    0.3127471    0.2325883   7.12  0.001685203    2.666    0.625
       123 -10.9469     67.1412    207.3380   1.1881592092e+02   2.3578314126e+01     0.261593     0.175809 -79.99  0.001095567    1.408    0.290
       124 -10.7237     59.3678    207.8094   1.2036135468e+02   2.4510894739e+01    0.3320125    0.1851227  55.74  0.001068024    1.506    0.336
       125 -11.6542     17.7654    207.7868   1.2805918674e+02   2.9289487504e+01     0.203942    0.1401808  79.37  0.000340178    1.063    0.060
       126 -10.0795    196.7921    207.7809   9.3182329430e+01   1.9577217658e+00    0.2190115    0.1303653   6.75 0.0009512419    2.782    0.641
       127  -9.2444     18.5223    217.4777   1.2847280883e+02   2.7347990883e+01    0.1085618   0.07761086  75.01 0.0007207422    1.031    0.030
       128 -11.7042     34.8295    204.8155   1.2476464345e+02   2.8067221818e+01     0.283828    0.2019162 -85.55  0.001055674    1.225    0.184
       129  -9.3742     39.9794    204.9538   1.2381163951e+02   2.7454534728e+01    0.1407619    0.1048664  78.43 0.0004190855    1.033    0.032
       130  -9.7296     39.1911    210.3474   1.2435667476e+02   2.6475775228e+01    0.1518133    0.1327616  52.91  0.001143946    1.408    0.290
       131  -8.7806    165.6359    202.2834   9.8318311324e+01   8.4367065550e+00    0.1348217   0.09819914  66.14 0.0007017974    1.685    0.407
       132 -11.4520     98.2274    200.4464   1.1183483517e+02   2.0421591552e+01    0.4010152    0.2445477  33.05  0.001303413    1.885    0.470
       133  -9.8656     86.9992    201.0214   1.1420012119e+02   2.2025036341e+01    0.1756889    0.1594085 -14.86   0.00112729    1.682    0.406
       134  -9.2472     70.3970    201.1741   1.1756841200e+02   2.4375142541e+01    0.1634139    0.1005937 -89.65  0.000359455    1.606    0.377
       135 -11.2570      5.5313    200.1291   1.2980794419e+02   3.1966843695e+01    0.1777191    0.1290534  72.60 0.0002639661    1.085    0.078
       136  -8.9181    149.7091    199.2742   1.0105302450e+02   1.1860830536e+01    0.1301571    0.0976362  68.24 0.0001571395    1.517    0.341
       137 -10.3646    109.4979    197.4736   1.0911767110e+02   1.9203237072e+01    0.3404422    0.2154045  67.95  0.001756303    1.715    0.417
       138  -9.5074    108.3142    194.3213   1.0893836169e+02   2.0030453183e+01     0.217348    0.1267947 -51.05 0.0005833589    1.958    0.489
       139  -9.5798    108.4379    191.4704   1.0851870788e+02   2.0588809202e+01    0.1875561    0.1203902 -51.69 7.879886e-05    1.758    0.431
       140 -10.5529    121.4587    200.3653   1.0703278208e+02   1.6632885832e+01    0.3590263    0.2242699 -83.67  0.001369516    2.202    0.546
       141  -9.6031    223.9577    199.0000   8.6589276184e+01  -1.4874308473e+00     0.203653   0.06597029  42.37 0.0004172659    2.838    0.648
       142 -10.7986    128.2207    197.0156   1.0514694701e+02   1.6113748130e+01    0.2549436    0.1695352  52.11  0.001360249    1.355    0.262
       143  -9.8205     13.4318    197.1942   1.2821871037e+02   3.1816041582e+01    0.1808137    0.1262123  55.41 0.0005648789    1.314    0.239
       144 -10.1361     82.6951    195.5459   1.1445265021e+02   2.3779885568e+01    0.2150056    0.1546632 -72.46 0.0006103236    1.373    0.272
       145 -10.6756     37.7374    194.8980   1.2346003567e+02   2.9757348954e+01     0.324677     0.162269 -65.95  0.001520103    1.912    0.477
       146  -9.3902     44.5233    194.4802   1.2209291336e+02   2.9061561320e+01    0.1199712   0.09300541  78.11 4.089691e-05    1.014    0.013
       147 -10.5214     95.5970    194.9980   1.1169916585e+02   2.1935337422e+01    0.2631657    0.1766324  55.68 0.0005108375    1.320    0.242
       148 -10.8553     52.2531    192.5356   1.2037423341e+02   2.8533866936e+01    0.3247695     0.230451  43.46  0.001186499    1.461    0.316
       149  -9.2712    100.3688    192.4890   1.1037003512e+02   2.1694897488e+01     0.128199    0.1129079  75.67 0.0001092822    1.052    0.050
       150  -9.9216    188.2291    191.1989   9.1899162031e+01   6.1340552734e+00    0.2042239    0.1705237  14.51 0.0006947099    1.202    0.168
       151 -11.5137     91.6376    189.0337   1.1177548981e+02   2.3787061516e+01    0.2776454    0.2126164 -80.25 0.0004526848    1.269    0.212
       152  -9.7352    165.6110    188.2649   9.5933455599e+01   1.0912082714e+01    0.3128841    0.2086706 -77.41 0.0009848775    2.587    0.613
       153  -9.3580    127.3323    189.2905   1.0416537779e+02   1.7784985214e+01    0.1287981    0.1079682   7.06 0.0004247067    1.629    0.386
       154  -9.6676    120.4981    189.4857   1.0565652325e+02   1.8944938592e+01    0.1373142    0.1188039  64.71 -2.286091e-05    1.037    0.035
       155  -9.2238    148.9897    186.9800   9.9181495142e+01   1.4284247081e+01    0.1580254    0.1445776  50.81            0    1.012    0.012
       156 -10.3322    130.7276    185.5741   1.0284979176e+02   1.7920401193e+01    0.3343429    0.2166824 -86.22  0.001527777    2.254    0.556
       157 -10.5888    104.9572    185.9845   1.0849417762e+02   2.2297610991e+01    0.2781039    0.2200112  72.26 0.0009127584    1.190    0.160
       158 -10.0436     85.4225    187.0339   1.1285136199e+02   2.5156610390e+01    0.1996626    0.1710435  42.56 0.0006114785    1.305    0.234
       159  -9.9963     74.7047    185.5806   1.1496983093e+02   2.7032023764e+01    0.2830788      0.14007 -75.76  0.001340601    2.131    0.531
       160 -10.2940     43.7005    185.1085   1.2143170480e+02   3.1133918756e+01    0.3593743    0.1506618 -67.12  0.001371887    2.132    0.531
       161 -10.3838    177.8531    184.1497   9.2675775446e+01   9.3120696282e+00    0.2327999    0.1846205  35.81 0.0004017752    1.159    0.138
       162 -10.3819     33.4696    184.4830   1.2346227334e+02   3.2414102628e+01    0.2065593    0.0972272  42.70 -2.46362e-05    2.003    0.501
       163 -10.9228     15.7489    183.1646   1.2688760244e+02   3.4480830117e+01    0.2325297    0.1789473  84.21 0.0006861011    1.078    0.072
       164  -9.4797      2.6752    183.9014   1.2944541948e+02   3.5495248502e+01    0.1534342    0.1016938  88.25 0.0005604291    1.117    0.105
       165  -9.3526     88.3267    182.7869   1.1167635592e+02   2.5623085069e+01     0.181687    0.1107761 -56.98 0.0009390864    1.720    0.419
       166  -9.3194    213.0071    182.4860   8.5461467052e+01   2.9237729691e+00    0.1867117    0.1054823  21.39 0.0003866279    2.252    0.556
       167 -10.5816     56.2172    181.1739   1.1842607971e+02   3.0464904395e+01    0.2462903    0.1930376  55.11  0.001011634    1.231    0.188
       168  -9.2087    143.5417    181.5341   9.9409634235e+01   1.6363527306e+01    0.1406236    0.1270452  58.45 0.0001813027    1.036    0.035
       169  -9.2857    182.4118    179.8698   9.0939216026e+01   9.1888387560e+00     0.177469    0.1322783 -24.77 0.0004074962    1.519    0.341
       170 -12.6517     32.1531    176.4862   1.2305573916e+02   3.4274066152e+01    0.2827365    0.2166731 -68.00  0.000654904    1.364    0.267
       171 -10.0546      4.0532    178.9283   1.2889085920e+02   3.6410728731e+01    0.1664436    0.1198797  82.47 0.0003781901    1.007    0.007
       172 -10.2686     92.0517    177.5293   1.1013848449e+02   2.6182792634e+01     0.232404    0.1764521 -62.58 0.0005638694    1.344    0.256
       173  -9.9509    108.8223    176.5125   1.0623481626e+02   2.3656774586e+01    0.2306314    0.1785178  58.88 0.0008631843    1.197    0.164
       174 -11.7888     78.7416    174.0391   1.1264353077e+02   2.8968167551e+01    0.4190633    0.2488189  82.22 0.0002851404    1.971    0.493
       175  -9.6619     74.1977    177.1974   1.1406261676e+02   2.8924833047e+01    0.1781683     0.159948  87.13 0.0003955867    1.130    0.115
       176  -9.9895     46.5426    177.1693   1.2007983437e+02   3.2519960685e+01    0.2119044    0.1510286  50.28 0.0007519666    1.366    0.268
       177 -10.0578     23.4799    176.4568   1.2484755799e+02   3.5164066847e+01    0.2665697    0.1165103  66.73  0.001269616    2.286    0.563
       178  -9.6660    136.5743    176.1993   1.0000124597e+02   1.8743363815e+01    0.1915113    0.1337253 -40.30 0.0006404924    1.672    0.402
       179  -9.1924    143.3026    175.6865   9.8431526319e+01   1.7575430923e+01    0.1430991    0.1078284  77.09 0.0003353686    1.614    0.380
       180  -9.7243     17.5044    174.9839   1.2595547102e+02   3.6053424225e+01    0.1542129   0.07125111 -57.12 0.0008081772    2.386    0.581
       181  -9.5209    156.9733    173.5462   9.5063297355e+01   1.5354479290e+01    0.2218236    0.1328346  42.99  0.001017799    1.560    0.359
       182  -9.7273     87.6346    172.2045   1.1038122218e+02   2.8040425212e+01     0.230589    0.1576008 -59.25 0.0007653237    1.480    0.324
       183  -9.8927     63.1127    170.9990   1.1576998951e+02   3.1820103776e+01     0.193118    0.1612734  79.21 0.0004426131    1.029    0.028
       184  -9.6551     42.3380    170.9302   1.2036241962e+02   3.4381718423e+01    0.2781116    0.1846192  -0.11  0.001360309    3.386    0.705
       185  -9.2293      8.5115    177.4918   1.2793070672e+02   3.6330321593e+01    0.1156433   0.08203267  80.91 0.0008101471    1.043    0.041
       186  -9.9031     54.0715    167.6270   1.1740523689e+02   3.3732760753e+01    0.2525359    0.1419217 -54.29  0.001295018    1.929    0.482
       187 -10.2671      2.8658    166.5400   1.2834748713e+02   3.9132140119e+01    0.3555811   0.08633998 -67.59   0.00157629    3.053    0.672
       188  -9.4854     61.2508    166.1989   1.1560548941e+02   3.3145178664e+01    0.1736566    0.1266042  71.09 0.0008974835    1.259    0.206
       189  -8.9424     70.2491    164.6767   1.1333616439e+02   3.2281594406e+01    0.1334385   0.08866715  79.23 0.0002014548    1.536    0.349
       190 -11.3916     24.3312    163.2616   1.2356389638e+02   3.7969964961e+01    0.2411592    0.1855337  65.00 0.0004657466    1.211    0.174
       191 -10.6357     75.5937    161.8540   1.1169592398e+02   3.2170473298e+01    0.2560245    0.2051703 -79.87 0.0005941454    1.125    0.111
       192 -10.6984    140.3916    160.9949   9.6336902728e+01   2.1173649478e+01    0.2752816    0.2034526  45.77  0.000627465    1.294    0.227
       193  -9.3821    126.0763    161.4985   9.9732736846e+01   2.3817888034e+01     0.204688    0.1364077  45.90 0.0003048385    1.439    0.305
       194 -10.9931     37.3746    159.3088   1.2027100959e+02   3.7538205682e+01    0.6067285    0.1859231  50.56  0.002447823    3.360    0.702
       195 -10.7527     30.2867    154.5665   1.2140132058e+02   3.9345472847e+01    0.3407544    0.1941783  55.37  0.001915928    1.717    0.418
       196 -10.4001     46.5418    166.2457   1.1894264365e+02   3.4946742382e+01    0.2841956    0.1611727  49.30 0.0006576496    1.692    0.409
       197  -9.5729     65.9796    158.4444   1.1349545374e+02   3.4292318914e+01    0.1895141    0.1229433  43.12 0.0005673476    1.577    0.366
       198 -10.4093    112.8763    153.8115   1.0143360666e+02   2.7954388626e+01    0.2371138    0.2182277  79.21 0.0007037894    1.013    0.013
       199  -9.4050    207.1960    151.8041   8.0156714140e+01   9.1859501438e+00    0.1929702    0.1591713  10.38 0.0003025771    1.264    0.209
       200  -9.5230      1.4555    152.5224   1.2767765757e+02   4.2284852268e+01    0.1151974   0.08471943 -88.19 2.065898e-05    1.029    0.029
       201  -9.6234     72.5153    151.0400   1.1084631856e+02   3.5111484779e+01    0.1990668    0.1220181 -69.07 0.0004888913    1.508    0.337
       202  -9.3720     45.7611    151.6054   1.1743496998e+02   3.8383017665e+01    0.1558928    0.1072095  55.15 0.0002220808    1.439    0.305
       203  -9.5181      5.8943    148.1274   1.2636258158e+02   4.2925391755e+01    0.1728766     0.115784  79.09            0    1.242    0.195
       204 -10.7308     13.3907    143.2927   1.2422571115e+02   4.3426547993e+01    0.2917683    0.1890861  86.10   0.00184056    1.282    0.220
       205  -9.7774      4.8645    143.1055   1.2618690388e+02   4.4123649534e+01    0.1740614     0.117687  85.87 0.0004514547    1.176    0.150
       206  -8.7102     75.5539    142.4944   1.0872309101e+02   3.6687209727e+01    0.1382229    0.1218385 -81.05 0.0001952708    1.022    0.022
       207 -11.6261     35.4640    139.3795   1.1845243526e+02   4.2334625147e+01    0.2749349    0.2040046  86.63   0.00170516    1.186    0.157
       208  -9.1729     82.3290    139.2702   1.0642377346e+02   3.6443154179e+01    0.1313272    0.1095537 -25.91  0.000232672    1.582    0.368
       209 -10.7510    236.1416    137.7990   7.1715742799e+01   5.6804459737e+00    0.2063969    0.1933317 -44.56 0.0007898195    1.208    0.172
       210  -9.9019     49.7354    136.2806   1.1440348961e+02   4.1523362790e+01    0.2600865    0.1634808 -39.86  0.001321903    2.074    0.518
       211  -9.1768     82.7643    134.6620   1.0547150089e+02   3.7469802243e+01    0.1369619     0.101916 -41.01 0.0002672484    1.544    0.352
       212  -9.4055     77.2275    133.8225   1.0678131442e+02   3.8502389170e+01    0.2493962    0.1375662  72.49 0.0009600447    2.881    0.653
       213 -10.6724      9.1026    132.1074   1.2419268697e+02   4.6300915788e+01    0.3837021    0.1563488 -52.50 0.0009029518    2.496    0.599
       214  -9.6107    248.9921    133.5065   6.8619756923e+01   3.8560356546e+00    0.1904884    0.1090378  24.04 0.0007557587    2.408    0.585
       215  -9.3890    105.0096    132.9733   9.9298013628e+01   3.4166216458e+01    0.2073699    0.1673256  80.99 0.0005262382    1.351    0.260
       216  -9.3058    101.5387    131.9682   9.9995271399e+01   3.5016443536e+01    0.2019171    0.1886989 -69.04 0.0004462917    1.046    0.044
       217 -10.8939     40.2610    131.8449   1.1623943797e+02   4.3615146785e+01    0.2934118     0.261866   0.07 0.0007866236    1.532    0.347
       218 -11.9425     28.1129    131.9819   1.1940371492e+02   4.4770954153e+01    0.3200086    0.2341121  62.71  0.002014595    1.392    0.282
       219  -9.4212     69.6460    131.6593   1.0841422725e+02   4.0101067390e+01    0.2137467    0.1556949 -35.87  0.001106913    1.729    0.422
       220 -10.0079     57.2231    132.0190   1.1178908676e+02   4.1641946480e+01    0.1888721    0.1498736 -74.80 0.0003149745    1.086    0.079
       221  -8.9992     62.0008    131.2402   1.1038766435e+02   4.1223880332e+01    0.1508059    0.1140969  39.87 0.0002075169    1.466    0.318
       222  -9.8141     17.8547    131.1273   1.2191277421e+02   4.5852895792e+01    0.1786696    0.1326712  89.16 0.0002725276    1.130    0.115
       223 -11.0342     20.6468    126.6261   1.2068477554e+02   4.6668915848e+01    0.2534785    0.2081811 -45.77 0.0005968517    1.434    0.303
       224 -10.8618     78.0130    129.3227   1.0573924148e+02   3.9459517530e+01    0.3583423    0.2180703  48.95  0.001408433    1.741    0.425
       225 -10.0564     91.9140    126.3323   1.0138579697e+02   3.7987740839e+01    0.2344553    0.1861402 -71.61  0.000228328    1.224    0.183
       226  -9.5705     30.1634    125.7698   1.1807643559e+02   4.6039878052e+01    0.1631847    0.1243402 -56.16 0.0003629022    1.298    0.230
       227 -11.1951      4.5087    124.1951   1.2456342052e+02   4.8424819141e+01    0.3554506    0.2128575 -46.29  0.000642527    1.899    0.473
       228 -11.8909     19.5560    118.7126   1.2000506356e+02   4.8600379920e+01    0.8698692    0.4048605  53.78  0.004309912    2.523    0.604
       229 -11.3741     19.0503    110.6148   1.1908031070e+02   5.0527671499e+01    0.6076649    0.2780858 -46.59  0.003010699    2.282    0.562
       230 -11.3248     13.1106    109.8204   1.2064823842e+02   5.1146081190e+01    0.2030382    0.1493268 -73.26 0.0003059753    1.049    0.047
       231 -11.4452      9.2701    118.1368   1.2269233591e+02   4.9491896485e+01    0.3498451    0.1873221 -52.81 0.0007173173    1.777    0.437
       232 -10.5932      5.9011    114.9303   1.2323342622e+02   5.0451734308e+01    0.2654888    0.1659225 -42.08 0.0003577536    1.863    0.463
       233 -12.0247      1.3667    115.9709   1.2454731190e+02   5.0496453378e+01    0.1924791   0.08643268 -76.05            0    1.686    0.407
       234 -11.5488      4.9995    110.5374   1.2298415011e+02   5.1514777245e+01    0.4754674    0.2026345 -45.92  0.001849826    2.550    0.608
       235  -9.4344     84.2314    122.8354   1.0275966152e+02   4.0057539865e+01    0.2483726   0.09454391 -48.27 0.0008968274    2.599    0.615
       236  -9.7775     44.9641    123.2804   1.1371513954e+02   4.5148484813e+01    0.1728842     0.151661 -78.83 0.0002846203    1.062    0.059
       237 -11.2470    237.5498    121.4268   6.7679493791e+01   8.0792122020e+00    0.3163634    0.2266813  -2.05  0.001538279    1.692    0.409
       238  -9.2895    123.2207    121.1461   9.1887385071e+01   3.3428874973e+01    0.2002977    0.1717942 -87.41 0.0002942655    1.279    0.218
       239 -10.3112     92.1784    118.9106   9.9720164833e+01   3.9700047127e+01    0.3676674    0.2864732  85.22  0.001171278    1.479    0.324
       240  -9.3498     97.9516    118.9602   9.8136052130e+01   3.8700983236e+01    0.1708423    0.1633048 -81.77 0.0003992499    1.038    0.036
       241 -10.8172     55.2734    118.0713   1.0996107349e+02   4.5214252591e+01    0.2274558    0.1910775  42.07 0.0004334423    1.348    0.258
       242  -9.7582     30.0607    117.4941   1.1696042767e+02   4.7998553540e+01    0.1543037    0.1280467  28.29 0.0004414478    1.508    0.337
       243  -9.4198    108.4951    115.0562   9.4332509689e+01   3.7698379980e+01    0.2227286     0.143108 -51.80 0.0003937771    1.486    0.327
       244 -10.1057     34.4974    115.0192   1.1534780299e+02   4.8173133142e+01    0.2357162    0.1544024  56.65  0.001302079    1.716    0.417
       245  -9.3521     60.6874    114.3330   1.0771448674e+02   4.5437776605e+01    0.1402509   0.09870864  80.20 0.0002773266    1.680    0.405
       246  -9.9001     47.9420    111.5234   1.1089430507e+02   4.7624271984e+01    0.1723211     0.132491  34.58 0.0004753296    1.520    0.342
       247  -9.4973     92.7979    109.5807   9.7399835747e+01   4.1789866596e+01    0.1955348    0.1375546  52.94 0.0004858582    1.565    0.361
       248  -9.8230     36.9673    108.4989   1.1358337990e+02   4.9479521637e+01    0.2508278    0.1453939 -52.23  0.001334628    1.546    0.353
       249  -9.5301     84.9148    108.5228   9.9423963460e+01   4.3340988261e+01    0.2052755    0.1455714  35.99  0.001018345    1.561    0.359
       250 -10.9663     64.2062    106.8323   1.0516199378e+02   4.6768387262e+01    0.3577102    0.2445864  82.76  0.001069145    1.899    0.473
       251 -11.0229     69.2621    123.2247   1.0698310505e+02   4.2172130559e+01    0.2349842    0.2107905 -75.45 0.0002696634    1.024    0.023
       252 -10.5989     47.5330    104.5012   1.0970855487e+02   4.9336816610e+01    0.2560894   0.08917284 -52.96   0.00102813    2.380    0.580
       253 -10.0658     36.1612    103.8524   1.1302400060e+02   5.0653582392e+01      0.19514    0.1685095 -37.03 0.0006898787    1.305    0.234
       254 -10.1713     33.5966    101.4915   1.1338626255e+02   5.1448041841e+01    0.2314307    0.1749302 -86.97 8.533487e-05    1.309    0.236
       255  -9.5167     29.3748    103.7193   1.1503900038e+02   5.1301184453e+01     0.189135   0.09178799 -59.58 0.0008187741    1.627    0.385
       256  -9.5241    100.5504    103.4872   9.3667518328e+01   4.1835284462e+01    0.1493079     0.139511 -56.47 6.268253e-05    1.005    0.005
       257  -9.7627     75.7502    103.3919   1.0093466133e+02   4.5962065911e+01    0.1849015    0.1394271  18.71 0.0007253615    1.671    0.401
       258 -10.3049     53.5306    102.4676   1.0747911184e+02   4.9136062520e+01    0.1356396    0.1159476 -63.39 3.134361e-05    1.001    0.001
       259  -9.3693     43.4952    102.5412   1.1056054220e+02   5.0232207430e+01    0.2501924    0.1179987 -45.76 0.0007265006    2.110    0.526
       260 -11.3146     41.5033     99.1229   1.1051859639e+02   5.1242087450e+01    0.3671785     0.253642   6.90 0.0004015056    2.016    0.504
       261  -9.6276    141.8164    100.8704   8.1851678787e+01   3.3900604035e+01    0.2174171    0.2058687 -11.45 0.0003008436    1.113    0.101
       262 -10.3056      8.9774     99.4254   1.2046659421e+02   5.3815640034e+01    0.2257945    0.1592253  70.10 0.0008945262    1.552    0.356
       263  -9.5430      3.8347     98.0912   1.2180653055e+02   5.4427619028e+01    0.1736055    0.1326765  88.32  0.001189418    1.231    0.187
       264 -10.1143     23.0585     95.9214   1.1566907894e+02   5.3639527580e+01    0.1821862    0.1479558 -71.37 0.0003000202    1.046    0.044
       265 -11.8655     47.4934     94.2305   1.0763961865e+02   5.1756905175e+01    0.4723831    0.2313045  38.67   0.00224661    2.324    0.570
       266  -9.4787     39.1279     95.0964   1.1047646634e+02   5.2422237710e+01    0.1652344    0.1408919  79.97 0.0006268533    1.287    0.223
       267  -9.9172     31.9660     94.4909   1.1262659642e+02   5.3231712318e+01    0.1620105   0.09370553  57.82 0.0006224004    2.284    0.562
       268 -10.4429      1.5246     92.8067   1.2180653032e+02   5.5754357254e+01    0.2909511    0.1117463 -79.30  0.000975321    2.341    0.573
       269 -10.5008      2.7704     87.4773   1.2069027161e+02   5.6892768954e+01    0.2544766    0.1502087 -75.88   0.00106268    1.359    0.264
       270 -10.3570    104.5639     91.5407   8.9279106470e+01   4.3774841062e+01    0.3245746    0.2506932 -69.05  0.001570853    1.499    0.333
       271  -9.7352     17.2972     91.5531   1.1674568917e+02   5.5073658432e+01    0.1396886    0.1134506 -23.94 0.0009293839    1.493    0.330
       272 -10.7174      7.0091     90.1454   1.1975225996e+02   5.6053766879e+01    0.2661152     0.149039 -73.29 0.0009692824    1.411    0.291
       273  -9.4893    117.9114     90.1410   8.5083248240e+01   4.1408888525e+01    0.2060435    0.1803498   7.91 0.0005396262    1.300    0.231
       274 -10.2462     20.1605     81.8642   1.1409912515e+02   5.7083847016e+01    0.2550253    0.1675524  57.55  0.001233583    1.964    0.491
       275 -10.9808     27.1457     87.3976   1.1283723630e+02   5.5282880961e+01    0.4965256    0.3304019 -43.67   0.00278553    1.433    0.302
       276 -11.8330     21.3518     87.8096   1.1480411679e+02   5.5640332434e+01    0.2444766    0.1892046 -42.37  0.000118021    1.298    0.229
       277  -9.1514     97.7747     89.0216   9.0565276568e+01   4.5601664154e+01    0.1934187    0.1162814 -48.30 0.0003643079    1.560    0.359
       278 -10.2960     88.0069     89.0206   9.3528765556e+01   4.7322818020e+01     0.229145    0.2072687 -41.21 0.0007186238    1.042    0.040
       279 -10.4166     67.0555     88.5391   1.0001339715e+02   5.0655142653e+01    0.1863653    0.1389017  35.23 -4.997059e-05    1.513    0.339
       280  -9.9465     10.5772     85.2837   1.1786601125e+02   5.6945123462e+01    0.3310393     0.193197 -88.39  0.001844774    1.824    0.452
       281 -10.2624     14.6465     83.8722   1.1629937818e+02   5.7007779854e+01      0.20263    0.1599701  80.06 0.0005021518    1.408    0.290
       282 -10.9276    155.1172     85.3531   7.4173465626e+01   3.3924570300e+01    0.2698917    0.2373376 -37.01 0.0003236008    1.126    0.112
       283  -9.1870    129.3020     85.7854   8.0705997537e+01   3.9866797299e+01    0.2421202    0.1190733  38.42 0.0008730232    2.326    0.570
       284 -12.0136     50.2975     83.3276   1.0423392924e+02   5.3959097276e+01    0.3645957    0.2744547   0.37 0.0006359399    1.697    0.411
       285 -10.9245     73.3267     81.0940   9.5975279386e+01   5.1429911021e+01     0.452301      0.24049 -36.40  0.001947477    2.051    0.512
       286 -10.2722     43.7293     80.8621   1.0586696750e+02   5.5237171540e+01    0.3397763     0.193034 -40.55  0.001222053    1.714    0.416
       287 -10.4628     55.1477     77.9063   1.0120580731e+02   5.4608549444e+01    0.2071442    0.1726455 -46.87  0.000340939    1.034    0.033
       288 -10.3325     52.5291     75.4794   1.0146445049e+02   5.5463428872e+01    0.2382445    0.1334653  30.48 0.0007176146    2.064    0.516
       289 -10.1466     18.3468     77.2366   1.1382258626e+02   5.8257142454e+01     0.288594    0.1401567 -64.94  0.001027999    1.631    0.387
       290 -10.1778     19.4518     73.3406   1.1264694011e+02   5.9051541408e+01     0.284008    0.1791653 -17.05  0.001161869    2.031    0.508
       291 -10.9978     63.0352     75.5441   9.7853048044e+01   5.4117667555e+01    0.3901295    0.2543365  45.74  0.001774811    1.832    0.454
       292  -9.8994     28.5957     74.9052   1.0974901625e+02   5.7999254183e+01    0.3699836    0.1172732 -46.61  0.001326072    2.683    0.627
       293 -10.3454     69.6090     74.2605   9.5244435644e+01   5.3475371906e+01    0.2336217    0.2019451 -63.47 0.0004562367    1.224    0.183
       294  -9.4082     93.4129     74.5241   8.7563424895e+01   4.9514613838e+01    0.2204978    0.1926011  11.69 7.514555e-05    1.241    0.194
       295  -9.3619     95.1949     71.6012   8.6078598629e+01   4.9790690116e+01    0.2000785    0.1873911  11.41 0.0003768972    1.102    0.093
       296  -9.2865    169.1781     72.5708   6.7252815574e+01   3.2806252276e+01    0.2128241    0.1462766  45.61  0.000370888    1.493    0.330
       297 -11.2563     88.7251     70.9428   8.7910445714e+01   5.1097787446e+01    0.4600661    0.2282504 -53.80 0.0005898197    2.237    0.553
       298 -11.0230     42.0842     71.0077   1.0397958131e+02   5.7609561224e+01     0.238738    0.1926384 -35.08            0    1.175    0.149
       299 -10.4955     45.0000     69.0166   1.0239200372e+02   5.7737118876e+01    0.3170622    0.1488714 -43.46 0.0008745837    1.885    0.469
       300  -9.7402    204.9389     69.5419   5.9772899330e+01   2.4273007990e+01    0.2208882    0.1901783 -40.66 0.0001079886    1.115    0.103
       301 -10.9148     79.7002     69.9827   9.0548873739e+01   5.2828556484e+01    0.2258193    0.2141655   0.32 0.0003054953    1.102    0.093
       302 -11.0033     52.5558     69.6842   9.9855465252e+01   5.6730831169e+01    0.2422228    0.2113773 -57.99 0.0007024598    1.145    0.127
       303 -11.0575     56.1412     66.2110   9.7552375359e+01   5.7034701746e+01    0.3788514    0.2666635 -82.91  0.001862837    2.229    0.551
       304 -10.2338     30.0685     70.0550   1.0809297950e+02   5.8952942039e+01    0.1859743    0.1467489 -51.47 0.0002894687    1.022    0.022
       305 -11.5510      1.4100     68.5261   1.1812645461e+02   6.1177873559e+01     0.978434   0.09172828 -68.55  0.002521166    7.529    0.867
       306 -10.2669     15.3856     65.5126   1.1244593849e+02   6.1053881904e+01      0.34238    0.2129722  47.14  0.002005607    2.158    0.537
       307 -11.4421     19.9266     41.0292   1.0412405228e+02   6.5852064797e+01    0.6323682    0.3683763 -70.01  0.003382633    2.222    0.550
       308 -11.7787      7.3249     51.0732   1.1224845473e+02   6.4620960323e+01    0.4161079    0.3378413 -33.71  0.001890294    1.210    0.173
       309 -11.6380      5.9212     39.1953   1.0974309145e+02   6.7125579770e+01    0.4884925    0.4035668 -33.43  0.003672887    1.163    0.140
       310 -10.5552      4.0382     32.9364   1.0877106943e+02   6.8460078276e+01    0.3716066    0.1538981 -31.15  0.001686351    2.399    0.583
       311 -11.8245     16.8841     47.7780   1.0743993403e+02   6.4713670565e+01    0.5983055    0.2674988 -39.70  0.002045884    1.929    0.482
       312 -10.7203      9.8263     62.4046   1.1384987899e+02   6.2070055509e+01    0.3191926    0.1933816 -62.68   0.00126021    1.286    0.223
       313 -11.6449      5.3713     58.4735   1.1470397971e+02   6.3159136312e+01    0.4196793     0.301272 -79.08  0.001735373    1.423    0.297
       314 -12.7882     12.4066     44.0500   1.0828521086e+02   6.5768724886e+01    0.3229797    0.1820442 -49.80 0.0005676158    1.321    0.243
       315 -12.7817     13.5372     36.5656   1.0554489353e+02   6.7183498986e+01    0.3660796    0.2356796 -58.40  0.001313544    1.409    0.290
       316  -9.5030     64.0657     69.5033   9.5731438575e+01   5.5284638262e+01     0.187124     0.136399  29.34 0.0005690503    1.542    0.351
       317 -10.4286    105.8283     67.0458   8.1345636196e+01   4.8634644388e+01    0.2407329    0.2099437  37.64 0.0004271094    1.186    0.157
       318 -13.2102     24.1081     57.8212   1.0725551960e+02   6.2088302324e+01    0.4721935    0.2470015 -50.49 0.0005898755    1.471    0.320
       319  -9.7420     28.8055     53.1644   1.0409513979e+02   6.2678824659e+01    0.1753592    0.1506702 -58.20 0.0007475084    1.202    0.168
       320 -10.5883     31.1842     64.5516   1.0630464479e+02   6.0059320062e+01    0.2709896    0.2576832  66.02   0.00190453    1.313    0.238
       321 -10.4994     31.9572     58.8890   1.0448503740e+02   6.1202924554e+01    0.2586412    0.2056599  44.34  0.001652079    1.614    0.380
       322  -9.7745     75.5476     66.1632   9.0724201163e+01   5.4285861982e+01    0.2159507    0.1897352  44.21 0.0006510157    1.302    0.232
       323 -10.2430     98.3216     60.9474   8.1546630237e+01   5.1298294531e+01    0.2026509    0.1771219 -26.98 0.0003242959    1.077    0.071
       324  -9.7958     73.5016     61.4284   8.9870791578e+01   5.5570026490e+01    0.2221089    0.1798139 -10.69 0.0007531118    1.306    0.234
       325 -10.4879     69.4736     60.1181   9.0842976685e+01   5.6450877116e+01    0.3934466    0.2161849  40.56  0.001629021    2.038    0.509
       326  -9.8153     16.6158     60.5916   1.1085806247e+02   6.2039031674e+01    0.2163539    0.1279399 -83.37  0.001038895    2.228    0.551
       327  -9.5899     38.7891     60.6047   1.0234263624e+02   6.0190461482e+01    0.1566666    0.1176248  39.82 0.0004376134    1.645    0.392
       328  -9.8654    132.8360     59.1223   7.1246147576e+01   4.4133542214e+01    0.2145647    0.2007518 -53.03 0.0002724612    1.128    0.113
       329  -9.1651    238.4500     58.5715   5.2089656138e+01   1.7876768386e+01    0.1400597    0.1268016 -52.84 9.632873e-05    1.014    0.014
       330  -9.9010    209.9064     57.4748   5.5676237450e+01   2.4925421046e+01    0.2097833    0.1892789 -49.26 0.0003773614    1.053    0.051
       331  -9.5236     45.1069     58.3876   9.9269554253e+01   5.9988422439e+01    0.1634094    0.1173475  43.01 0.0009325589    1.745    0.427
       332 -10.0287    118.0275     56.2650   7.4149277047e+01   4.8033416767e+01    0.3213088    0.1929505  -7.72  0.001187153    2.774    0.640
       333 -10.2106    151.2438     53.2901   6.4982744218e+01   4.0596908216e+01    0.2440027     0.215858  28.56 0.0003284099    1.179    0.152
       334  -9.2738     72.6985     54.6642   8.7825099092e+01   5.7026415013e+01    0.1424971   0.09936064 -14.34 0.0004819487    1.661    0.398
       335 -11.8737     43.3831     50.5100   9.7425299072e+01   6.1783923910e+01    0.7760948    0.3724938 -21.19  0.002938187    3.794    0.736
       336 -10.2899     60.6285     52.0652   9.1297505344e+01   5.9321988182e+01    0.2262593     0.186304  10.30  0.001356631    1.286    0.222
       337 -10.3185     53.3180     56.0639   9.5408046004e+01   5.9495227181e+01    0.3288828    0.2238537 -78.66  0.001557454    2.587    0.614
       338 -10.8300     65.5778     49.5329   8.8553418226e+01   5.9094604282e+01    0.2539391    0.1953602 -22.93  0.000619886    1.218    0.179
       339 -10.4318    114.7587     47.1558   7.1776976841e+01   5.0295745589e+01    0.2963714    0.1934961 -27.59 0.0007727945    1.553    0.356
       340  -9.5786     31.4709     47.9660   1.0142592823e+02   6.3501990739e+01    0.1728743    0.1008193 -50.24  -2.5796e-05    1.399    0.285
       341  -8.9745    215.7051     47.7315   5.2211357888e+01   2.4910986510e+01    0.1369562    0.1110093  30.80 0.0003030282    1.514    0.340
       342 -11.0802     62.0045     44.9722   8.8200129275e+01   6.0467173664e+01    0.3565853    0.2043596 -38.07 0.0006965312    1.547    0.354
       343  -8.9490    165.2864     46.2895   5.9847534462e+01   3.8080356824e+01    0.1502276    0.1145853  26.65 0.0001948814    1.536    0.349
       344 -11.2364     94.3111     49.7595   7.8784873496e+01   5.4119307369e+01    0.4800265    0.3203902 -17.36  0.001080374    1.704    0.413
       345  -9.8683    199.8868     43.7794   5.3326300199e+01   2.9467803301e+01    0.2117428    0.1942135  41.68 0.0003478555    1.197    0.165
       346  -9.2196    192.5005     44.4845   5.4634870241e+01   3.1270729716e+01    0.1473942    0.1408825 -81.20 0.0003821956    1.009    0.009
       347 -10.3391     40.9512     37.6642   9.3868687580e+01   6.4521285068e+01    0.5477761    0.2845072 -35.13  0.001514959    1.703    0.413
       348  -9.7012     33.0421     43.5569   9.9325092375e+01   6.4227885859e+01    0.3143137    0.1847207 -23.14 0.0005587109    1.854    0.461
       349  -9.4444     29.7062     42.7324   1.0046060999e+02   6.4701795254e+01     0.145328   0.09791113  19.87 0.0002011417    1.707    0.414
       350 -11.8256    103.5344     39.1784   7.1943894249e+01   5.3988740554e+01    0.3386979    0.2308602 -28.94 0.0004160455    1.439    0.305
       351 -10.2227     33.0508     54.5066   1.0279392831e+02   6.2020964110e+01    0.1667399    0.1226615  19.33 0.0009678741    1.588    0.370
       352  -9.1617    141.5407     42.4479   6.3442652291e+01   4.4688629950e+01    0.1478519    0.1418411  34.25 9.711135e-05    1.010    0.010
       353  -9.7696     70.2848     41.8626   8.3927237200e+01   5.9760430266e+01    0.1934248    0.1523346 -27.36   0.00111705    1.131    0.116
       354  -9.3829    151.9923     40.9659   6.0712416369e+01   4.2270086987e+01    0.1859619    0.1650628 -27.66 0.0007148957    1.160    0.138
       355 -10.2023     90.9560     39.4310   7.5887557826e+01   5.6499389142e+01    0.4540187    0.1924606 -36.43  0.001849373    2.262    0.558
       356 -10.1313     82.1591     39.0877   7.8647405363e+01   5.8203153255e+01    0.2257972    0.1778084 -26.72 0.0004738603    1.176    0.150
       357 -10.2009     85.9804     37.1158   7.6577096207e+01   5.7816427581e+01    0.2531628    0.1951094  -8.43 0.0005312676    1.296    0.228
       358 -10.0897    118.1502     38.8668   6.7784949199e+01   5.0815109531e+01      0.29132    0.1824518  55.97 0.0009274586    1.643    0.391
       359 -10.8982     70.7423     36.5616   8.1642398168e+01   6.0587383968e+01    0.3485894    0.2343435 -43.58  0.001655111    1.541    0.351
       360 -11.3040     75.8783     33.4066   7.8499114174e+01   6.0228266714e+01    0.3474859    0.2642455   2.73  0.001348738    1.333    0.250
       361  -9.7090    156.1391     36.8814   5.8521793442e+01   4.1776703418e+01    0.2154084     0.195719 -78.29 0.0003724827    1.168    0.144
       362 -10.2077    208.9298     35.9195   4.9893595852e+01   2.8234408042e+01    0.3247172    0.1590067  41.12   0.00123048    2.806    0.644
       363 -12.1884    193.9436     35.2190   5.1725670110e+01   3.2164847857e+01     0.274697    0.2569226 -76.20 0.0003445953    1.014    0.014
       364  -9.0374    142.3633     36.2563   6.1101096596e+01   4.5362393153e+01    0.1552408    0.1048191  33.31   0.00034749    1.627    0.386
       365 -11.0471    142.4561     31.1271   5.9276538824e+01   4.6022712044e+01    0.4184214    0.2562971 -28.01 0.0007808396    1.692    0.409
       366 -10.0996    131.2088     36.2844   6.3601615419e+01   4.8107087425e+01    0.3581312    0.1828351  55.18 0.0008389363    1.878    0.468
       367  -9.1511    175.3622     35.6798   5.4711548532e+01   3.6943638055e+01    0.1600725    0.1081456 -68.11 0.0007041839    1.774    0.436
       368  -9.2901     55.5543     29.4938   8.4508715121e+01   6.4076328916e+01    0.2094027     0.110302 -35.99 0.0007277607    1.685    0.407
       369 -10.9687     59.8888     33.6366   8.4534959255e+01   6.2764570940e+01    0.4196277    0.2544696  -1.77  0.001999493    2.266    0.559
       370 -10.7386     54.9937     33.4443   8.6393055714e+01   6.3499235795e+01    0.2313675    0.1789484 -30.96 0.0002079582    1.136    0.120
       371  -9.7957     47.6515     34.5904   8.9859498578e+01   6.4275354551e+01    0.1823239      0.12264 -14.35  0.001024544    1.540    0.351
       372 -10.3804    119.0825     33.8011   6.5628452327e+01   5.1325877592e+01    0.3412609    0.2346809  87.96  0.000945085    2.336    0.572
       373  -9.9445    160.5755    248.7807   1.0592191532e+02   2.1046535598e+00    0.1394172    0.1131289 -75.26 0.0009540074    1.699    0.411
       374  -9.9525     87.0809     33.1373   7.4593506916e+01   5.8222357606e+01    0.2378408    0.1847649  45.78  0.001108479    1.375    0.273
       375  -9.4831    233.1186     32.1379   4.6086439706e+01   2.2777054012e+01    0.1903304    0.1425387 -66.16 0.0003569056    1.265    0.210
       376 -10.4149    158.9528     30.3120   5.5811475507e+01   4.1913053380e+01    0.2539366    0.2122646 -11.87  0.000570071    1.315    0.240
       377 -10.1106     33.3917     29.9470   9.4161969066e+01   6.6732888108e+01    0.3163535    0.1813453 -61.94  0.001533676    2.759    0.638
       378 -10.0701     24.3330     30.9105   9.8654974751e+01   6.7424620282e+01     0.170453    0.1559039  -8.67 0.0006944681    1.263    0.209
       379 -10.5102    211.0853     29.1701   4.7788174787e+01   2.8560772498e+01    0.3910306    0.2038964  31.87  0.001306621    3.482    0.713
       380 -10.1753    137.4674    248.4843   1.0999985932e+02   5.8011286250e+00    0.2091062    0.1277927  48.97 0.0007034219    1.293    0.227
       381  -9.9276     10.4209     22.4929   1.0214900552e+02   7.0036585028e+01    0.2430971    0.1271791  17.75 0.0008157944    2.198    0.545
       382 -10.1673     19.4216     29.4829   1.0040533279e+02   6.8097773129e+01     0.204231    0.1364211 -45.17 0.0001380106    1.210    0.173
       383 -10.7467    140.0000    247.0045   1.0938035155e+02   5.6224072884e+00    0.1809622     0.122317  65.15 0.0005454387    1.612    0.380
       384 -10.3678    221.3460     28.6783   4.6476039823e+01   2.6067758095e+01     0.238814     0.143399 -62.70  0.001117712    1.745    0.427
       385 -10.2653    181.4501     28.2582   5.1478498565e+01   3.6304710233e+01    0.2545211     0.147331 -21.92   0.00100009    1.945    0.486
       386 -10.6797     70.5111     28.8938   7.8510108059e+01   6.1844246343e+01    0.2554667    0.1894364  44.16  0.001463405    1.522    0.343
       387 -11.5389     49.1117     27.1101   8.6130595259e+01   6.5353082558e+01    0.2818891    0.2516174  67.28 0.0009962727    1.802    0.445
       388 -10.0964     45.6550     24.3390   8.6387064974e+01   6.6253973407e+01    0.1945186     0.145475  40.27 0.0008862356    1.684    0.406
       389 -10.6343    165.4226     26.5965   5.3474524732e+01   4.0693112086e+01    0.3554946    0.2203456 -84.22  0.001507859    2.135    0.532
       390  -9.4466    100.0178     26.9994   6.8089462904e+01   5.6483097268e+01    0.1684345    0.1513592  15.53 0.0004984636    1.011    0.011
       391  -9.6043     23.4555     26.9931   9.7561883042e+01   6.8211869980e+01    0.1723676   0.09475531 -46.07 0.0003376013    1.488    0.328
       392 -10.1949    204.6315     25.9542   4.7689112530e+01   3.0594377903e+01    0.2677572    0.1411197 -17.21  0.001100412    2.447    0.591
       393  -9.9232     38.7700     26.4180   9.0302704364e+01   6.6753784804e+01    0.1644262    0.1065554  10.36 0.0009528276    1.691    0.408
       394 -10.5367    249.1490    246.4733   9.0321996422e+01  -1.1069821734e+01    0.1738725    0.1308324  -4.32 0.0003267845    1.246    0.198
       395  -9.2972    210.5079    246.5185   9.6827999520e+01  -5.4518066304e+00    0.1731837   0.09247915  45.39 0.0007493061    1.762    0.432
       396 -10.9827    170.1045     23.3897   5.1693547258e+01   3.9854500493e+01    0.3376782    0.2131625 -57.40 0.0009820907    1.813    0.448
       397 -12.1233    116.9373     22.5111   6.1787591527e+01   5.3285133752e+01    0.2601825    0.2199316 -14.57 -5.006439e-05    1.200    0.167
       398 -11.4813    176.3371     21.9177   5.0291237612e+01   3.8398665712e+01    0.4316367    0.2566178  37.47  0.001483713    2.011    0.503
       399 -10.4360    207.1355    245.8607   9.7316170043e+01  -4.8574705684e+00     0.185439    0.1580787  -0.81 0.0008918325    1.252    0.201
       400 -10.2958    153.7664     22.9725   5.4276808922e+01   4.4143227631e+01    0.2228283    0.1846616  32.76 0.0005020209    1.259    0.206
       401 -10.0705     62.4621     22.9765   7.8913677084e+01   6.4042692295e+01    0.2458248    0.1598123  19.50  0.001168604    1.616    0.381
       402 -10.9933     27.0889     21.2939   9.3492683892e+01   6.8864057899e+01    0.3217543     0.176805 -20.98  0.001365948    1.886    0.470
       403 -10.5414    226.6698     21.9742   4.4196705263e+01   2.5591117823e+01    0.1929208    0.1658682 -49.62 0.0005999191    1.109    0.098
       404 -10.3949    132.3765     21.8712   5.8036618564e+01   4.9664529689e+01    0.2429617    0.1975864  76.82 0.0009309892    1.349    0.259
       405  -9.6943     40.7118     21.6971   8.7373691677e+01   6.7297171142e+01    0.1914668    0.1391389  19.24 0.0005548585    1.411    0.291
       406 -10.3438     36.6924     21.4240   8.9063108313e+01   6.7818137538e+01     0.279709    0.1679063  12.67  0.000918917    1.873    0.466
       407 -10.9526    219.6175     20.1983   4.4461918079e+01   2.7526274828e+01    0.2392957    0.1832482 -21.59  0.001310255    1.483    0.326
       408  -9.0770     89.7875     20.1723   6.8231668825e+01   5.9481902544e+01    0.2733941    0.1394257 -39.75  0.001240615    2.185    0.542
       409 -10.1836    190.0659     20.2957   4.7914041280e+01   3.5011577813e+01    0.2087016    0.1824772  53.63 0.0002775331    1.183    0.155
       410 -10.3047    192.8534     17.1883   4.6663755144e+01   3.4642926729e+01    0.2132193    0.1905458  89.49  0.000407508    1.028    0.027
       411 -10.6268    199.0529     18.3411   4.6241953492e+01   3.2918758043e+01    0.2804254     0.209132  -3.59  0.001442869    1.725    0.420
       412  -9.6187     77.9115    248.0586   1.2036763270e+02   1.4678261650e+01    0.2224848    0.1256674 -85.28 0.0009373149    1.939    0.484
       413  -9.5009    101.7150     19.0613   6.4308114249e+01   5.7119632311e+01    0.1815898    0.1578365   2.09 0.0003239279    1.091    0.084
       414  -9.6926     65.4681     19.0696   7.5983176596e+01   6.4108450432e+01    0.1836367    0.1132508 -26.09 0.0003432265    1.493    0.330
       415  -9.7241     46.0623    245.5617   1.2549986969e+02   1.9188619599e+01    0.2280511   0.09930399  80.10 0.0006911133    2.453    0.592
       416 -10.2445     60.4844     18.1904   7.7476151039e+01   6.5039093683e+01    0.3267638    0.1543836  35.27  0.001573378    2.155    0.536
       417 -10.0367     46.3076     17.9001   8.3165893337e+01   6.7162703580e+01    0.2320708    0.1965653  69.49  0.001427584    2.185    0.542
       418  -9.2633    157.5392     17.4629   5.1776887991e+01   4.3788987133e+01    0.1414074    0.1322002  71.23 0.0001034789    1.023    0.023
       419 -10.3382    229.9909     16.3050   4.2460458597e+01   2.5458829463e+01    0.1858119     0.156682 -76.57 0.0003912431    1.056    0.053
       420 -10.2684    106.0602    244.3655   1.1515251559e+02   1.1263251331e+01     0.181358    0.1336821  70.25 0.0006691871    1.253    0.202
       421  -9.2070    112.5036     15.5075   6.0062783162e+01   5.5111117003e+01    0.2160201    0.1115375  46.29 0.0009418554    1.755    0.430
       422 -10.1453     23.2471     16.3174   9.3172918741e+01   7.0059608976e+01    0.2238248    0.1176943 -42.62  0.001012568    1.592    0.372
       423 -10.1680     97.2995    245.1756   1.1677404520e+02   1.2422134011e+01    0.1496425     0.142158 -78.01 0.0006864748    1.428    0.300
       424 -10.5622     73.4429    244.4662   1.2084906575e+02   1.5885714479e+01    0.2101952    0.1428674  60.28 0.0006991164    1.096    0.088
       425 -11.5963     76.2956    241.7134   1.2014036211e+02   1.5967797985e+01     0.310635    0.1823236  63.23 0.0007402108    1.408    0.290
       426 -10.7869    145.9223    242.8150   1.0782192400e+02   5.3036400260e+00    0.1744243    0.1622586  53.31 0.0004415266    1.185    0.156
       427 -10.8323     91.7559    242.3096   1.1748887854e+02   1.3699449744e+01    0.2250679    0.1536904  59.86 0.0004377651    1.148    0.129
       428  -9.7891     62.1644    242.8432   1.2264616503e+02   1.7649573717e+01    0.1786866    0.1162519  78.64 0.0006310201    1.332    0.249
       429 -10.0540     63.9914    238.8725   1.2204477623e+02   1.8101479871e+01    0.2174281    0.1233923  45.91  0.001387189    1.487    0.327
       430 -10.9637    147.3241     13.3086   5.2082800464e+01   4.6848199674e+01    0.2231247    0.1850533  39.16 0.0005856025    1.188    0.158
       431 -11.0477    248.2383    240.9056   8.9593469499e+01  -1.0372184601e+01     0.265768    0.2256164  58.49  0.001064304    2.126    0.530
       432 -10.5298    110.4403    241.6032   1.1409688401e+02   1.1054008232e+01     0.229481    0.1523344  60.53 0.0008367961    1.300    0.231
       433  -9.8710     55.2929    241.8558   1.2373506363e+02   1.8693942450e+01    0.1868422   0.08386154 -84.13  0.001003991    2.382    0.580
       434 -10.5479     31.8080     13.0475   8.7457787650e+01   6.9685471198e+01    0.2298357    0.1649348  17.93  0.001065659    1.414    0.293
       435 -12.1551     11.2057    226.4771   1.3014857173e+02   2.6413213789e+01     1.447902    0.2432591  60.00  0.004772054    6.691    0.851
       436 -10.1085    197.7073    240.5743   9.8200778985e+01  -2.7337609142e+00    0.2193027    0.1347419  42.72 0.0005174557    1.392    0.282
       437 -11.1509    179.6628     13.8392   4.7359219506e+01   3.8426706882e+01    0.2949722    0.1884802  61.64 0.0008690357    1.440    0.306
       438  -9.0211    199.5179    237.5497   9.7434052767e+01  -2.6367692276e+00    0.2057723    0.1460246  -9.39 0.0005179263    1.686    0.407
       439 -10.5681    134.1688    240.7959   1.0971696643e+02   7.4896117691e+00    0.1509556    0.1270546  30.36 0.0003832644    1.318    0.241
       440 -11.5346    115.8173    249.5225   1.1393865950e+02   8.9790442918e+00    0.4310276    0.2116404  51.70  0.002444473    1.639    0.390
       441 -10.5602    119.4053    240.8316   1.1240050240e+02   9.8041142223e+00    0.2049623    0.1235933  50.06 0.0002454698    1.311    0.237
       442  -9.4254     55.5209     11.5132   7.6223188925e+01   6.6713192193e+01    0.1248202    0.1020525  -2.61 1.240059e-05    1.020    0.020
       443  -9.0533    120.2812    237.6791   1.1189904810e+02   1.0178634187e+01    0.1421638   0.09885352 -63.51 0.0004496591    1.714    0.417
       444 -10.5126     96.5459    239.1086   1.1634331301e+02   1.3542801948e+01    0.3424462    0.1721143  60.29   0.00182257    1.871    0.465
       445 -10.0204     93.8068    234.4169   1.1639046500e+02   1.4748123607e+01    0.1917578    0.1460169 -80.99 0.0005232651    1.391    0.281
       446  -9.4760    105.9979    235.2636   1.1425405519e+02   1.2783423945e+01    0.2203753    0.1168964  43.79 0.0006788619    1.554    0.356
       447 -10.0243    100.5021    237.4866   1.1547585299e+02   1.3232714777e+01     0.153155    0.1462158   1.54  0.001130853    1.564    0.361
       448  -9.2461    102.6672    234.2104   1.1475558405e+02   1.3466819551e+01     0.201959     0.138684 -62.90  0.001200314    1.696    0.410
       449 -10.0003    167.8450    238.3165   1.0325891822e+02   2.4021094564e+00    0.1767871    0.1631787  82.83 0.0006869998    1.354    0.261
       450 -10.3918     33.6097    239.9199   1.2719732491e+02   2.1620206358e+01    0.1680581    0.1264002  54.42  0.001315855    1.306    0.234
       451  -9.5798    220.5290    238.4943   9.3889704459e+01  -6.0414739957e+00    0.1186642   0.09159652  22.84 7.458393e-05    1.002    0.002
       452 -10.8945    144.3137    238.0339   1.0753232735e+02   6.2866541050e+00    0.2896137    0.1471628  39.79 0.0007884991    1.639    0.390
       453  -9.6649     84.1197    238.0856   1.1846398557e+02   1.5505886569e+01    0.1942765    0.1038408  63.09 0.0008616156    1.698    0.411
       454  -9.6820     46.6183    238.4832   1.2496659936e+02   2.0350862440e+01    0.1566754    0.1061509  71.37 0.0002447712    1.105    0.095
       455  -9.6620     44.0000    235.9944   1.2524709630e+02   2.1105846935e+01    0.1926447    0.1284302  85.54  0.001389697    1.274    0.215
       456 -10.6062    187.1133    235.8243   9.9407082034e+01  -4.0534819618e-01    0.1773553    0.1464371  46.81  0.000604492    1.235    0.190
       457  -9.7298    156.6774    233.4683   1.0466383096e+02   4.9558995352e+00    0.1738279    0.1161674 -50.75  0.000728994    1.854    0.461
       458  -9.7143    230.1190    233.1905   9.1401354336e+01  -6.8799849021e+00     0.181311     0.126506  16.45 0.0004109735    1.228    0.186
       459  -9.9524    190.6623    238.2956   9.9125968137e+01  -1.3112082097e+00    0.1144043   0.08591288  58.50 0.0002351369    1.652    0.395
       460  -9.7380    173.4693    233.4962   1.0156346677e+02   2.1653573614e+00    0.1239948   0.09988809  34.49 5.832682e-05    1.046    0.044
       461  -9.1700     75.0000    231.9795   1.1956222317e+02   1.7848816376e+01    0.2870059    0.1518483  70.33  0.001171642    1.897    0.473
       462 -11.0028     72.8749    226.2413   1.1945263794e+02   1.9180610895e+01    0.3586812    0.1540841  55.42  0.001526106    1.991    0.498
       463 -10.2850    144.1387    232.3692   1.0685530339e+02   7.1978691454e+00    0.4229988    0.1143479  43.21  0.001640416    2.958    0.662
       464 -11.7350     47.5612    231.1615   1.2432431664e+02   2.1546752940e+01    0.3350538    0.1591123  70.06  0.001920019    1.938    0.484
       465  -9.9034     41.6621    231.7307   1.2537099865e+02   2.2148943825e+01    0.1527004   0.09346874 -80.15 0.0002863499    1.535    0.348
       466  -9.9286     39.5217    229.4881   1.2559298415e+02   2.2807869035e+01    0.1816224    0.1226353  74.02 0.0005553193    1.114    0.102
       467 -10.8036     29.5911    231.0907   1.2736271885e+02   2.3643790483e+01    0.2246324    0.1416453 -84.26  0.001077497    1.417    0.294
       468 -10.1816    243.8598    231.1891   8.8745246378e+01  -8.6963109643e+00    0.1605299     0.137573  16.07 0.0004831599    1.251    0.201
       469  -9.2871     23.5238    231.4764   1.2838599762e+02   2.4234414777e+01    0.1065536   0.07534061  71.93 0.0005406101    1.035    0.033
       470 -11.9551     24.7738    249.3045   1.2907913606e+02   2.0988987669e+01    0.5204176    0.3161538  62.12  0.003903443    1.142    0.124
       471 -10.6186    153.2547    227.0991   1.0444737580e+02   6.5138799177e+00    0.3454168      0.18835 -47.23  0.001375182    2.228    0.551
       472 -10.2838    149.5169    225.8322   1.0498397614e+02   7.3451801632e+00    0.2443407    0.1747903 -76.86  0.001412527    1.944    0.486
       473  -9.6237    112.5058    223.9680   1.1181116287e+02   1.3733110762e+01    0.1977159    0.1819292  22.65 0.0004907112    1.422    0.297
       474  -9.7531     89.0144     13.7753   6.5641184997e+01   6.0403204654e+01    0.1821977     0.149401  31.55 0.0002066844    1.110    0.099
