#   1 NUMBER                 Running object number                                     
#   2 MAG_AUTO               Kron-like elliptical aperture magnitude                    [mag]
#   3 X_IMAGE                Object position along x                                    [pixel]
#   4 Y_IMAGE                Object position along y                                    [pixel]
#   5 X_WORLD                Barycenter position along world x axis                     [deg]
#   6 Y_WORLD                Barycenter position along world y axis                     [deg]
#   7 A_WORLD                Profile RMS along major axis (world units)                 [deg]
#   8 B_WORLD                Profile RMS along minor axis (world units)                 [deg]
#   9 THETA_WORLD            Position angle (CCW/world-x)                               [deg]
#  10 FWHM_WORLD             FWHM assuming a gaussian core                              [deg]
#  11 ELONGATION             A_IMAGE/B_IMAGE                                           
#  12 ELLIPTICITY            1 - B_IMAGE/A_IMAGE                                       
         1 -14.2547      2.4459    173.9504   1.1478673034e+02   3.6939124538e+01     7.567817    0.5912454 -75.58   0.01982667    7.080    0.859
         2 -13.0212    227.9928     35.5139   3.0021208068e+01   2.5292532530e+01     1.108531    0.8001046  46.27  0.006811185    1.798    0.444
         3 -13.9508     31.4098    187.9620   1.0847216955e+02   3.1232935886e+01      4.39421     1.632667  68.39   0.01482542    4.328    0.769
         4 -11.8950      2.4243     26.4130   9.2187990101e+01   7.2149780850e+01     1.687493          nan -49.34  0.005158856    5.214    0.808
         5 -10.7032    250.0463     14.4147   2.4037847990e+01   2.3364532359e+01    0.4507408    0.1846813 -32.14  0.001893576    2.197    0.545
         6 -11.3311      2.3548     15.0261   8.7418798420e+01   7.4300766971e+01    0.8644935    0.2026447 -52.96   0.00339998    3.611    0.723
         7 -11.5144      1.9288      3.4208   8.1650324276e+01   7.6310842163e+01    0.5774353    0.4641107 -70.36  0.003716721    2.295    0.564
         8 -12.6895     29.1335    249.1477   1.1298896635e+02   1.8685012492e+01     2.266829    0.8526882  17.75  0.008694605    4.946    0.798
         9 -10.1570     82.6859    215.3670   9.8635426444e+01   1.9178368585e+01    0.4512168    0.2744767  85.94 0.0009330232    2.318    0.569
        10 -13.6358    107.2236    230.5956   9.4765685255e+01   1.2881268375e+01     3.640567    0.8121458  31.49   0.01187129    3.978    0.749
        11  -9.5792     59.7870    226.8356   1.0503001176e+02   1.9682946465e+01    0.2269017    0.1475353  72.14  0.000981492    1.654    0.395
        12 -13.0085     87.6022    225.4334   9.8606014882e+01   1.6502392616e+01     2.173146     0.404642  43.64   0.00643297    5.001    0.800
        13 -12.2763     66.7251    239.7137   1.0459621910e+02   1.6353004470e+01     1.217437    0.5826828  46.72  0.006417044    1.782    0.439
        14 -10.4423     47.2587    218.9867   1.0720539516e+02   2.2716764007e+01    0.4904895    0.2512428  53.49  0.002547467    1.807    0.446
        15 -10.5205     42.0107    216.0045   1.0816705050e+02   2.3912690231e+01    0.3224652    0.2171332  68.76 0.0006264169    1.422    0.297
        16 -12.2233      7.3037    249.5881   1.1721713603e+02   2.0651717898e+01     1.937573    0.7606658  26.48   0.01045726    2.521    0.603
        17 -13.2561     11.4013    205.1046   1.1440285103e+02   2.9189587094e+01     1.046087    0.7011298 -34.25  0.006127891    2.188    0.543
        18 -13.2951     22.7573    195.1966   1.1115251757e+02   3.0389155641e+01     1.465464    0.8150302  55.24  0.004332664    1.641    0.391
        19  -8.7513    192.4700    193.4584   7.0375704672e+01   6.8630340021e+00    0.2247702    0.1230573 -49.52   0.00103683    2.339    0.572
        20  -8.3756     99.4094    180.8433   8.9828453035e+01   2.4324054461e+01    0.1894698    0.1307031 -44.52  0.000628502    1.553    0.356
        21 -11.2573     46.8155    176.7155   1.0337475455e+02   3.2298119720e+01    0.4583394    0.3260212 -48.08  0.001344664    1.548    0.354
        22 -10.9614     53.8610    170.6903   1.0074415119e+02   3.2956666639e+01    0.3363847     0.267456 -32.82 0.0005375718    1.490    0.329
        23  -9.8441    101.9641    172.0708   8.7708245751e+01   2.5936093972e+01    0.4244637    0.1819662  44.66   0.00159409    2.409    0.585
        24  -8.2021    110.8111    167.7857   8.4586024898e+01   2.5489908275e+01    0.1973172    0.1657387  58.09 0.0003078792    1.306    0.234
        25  -9.8418     33.7797    167.1315   1.0592441295e+02   3.5985862153e+01    0.2895137    0.1697472  89.00  0.001412016    1.783    0.439
        26 -12.3939     74.8190    154.9313   9.2441834923e+01   3.4141785540e+01     1.479841    0.9107319  69.55  0.002103285    2.290    0.563
        27 -12.3184     68.0814    144.3177   9.2666709427e+01   3.7734344419e+01    0.8640879    0.6119137  66.39  0.003328629    1.688    0.408
        28 -12.5051     51.4613    157.2897   9.9696913135e+01   3.6554550975e+01    0.6193836    0.4489689 -55.75  0.001706825    1.358    0.263
        29 -10.9724     31.2211    157.1910   1.0560497475e+02   3.8693705361e+01    0.3934798    0.2781843 -37.06  0.002110955    1.663    0.399
        30  -9.8348     90.9999    142.0299   8.5238623360e+01   3.4873435878e+01    0.4146511     0.330049  39.36  0.001126771    1.257    0.205
        31  -8.9033     94.6914    139.0303   8.3514581235e+01   3.4997232474e+01    0.3314316    0.2409562  -6.63  0.001476982    1.826    0.452
        32 -12.3062     81.0399    236.5398   1.0120597010e+02   1.5204420276e+01    0.7583018    0.6344467  70.15  0.002850236    1.256    0.204
        33 -12.1765     56.1418    126.7688   9.3359876661e+01   4.3762370092e+01     2.144056    0.6597444 -70.91  0.005239953    5.995    0.833
        34 -10.9788     51.9838    114.9883   9.2519200787e+01   4.7278669844e+01    0.6065093    0.3800257 -80.96  0.002675583    1.974    0.493
        35  -9.9020    105.7717    130.8748   7.8419919974e+01   3.5022817557e+01     0.418843    0.3424002  16.00  0.001089483    1.324    0.245
        36  -9.6512     91.6504    126.8664   8.1786913920e+01   3.8471848321e+01    0.3123665    0.2606516  -4.03   0.00062125    1.357    0.263
        37 -10.2118     66.0213    161.3521   9.6024089049e+01   3.3746559534e+01    0.2787201    0.2518884  39.25 0.0003951351    1.105    0.095
        38 -11.3546     78.4190    139.8630   8.8646282104e+01   3.7374429722e+01    0.4038419    0.3545252  77.68 0.0004819579    1.247    0.198
        39  -8.9030    103.5582    119.1795   7.6281887296e+01   3.8187148295e+01    0.2524086    0.2099027  33.00 0.0002792284    1.210    0.173
        40  -8.8790    204.8470    110.9701   5.0525729400e+01   1.9043879965e+01    0.2979172    0.1966199  41.38  0.001505259    1.683    0.406
        41  -7.8788     62.5380    101.4609   8.5645867388e+01   4.9275099690e+01    0.1468726    0.1384904 -36.60 0.0001750986    1.009    0.009
        42 -10.9202      2.0270     79.2056   1.0564522852e+02   6.0383600598e+01    0.8537254   0.09945585 -67.38  0.002553925    4.594    0.782
        43 -10.1089      1.7422     95.8188   1.0817620328e+02   5.6306365228e+01    0.4420161    0.1575616 -71.86  0.001852561    2.310    0.567
        44 -10.2480      1.8930     88.8147   1.0716336623e+02   5.8036390658e+01    0.5355335    0.1654196 -75.87  0.001993202    3.052    0.672
        45 -10.2328     53.4879     91.4137   8.6565155567e+01   5.2948902434e+01    0.5804039    0.2874516 -55.53  0.002441502    1.891    0.471
        46  -9.1729     41.4895     92.0637   9.1522901049e+01   5.4231952531e+01    0.2064456    0.1895836   3.21  0.000660124    1.141    0.123
        47  -9.8388    163.9096     84.9911   5.1439111268e+01   3.2289684014e+01    0.4160995    0.1265752  46.92  0.001303916    3.430    0.708
        48  -8.3112    184.5188     77.4813   4.5630539992e+01   2.8870471772e+01    0.1392732    0.1333713 -42.58 5.161041e-05    1.033    0.032
        49  -9.7920     13.3236     60.2436   9.6406725238e+01   6.4267003374e+01    0.2278774    0.2004988 -51.26 0.0005474507    1.119    0.107
        50  -9.9700      2.1200     58.9890   1.0179312270e+02   6.5168217829e+01    0.3988505    0.1077481 -61.99  0.001595236    2.665    0.625
        51 -11.7765    207.2327     51.9096   3.5932866329e+01   2.7580876622e+01    0.9180732    0.4356502 -52.46  0.004151036    2.159    0.537
        52 -12.0495    213.6521     46.6138   3.3942776795e+01   2.6896849500e+01    0.6099417    0.4819869 -43.99   0.00379105    1.146    0.128
        53 -11.9003     57.1984    239.6423   1.0662670713e+02   1.7475037917e+01    0.8194162    0.4912772  54.81 0.0006801747    1.503    0.335
        54 -10.1362      2.0615     51.7361   1.0014891612e+02   6.6818405238e+01    0.3638324    0.1726506 -62.30  0.001519093    1.777    0.437
        55 -10.6027     12.6300    242.3499   1.1591245930e+02   2.1520208551e+01    0.4602204    0.2469042  78.42  0.001535872    1.751    0.429
        56 -10.5258      2.1248     37.7091   9.6254455290e+01   6.9866154514e+01    0.4184183     0.206821 -67.57  0.002086343    2.167    0.539
        57 -11.2285     10.3066    230.6019   1.1587243627e+02   2.3996745067e+01     0.637805    0.2779315  65.39  0.002157193    2.096    0.523
        58  -9.3213    120.7441     28.7672   4.2709868243e+01   5.1041564245e+01    0.2431865    0.2176842 -79.36 0.0003386855    1.223    0.183
        59 -10.4109      4.4748    229.3337   1.1699849012e+02   2.4749106789e+01    0.3407502    0.2170527  83.22  0.001337164    1.405    0.288
        60  -7.8488     22.3325    231.2980   1.1343522783e+02   2.2759697768e+01    0.1017506   0.08693476 -31.81  0.000206545    1.645    0.392
        61  -8.2419    189.5164     15.0958   2.8647362511e+01   3.5861303705e+01    0.1777845    0.1180077 -32.66   0.00101477    1.538    0.350
