#   1 NUMBER                 Running object number                                     
#   2 MAG_AUTO               Kron-like elliptical aperture magnitude                    [mag]
#   3 X_IMAGE                Object position along x                                    [pixel]
#   4 Y_IMAGE                Object position along y                                    [pixel]
#   5 X_WORLD                Barycenter position along world x axis                     [deg]
#   6 Y_WORLD                Barycenter position along world y axis                     [deg]
#   7 A_WORLD                Profile RMS along major axis (world units)                 [deg]
#   8 B_WORLD                Profile RMS along minor axis (world units)                 [deg]
#   9 THETA_WORLD            Position angle (CCW/world-x)                               [deg]
#  10 FWHM_WORLD             FWHM assuming a gaussian core                              [deg]
#  11 ELONGATION             A_IMAGE/B_IMAGE                                           
#  12 ELLIPTICITY            1 - B_IMAGE/A_IMAGE                                       
         1 -14.2829    155.5217     47.0077   6.1931563841e+01   4.0098203249e+01       9.5937     4.433774 -48.97   0.03343618    2.637    0.621
         2 -13.2570    218.8401     58.8919   5.5284528104e+01   2.2512158857e+01     1.790013     1.292108  88.96  0.008704199    1.864    0.463
         3 -13.8519    238.7570     72.9893   5.6491990835e+01   1.6327749622e+01     2.698968     1.405435 -26.67  0.007842497    1.697    0.411
         4 -12.2091    249.0681      2.2936   3.6340063734e+01   2.1155444140e+01     1.109185    0.5536283   1.51  0.004372752    2.512    0.602
         5 -12.9408    188.3784     44.0391   5.5172977502e+01   3.1970662095e+01     8.649947     0.655807 -39.32   0.01569525    9.361    0.893
         6 -12.2335    239.8806     44.0963   4.8604341088e+01   1.9292430323e+01     1.635448    0.5957807 -43.91 0.0009644911    2.966    0.663
         7 -14.2784    216.9762     73.8516   5.9712875561e+01   2.1078821034e+01     11.45809     2.562248 -42.15   0.02335058    6.572    0.848
         8 -12.0209    228.8587     17.9049   4.2246529391e+01   2.4565613573e+01    0.7332802      0.57762  62.46  0.002054443    1.371    0.270
         9 -13.1411    220.9529     35.9235   4.8351572925e+01   2.4664564640e+01     1.963165    0.6383372 -41.79   0.00637263    3.063    0.674
        10 -14.3404    240.9872     22.8954   4.2610360814e+01   2.1185718397e+01     4.360403    0.7801287  61.08    0.0137075    4.468    0.776
        11 -12.4691    249.8183     43.5063   4.7424143403e+01   1.7127527971e+01     1.661832     0.397786 -25.18  0.005226104    3.216    0.689
        12  -9.2640    115.7913     12.4212   5.6514900610e+01   5.5192800641e+01    0.3369708    0.2527363  53.10  0.001545645    1.342    0.255
        13 -10.8131    120.2429      8.9519   5.3897296491e+01   5.4469118031e+01    0.4409984     0.435102  40.79  0.001242562    1.066    0.062
        14  -9.3583    141.6481     10.1502   5.0314456389e+01   4.8650737533e+01    0.3537966     0.244352 -32.35  0.001096191    1.412    0.292
        15  -9.8127    135.9421      9.1491   5.0895172891e+01   5.0300626000e+01    0.2604795    0.2097801  14.43 0.0004175332    1.298    0.230
        16  -8.9122    225.8007      6.7063   3.9208991518e+01   2.6347367299e+01    0.4661532    0.2076937 -24.29  0.001958059    1.956    0.489
        17  -8.5744     90.4893      7.4857   6.0665515189e+01   6.1913478944e+01    0.1440373    0.1313191  -4.73 0.0008104111    1.009    0.009
        18 -10.3207    235.1178      3.9193   3.7708812132e+01   2.4303121652e+01    0.5231738    0.3443169  52.00  0.002694517    1.668    0.400
        19 -10.0085    215.8598      5.5748   3.9671057087e+01   2.8959616235e+01     0.259586    0.2219301 -12.81 0.0004536493    1.144    0.126
        20  -8.4747    207.1271      4.4602   4.0069654823e+01   3.1324204535e+01    0.3063722    0.2416716 -30.93  0.001617145    1.182    0.154
        21  -8.8831    215.9498      1.1788   3.8313037945e+01   2.9313834602e+01    0.1853057    0.1287144  79.99            0    1.526    0.345
        22  -8.7858    211.2174      1.1311   3.8673468895e+01   3.0540800855e+01    0.4308391    0.1446923  73.94  0.001513872    3.053    0.672
        23  -8.6261    200.1483      6.0095   4.1209364175e+01   3.3033435639e+01    0.2054919   0.09886212 -18.45 0.0008151417    2.000    0.500
        24  -9.3752    172.2831      3.1167   4.3142608967e+01   4.0889633813e+01    0.5725087    0.1966466 -45.83  0.001822566    3.222    0.690
        25  -9.8438    182.7175      3.3182   4.2050008396e+01   3.7993571052e+01    0.4570372    0.3227763 -77.03  0.002163688    1.568    0.362
        26  -9.2448    195.5023      9.1960   4.2725590348e+01   3.3984726576e+01    0.4792921    0.2566521 -39.57  0.002042951    1.771    0.435
        27 -10.4799    151.1337      7.4935   4.7673367869e+01   4.6332259146e+01    0.5746924    0.2172375 -22.55  0.001318699    2.500    0.600
        28 -10.0960    122.5839    241.7880   1.0604320497e+02   1.5083147543e+01    0.1754554    0.1350845  44.19 0.0004854433    1.131    0.115
        29  -9.5825    133.9690    147.1008   9.2534488417e+01   2.7104524225e+01    0.5377575    0.1852859 -54.94  0.001998071    3.839    0.739
        30  -9.1707    155.0237    146.4130   8.8091283330e+01   2.3409086752e+01    0.3393638    0.2035924 -80.94  0.001108134    5.689    0.824
        31 -10.7518     68.1390    144.5905   1.0686835250e+02   3.7833620772e+01    0.5611807    0.2785537  58.95  0.002491701    2.005    0.501
        32  -8.4638    192.2114    144.2120   8.0623031449e+01   1.6747662348e+01    0.1566558    0.1514873  75.88 0.0003741838    1.310    0.237
        33  -9.8198    185.1084    143.8950   8.1845028888e+01   1.8135501965e+01    0.2107262    0.1820457 -43.72 0.0007815326    1.370    0.270
        34 -11.4254    176.8097    141.6155   8.2938826003e+01   2.0045903937e+01     0.537793    0.4086933  56.49  0.003088848    1.414    0.293
        35  -8.3244    228.5184    139.4867   7.3584883414e+01   1.0582746175e+01    0.1275718    0.1055388  14.17 0.0005872267    1.000    0.000
        36  -9.1144    211.9405    136.7623   7.5699492109e+01   1.3986214861e+01    0.2212882    0.1651388 -40.59  0.001280065    1.602    0.376
        37  -8.6954    166.6149    136.7317   8.3931729113e+01   2.2754923428e+01    0.2338176    0.1288426 -35.13 0.0008821732    2.033    0.508
        38 -12.3800    182.5524     79.8731   6.7067026620e+01   2.8318542894e+01     1.330723      1.06969   3.15   0.00251138    1.350    0.259
        39 -10.3049    160.2055    128.8010   8.3589251041e+01   2.5289856399e+01    0.3128663    0.2808073 -41.92  0.001888333    1.209    0.173
        40 -10.0958    153.1044    129.0198   8.5098305000e+01   2.6652569324e+01     0.305809    0.2054518 -54.10  0.001563755    1.742    0.426
        41  -8.6608    127.5410    113.0455   8.7353705968e+01   3.4559296891e+01    0.3408358    0.1898999 -66.87  0.001358972    2.753    0.637
        42  -9.7074    136.0064    125.7537   8.8107032417e+01   3.0539990216e+01    0.5027277    0.3072326 -78.71  0.001856921    3.215    0.689
        43 -10.3683    132.6994    120.8063   8.7827777085e+01   3.2088513936e+01      0.77986    0.4381176 -67.73  0.003151663    2.887    0.654
        44 -12.8798     34.2626    170.5533   1.1656331797e+02   3.6717666694e+01    0.6915286    0.5261745  63.08  0.001396729    1.072    0.067
        45  -9.1473    223.7850    128.6027   7.2040035466e+01   1.2738409877e+01    0.1676758    0.1208106  53.61 0.0004937752    1.577    0.366
        46  -8.8629    158.8734    142.8544   8.6659526194e+01   2.3261685922e+01    0.1798146     0.153974  72.23   0.00107897    1.355    0.262
        47 -11.3524    200.6969    124.4270   7.4971221138e+01   1.7802981085e+01    0.6854297    0.4633898 -73.72  0.002882017    3.359    0.702
        48  -9.2840    205.5562    121.9973   7.3588955768e+01   1.7154354086e+01    0.2303261    0.1888896  63.97  0.000553592    1.515    0.340
        49 -10.4731    228.9529    115.5479   6.8333715629e+01   1.3307743437e+01    0.3592511    0.3221318 -38.25  0.002249883    1.356    0.263
        50  -9.8737    216.0349    114.7565   7.0189506035e+01   1.5986249009e+01    0.4756267    0.2286259 -14.62  0.001925393    2.683    0.627
        51 -11.2972    195.7330    111.7452   7.2938342190e+01   2.0607893095e+01    0.5563207    0.3304118  50.02  0.002676877    1.657    0.396
        52 -10.2886    200.9465    115.9834   7.3013651545e+01   1.8918126097e+01    0.3413218    0.2544211  52.58  0.001507494    1.408    0.290
        53 -11.6267    205.2407    110.5298   7.0993468648e+01   1.8775102605e+01    0.6518695    0.4239236  38.54  0.003325146    1.476    0.323
        54  -9.9015    211.0896    109.5938   6.9789297639e+01   1.7678162123e+01    0.2765217    0.1892362 -28.27 0.0003824044    1.437    0.304
        55  -9.8816    158.5035    114.9675   8.0905191038e+01   2.7961452871e+01    0.3539357    0.2435229 -49.29 0.0009846843    1.606    0.377
        56  -8.8157    155.4078    113.4473   8.1206679371e+01   2.8866622148e+01    0.2599269    0.2034747  45.02 0.0005173007    1.217    0.179
        57 -10.2432    167.5633    114.3618   7.8904315410e+01   2.6168733876e+01    0.3979337    0.3093932   8.48  0.001261996    1.527    0.345
        58  -9.1176    175.2037    115.4394   7.7639130620e+01   2.4388219171e+01    0.1976977      0.13189  59.67   0.00095079    1.693    0.409
        59  -9.7697    134.8893    108.9427   8.4711755238e+01   3.3892843729e+01    0.9399912    0.1473229 -44.39  0.002254295    6.632    0.849
        60  -8.8775      7.3233    113.3179   1.1910821965e+02   5.0691263563e+01    0.1075196   0.07440975 -56.51 0.0004495379    1.669    0.401
        61  -9.7084    215.6437    105.8437   6.8148173306e+01   1.7220472980e+01    0.3157309    0.2030558  59.58   0.00155931    1.829    0.453
        62  -8.7316    143.2152    104.5258   8.1759640735e+01   3.3008560624e+01    0.2067923     0.131213  36.51 0.0006863403    1.699    0.411
        63 -11.3763    200.7475    100.8972   6.9414800540e+01   2.1075509354e+01    0.5526263    0.4427033  62.09  0.001227213    1.437    0.304
        64  -9.2353    123.7674    102.7749   8.5912620992e+01   3.7306511423e+01     0.308777    0.2055331  31.39  0.001453022    1.802    0.445
        65  -9.8706    149.4933    100.0351   7.9243894243e+01   3.2492480957e+01    0.3852057    0.3000537  58.39  0.001263396    1.329    0.247
        66  -8.5818    135.9743    242.2210   1.0397221624e+02   1.3278966191e+01    0.1425306   0.05825263  41.86 0.0008805057    1.700    0.412
        67  -8.6929    233.9286    216.3259   8.5909738898e+01   2.1807936079e+00    0.1500501   0.09598243  30.04  0.000402235    1.123    0.109
        68 -10.6550    222.0026     93.7109   6.4163299551e+01   1.7432652589e+01     0.554983    0.3126244 -55.44  0.002114448    3.030    0.670
        69  -9.1966    135.7175     96.4439   8.1476211274e+01   3.6096765145e+01    0.2646709    0.2258961  79.94 0.0008146496    1.314    0.239
        70  -9.0885    231.8869    198.8586   8.3643356794e+01   3.9669430869e+00    0.2126365    0.1543004  44.57  0.001115649    1.522    0.343
        71 -11.6926      3.4781     92.9644   1.1872538166e+02   5.5452111618e+01    0.5059579    0.2887377 -84.29  0.003128062    1.363    0.266
        72 -10.6033    162.6837     92.6673   7.4495593810e+01   3.0867221807e+01    0.4287657    0.3513985  46.98  0.001648401    1.201    0.167
        73  -8.8373    174.9760     90.4834   7.1433818089e+01   2.8427342224e+01    0.2724474    0.1964683 -49.41 0.0007932615    1.551    0.355
        74  -8.7827    194.0970     89.1961   6.7551810479e+01   2.4239274445e+01    0.2982249    0.2060066 -20.85  0.001450632    1.462    0.316
        75  -9.9186    143.9542     89.4572   7.7717814198e+01   3.5626904902e+01    0.2849978    0.2641905  84.86 0.0005578049    1.157    0.136
        76  -7.8323     99.6882     90.6960   8.9254703169e+01   4.4372968150e+01    0.1355607    0.1130869 -12.52 0.0007020341    1.613    0.380
        77 -11.4285    159.8244     83.4419   7.2558450566e+01   3.3093000440e+01    0.4726098    0.4164321  -5.35  0.002059035    1.203    0.169
        78  -9.0372    208.3260     84.6852   6.3963115087e+01   2.1630402770e+01      0.46521     0.236297 -53.96  0.001668036    3.304    0.697
        79  -9.7808    159.2315     94.1811   7.5622036423e+01   3.1384247572e+01     0.455198    0.3001361   8.36  0.001872582    2.431    0.589
        80  -8.1428     19.6622     84.3026   1.1275204175e+02   5.6297463814e+01    0.1264892   0.07532661  68.15  0.000520347    1.668    0.400
        81 -12.4213    177.9841     68.2585   6.4517588883e+01   3.1189232733e+01    0.6251873    0.4815844 -12.93  0.002215292    1.362    0.266
        82  -8.7696    202.6173     80.3888   6.3728072095e+01   2.3527313659e+01    0.3539248    0.1943293 -54.79  0.001067799    2.751    0.636
        83  -7.7803    140.3006     78.3314   7.5419721812e+01   3.8492868729e+01    0.1517255    0.1184668   7.91 0.0003780645    1.649    0.393
        84 -12.0072      3.0312    190.9026   1.2344718952e+02   3.5992317156e+01    0.6214891    0.2376705 -87.16  0.003936922    2.307    0.567
        85  -9.0496    151.8466     72.5237   7.1064552388e+01   3.6844429381e+01    0.3209388     0.188284 -51.87  0.001311706    1.984    0.496
        86  -9.9277    114.6438     69.4530   7.9205611512e+01   4.5843046359e+01    0.2571477    0.2442098 -68.13 0.0002757147    1.048    0.045
        87  -9.7372    118.0730     63.5200   7.6383441391e+01   4.6266358103e+01    0.3526663    0.2024046 -56.05  0.001430067    2.065    0.516
        88  -9.5516    191.3788    192.1695   8.9016778065e+01   1.0881186647e+01    0.3226674    0.1966586 -63.58  0.001480105    4.641    0.785
        89  -9.0239    219.9455    193.2620   8.4595794020e+01   6.2887618486e+00    0.1563442    0.1236436  32.63 0.0003996464    1.181    0.153
        90  -7.9116      7.7753     58.9736   1.1359930924e+02   6.3016865575e+01     0.153415   0.07830482 -74.65 0.0008342236    1.516    0.340
        91  -8.1079     72.6051     58.4922   8.8709950170e+01   5.6055497176e+01    0.1401743    0.1232354 -58.21 7.013695e-05    1.026    0.025
        92  -9.8348    250.6470    190.9405   7.9650463317e+01   1.9068584097e+00    0.1472637   0.08931644 -14.24            0    1.633    0.388
        93  -9.1482    159.3990    157.9195   8.9270879118e+01   2.0819531623e+01    0.2466749    0.2000487 -89.23  0.000854924    1.698    0.411
        94  -8.5678     83.0417     51.5856   8.2830135348e+01   5.5739820330e+01    0.2499095    0.1759222 -54.23 0.0006481605    1.365    0.267
        95 -13.0550    232.5084     51.0378   5.1350166276e+01   2.0227924300e+01      1.01914     0.759138 -49.59  0.002978981    1.458    0.314
        96  -9.2991    220.9487    188.8172   8.3740607963e+01   6.5713670909e+00    0.1758098    0.1389423   5.80 0.0004609038    1.188    0.158
        97 -10.1705    122.9133     38.3168   6.5986077265e+01   4.9669298638e+01    0.3655391    0.1993285 -46.20  0.001470089    1.932    0.482
        98 -10.5308    108.0988     36.9367   6.9370445657e+01   5.3387472763e+01    0.3444849    0.2139248  47.74 0.0008113452    1.680    0.405
        99 -12.7000     19.1886    178.4538   1.1998198672e+02   3.6741353967e+01     1.223425    0.6091595  79.95  0.008108719    1.696    0.411
       100 -10.8832    146.6123     33.4463   5.8762978211e+01   4.4404312239e+01     0.427075    0.2569272  45.85  0.001406962    1.709    0.415
       101  -9.0675    209.9695    187.1755   8.5213614115e+01   8.4679741556e+00    0.1713279    0.1223818  58.44 0.0009027021    1.946    0.486
       102  -8.5268    155.7765    153.8056   8.9263971454e+01   2.2101338902e+01    0.1676211     0.135362  59.68  0.000246295    1.292    0.226
       103  -8.6265    189.2170     24.7877   4.8697692390e+01   3.4073841173e+01    0.2193477    0.1895936 -51.18 0.0004076908    1.180    0.152
       104  -9.1410    192.4178    153.2041   8.2317579396e+01   1.5501967752e+01    0.1587768    0.1193672 -43.13 0.0007246377    1.617    0.382
       105 -12.7765     45.6189    163.5411   1.1371168262e+02   3.6827392336e+01     0.785869    0.6163542  69.98  0.002575659    1.032    0.031
       106  -9.7704    221.0770    184.0493   8.2951402931e+01   7.0288201579e+00    0.2189998    0.1290673  37.71 0.0005217891    1.375    0.273
       107 -10.1081    189.3427    180.3382   8.7541828411e+01   1.2599188261e+01     0.223193    0.1715531  34.25  0.000268525    1.052    0.049
       108  -8.3767    204.0224    152.5292   8.0176894083e+01   1.3476823540e+01    0.1924297    0.1100219  44.30 0.0008521909    1.571    0.364
       109  -8.2189    141.9721    181.0143   9.6146830618e+01   2.0314336653e+01    0.1366056    0.1136533  45.63  0.000943791    1.017    0.016
       110  -9.4411    222.4718    178.1540   8.1754175034e+01   7.4078494763e+00    0.2357453    0.1664387 -48.12  0.001452135    2.302    0.566
       111  -8.9309     74.8915    178.3390   1.0893706715e+02   3.0606475693e+01    0.1647956    0.1245537  74.48 0.0002415395    1.174    0.148
       112  -8.4773    247.6972    178.6914   7.8035958706e+01   3.4056479994e+00    0.1171636   0.06706111  17.06 0.0001791164    1.604    0.377
       113 -10.2316    236.6502    174.9916   7.9033146206e+01   5.4610190249e+00    0.3462045    0.2091968  59.44  0.001832923    2.870    0.652
       114  -9.5023    228.0588    176.0247   8.0522303332e+01   6.7268839940e+00    0.3078299    0.1341427  53.74  0.001187703    3.284    0.696
       115 -10.0359    101.0019    176.0006   1.0346073423e+02   2.7424020058e+01    0.1633942    0.1327027  56.72  0.001143011    1.008    0.008
       116 -10.2856    231.0227    168.0883   7.8675828394e+01   7.0523068077e+00    0.3538294    0.1714565 -39.18  0.001831577    2.731    0.634
       117  -9.2594    209.4167    164.7271   8.1523266639e+01   1.1052994939e+01    0.2974235    0.2176055  48.63  0.001083617    1.440    0.306
       118  -8.3855     74.9853    162.8165   1.0737776461e+02   3.3400537836e+01    0.1545328    0.1198743  59.98            0    1.061    0.057
       119 -11.9124    199.3587     69.9929   6.1345219571e+01   2.5732117691e+01     1.149873    0.4389762  37.75  0.003605093    3.654    0.726
       120  -8.2461    250.6664    244.6561   8.7340861401e+01  -2.0797542555e+00     0.102336    0.0493541  20.31 0.0007050267    1.761    0.432
