#   1 NUMBER                 Running object number                                     
#   2 MAG_AUTO               Kron-like elliptical aperture magnitude                    [mag]
#   3 X_IMAGE                Object position along x                                    [pixel]
#   4 Y_IMAGE                Object position along y                                    [pixel]
#   5 X_WORLD                Barycenter position along world x axis                     [deg]
#   6 Y_WORLD                Barycenter position along world y axis                     [deg]
#   7 A_WORLD                Profile RMS along major axis (world units)                 [deg]
#   8 B_WORLD                Profile RMS along minor axis (world units)                 [deg]
#   9 THETA_WORLD            Position angle (CCW/world-x)                               [deg]
#  10 FWHM_WORLD             FWHM assuming a gaussian core                              [deg]
#  11 ELONGATION             A_IMAGE/B_IMAGE                                           
#  12 ELLIPTICITY            1 - B_IMAGE/A_IMAGE                                       
         1 -15.5924    212.3848     55.5441   7.6964537578e+01   2.4867728909e+01     2.087458     1.210333 -49.61  0.008311993    1.765    0.433
         2 -16.5876    234.6961    104.8968   8.6375572516e+01   1.1830258288e+01     3.368012     1.819014 -41.76   0.01478833    1.789    0.441
         3 -16.4114     12.3184     81.1789   1.3832613124e+02   5.8173771114e+01     1.980298      1.41777 -71.27   0.01202939    1.123    0.109
         4 -16.0885    210.7038     81.3338   8.4252519268e+01   2.1290173118e+01     2.772039     2.016908 -19.46   0.01279947    1.534    0.348
         5 -16.2965     94.2004     45.9401   9.9718209939e+01   5.5257262949e+01     1.955385     1.818035  -5.85  0.008406444    1.012    0.012
         6 -15.6197    245.6475     41.6039   6.9168628891e+01   1.8633928236e+01     1.653966     1.312237 -43.52  0.006488166    1.147    0.128
         7 -14.8056    247.1463     12.6306   6.2029793436e+01   2.1799583447e+01       1.7213    0.6992581 -30.33  0.007571345    2.323    0.570
         8 -12.4134    189.8552     19.1610   6.9661197229e+01   3.5499896921e+01      0.47201    0.3154945 -17.28  0.002286312    1.737    0.424
         9 -11.8097      1.8317     18.3941   1.2753998793e+02   7.1568762995e+01    0.3318509    0.1145192 -54.73  0.001748527    2.123    0.529
        10 -13.3799     10.4402    202.8591   1.5004534893e+02   3.2264603072e+01    0.5127204    0.3021691 -75.70  0.003122233    1.563    0.360
        11 -13.9626    212.5305    171.8771   1.0537456030e+02   5.7157049584e+00     0.938826    0.6829733 -51.96  0.004090068    1.750    0.428
        12 -14.1702    229.7711    231.7076   1.1292384983e+02  -5.3111742497e+00    0.7567521    0.5305834 -28.54  0.004408523    1.654    0.395
        13 -17.3991    240.8048    208.4102   1.0720071476e+02  -4.3641958832e+00     3.764069     1.737772 -39.57   0.01887068    2.627    0.619
        14 -15.1429    210.0609    196.8042   1.1054714766e+02   2.4488705668e+00     1.171651    0.8875056 -45.87  0.005739502    1.639    0.390
        15 -13.7921    218.9374    242.6846   1.1640502308e+02  -4.8462715912e+00    0.8824038    0.4751745 -21.18  0.005068901    2.433    0.589
        16 -11.4240    175.3072    249.8935   1.2482656748e+02   1.2126653456e+00     0.234515    0.1313981  39.77 0.0009826204    1.363    0.267
        17  99.0000     17.8561    142.8377   1.4439240123e+02   4.3989800342e+01     1.140753     1.012249  70.20  0.008656234    1.243    0.196
        18 -15.5570     14.1034    173.6316   1.4763853870e+02   3.7729968598e+01     2.967058     1.166885 -56.03   0.01489095    3.078    0.675
        19 -19.5409     56.6883    158.1905   1.3699581802e+02   3.6522214594e+01     19.25876     3.037299 -67.76   0.05154345    6.641    0.849
        20 -14.2652     92.8052    187.5211   1.3265747107e+02   2.5157352677e+01    0.7259732    0.4093039  55.22  0.003807597    1.602    0.376
        21 -14.5549     84.5662    203.5845   1.3618857133e+02   2.3221397061e+01    0.6094521    0.4022152  67.02  0.001678325    1.336    0.251
        22 -11.4208     99.4973    180.5083   1.3030873206e+02   2.5532417925e+01    0.1332723    0.1128679  70.55 0.0008106255    1.006    0.006
        23 -13.4656     98.3975    172.4133   1.2940786771e+02   2.7401858434e+01    0.6740162    0.2726876 -46.13  0.002560492    3.476    0.712
        24 -11.6542    103.8749    161.6087   1.2650876008e+02   2.8805819877e+01     0.214638    0.1810674 -58.92 0.0003915837    1.265    0.210
        25 -12.3435    106.8396    155.7641   1.2484302058e+02   2.9567962055e+01    0.2375378     0.187885 -51.63 0.0007893521    1.373    0.271
        26 -13.9993     30.5189    190.1885   1.4557174260e+02   3.2737958427e+01    0.7699996    0.5668467 -77.57  0.004165935    1.318    0.241
        27 -11.9368     97.9443    151.0259   1.2615602604e+02   3.2126740789e+01    0.2136036    0.1888699  77.69 0.0003834901    1.023    0.022
        28 -14.6280     92.7989    201.5806   1.3433616004e+02   2.2377074110e+01    0.7628248    0.4024526 -76.03  0.003901101    2.173    0.540
        29 -12.1784    104.9771    139.6056   1.2236570752e+02   3.3478416312e+01    0.2796242    0.2388114  53.82 0.0006543906    1.154    0.134
        30 -12.1571    105.9758    130.8080   1.2036441657e+02   3.5283803803e+01    0.2656656    0.2082133 -61.59  0.001395083    1.239    0.193
        31 -11.7454     12.4590    246.1224   1.5165652391e+02   2.4393773377e+01    0.1412484   0.07478041 -81.10 0.0007635519    1.742    0.426
        32 -10.6999     22.0876    242.9421   1.5005529857e+02   2.3921962070e+01    0.1216718    0.1080748  81.74 0.0006555637    1.563    0.360
        33 -10.5996      1.5962    121.1732   1.4634509788e+02   4.9966162470e+01    0.1675032   0.07600055 -66.84 0.0008524612    1.700    0.412
        34 -13.7895     29.4322    179.1307   1.4495676661e+02   3.5109900638e+01    0.4942721    0.3280925 -68.53  0.002569281    1.489    0.328
        35 -12.8034      5.1285    102.9954   1.4353794143e+02   5.3770497893e+01    0.6770124    0.2209783 -56.59  0.003281294    2.425    0.588
        36 -10.7458     18.7997    241.2841   1.5049005704e+02   2.4545590901e+01   0.09588377   0.04938497  70.68 0.0002206766    1.417    0.294
        37 -14.8155    145.6953     87.6210   9.9285696518e+01   3.6297224722e+01     1.224337     1.038749 -64.76  0.003573495    1.282    0.220
        38 -11.9719    116.0030    230.5136   1.3310378376e+02   1.3588263251e+01    0.2451279    0.1232457  74.30   0.00104515    3.508    0.715
        39 -12.9167    119.7536     76.1364   1.0252424309e+02   4.4439517764e+01    0.6080212    0.3898407 -37.12  0.002186826    1.565    0.361
        40 -13.4584    237.9990     64.5133   7.5801966774e+01   1.7267446065e+01    0.5547872    0.3862054  20.06  0.002584646    2.075    0.518
        41 -11.7334     24.9553    220.3408   1.4847022756e+02   2.7556032948e+01    0.1444117    0.1134264  76.85 0.0005674872    1.200    0.167
        42 -13.9943      5.7241     50.2997   1.3477503041e+02   6.5159234726e+01    0.7316901    0.4840092 -50.60  0.004028924    1.167    0.143
        43 -10.9599     18.1351    218.2271   1.4950871495e+02   2.8648915529e+01    0.1482008   0.09600875 -47.73 0.0009405116    2.897    0.655
        44  99.0000     22.3321    199.0598   1.4770138063e+02   3.1832356410e+01    0.6495265    0.3009418  82.22  0.003769882    1.909    0.476
        45 -11.3220     18.5239     45.9902   1.2842338368e+02   6.5259929258e+01    0.2206052    0.1444587 -23.22  0.001387894    1.629    0.386
        46 -13.0903    196.4541     38.8053   7.4544436632e+01   3.1342186964e+01    0.7994019    0.4667874 -42.63   0.00356225    1.689    0.408
        47 -13.1317    169.7330     33.6282   7.7181524519e+01   3.9099015032e+01    0.4885575    0.4340942  66.89  0.002245756    1.071    0.066
        48 -12.2397    173.4240     26.6165   7.4324662347e+01   3.8996709728e+01    0.3958785    0.2687423   3.58  0.001235525    1.977    0.494
        49 -12.6558      5.4997     25.1320   1.2799146833e+02   7.0130860081e+01    0.2548843    0.1838484 -46.25  0.001410559    1.055    0.052
        50 -12.5281      7.6637     21.6705   1.2573222980e+02   7.0641418470e+01    0.2377033    0.1266971 -36.66  0.001304946    1.511    0.338
        51 -16.8033     77.0233    154.7740   1.3176624635e+02   3.4546238756e+01     1.771863     1.360843  70.47  0.007341261    1.213    0.176
        52 -11.8568    157.3231     49.5097   8.4709386782e+01   4.0112057412e+01     0.271735    0.2509002 -53.45 0.0008994797    1.121    0.108
