#   1 NUMBER                 Running object number                                     
#   2 MAG_AUTO               Kron-like elliptical aperture magnitude                    [mag]
#   3 X_IMAGE                Object position along x                                    [pixel]
#   4 Y_IMAGE                Object position along y                                    [pixel]
#   5 X_WORLD                Barycenter position along world x axis                     [deg]
#   6 Y_WORLD                Barycenter position along world y axis                     [deg]
#   7 A_WORLD                Profile RMS along major axis (world units)                 [deg]
#   8 B_WORLD                Profile RMS along minor axis (world units)                 [deg]
#   9 THETA_WORLD            Position angle (CCW/world-x)                               [deg]
#  10 FWHM_WORLD             FWHM assuming a gaussian core                              [deg]
#  11 ELONGATION             A_IMAGE/B_IMAGE                                           
#  12 ELLIPTICITY            1 - B_IMAGE/A_IMAGE                                       
         1 -13.2532     12.0919     28.8982   1.1395199024e+02   7.0793571792e+01     0.715351    0.4857624  43.74  0.004254964    1.775    0.437
         2 -13.4566    210.1083     20.7263   4.8840047391e+01   2.9093579615e+01     1.013644    0.5964873  35.05  0.002176359    2.146    0.534
         3 -13.0613    219.1970     10.3503   4.5037388659e+01   2.7876314271e+01    0.7111309    0.6045074 -57.05  0.003242381    1.099    0.090
         4 -12.4068      3.4170      5.4825   1.1233772866e+02   7.6501802234e+01    0.7886713    0.3144768 -55.69  0.004016247    1.833    0.455
         5 -12.3037    191.3185    228.0970   9.7952138894e+01   5.4541226410e+00    0.6496612    0.4374847   4.12  0.004550081    1.618    0.382
         6 -12.3843    248.5672    246.8185   9.1419212721e+01  -3.5993092309e+00    0.4810253    0.2281907 -10.77  0.003238101    2.345    0.573
         7 -11.6446    192.0671    240.4560   9.9369265873e+01   4.0823668943e+00     1.091388    0.4212434  21.74  0.004194587    5.117    0.805
         8 -12.3659    184.6653    239.4246   1.0047320267e+02   5.1837909289e+00    0.4242654    0.2623888  27.23  0.002535824    1.222    0.182
         9 -12.4983    177.5232    247.9693   1.0264243569e+02   5.2634594609e+00     1.037707    0.3648812  41.72  0.005695561    2.169    0.539
        10 -13.0893    202.3565    247.3937   9.8536404510e+01   2.0656388818e+00    0.9992856    0.6281627   7.15  0.007348189    1.652    0.395
        11 -12.6766    216.8044    248.1727   9.6359332758e+01   1.5454659361e-01    0.5065296    0.2722895  29.55   0.00285543    1.279    0.218
        12 -12.2150    211.5625    244.7394   9.6753762930e+01   1.1202939821e+00    0.4882441    0.2815598  14.02  0.002962714    1.635    0.388
        13 -10.6318    147.3653    249.7355   1.0790484690e+02   9.0718451549e+00    0.4235286    0.1809329  32.22  0.002481771    1.872    0.466
        14 -11.8622    136.6692    249.8011   1.0974459862e+02   1.0472051303e+01    0.6279035    0.1453664  37.86  0.002827037    2.979    0.664
        15 -13.8511    102.2248    235.0324   1.1458292135e+02   1.6880794819e+01     1.749266     1.338488  51.38   0.01376614    1.124    0.111
        16 -14.1240     89.1171    155.4005   1.0907352186e+02   3.2413795117e+01     2.206928     1.626722 -21.48    0.0116968    2.199    0.545
        17 -13.1867     30.5365    163.2310   1.2419529972e+02   3.7999916531e+01     1.537534     1.187014 -79.15  0.009323387    1.332    0.249
        18 -13.3080     44.7791    181.0765   1.2208723423e+02   3.2963017039e+01     3.628398     1.654566 -47.04   0.01651696    4.015    0.751
        19 -13.3177     35.5910    242.9638   1.2695920667e+02   2.3417756579e+01    0.9825777    0.3688928  58.70  0.006226309    2.037    0.509
        20 -15.9117     13.8672    239.2772   1.3056039315e+02   2.6044233816e+01     1.792802    0.5530124  59.01   0.01101045    2.232    0.552
        21 -16.4347     60.1794    240.7605   1.2256168551e+02   2.1133116378e+01     2.268836      1.17809  50.38   0.01520506    1.344    0.256
        22 -14.5898     35.3586    224.9851   1.2630785070e+02   2.6209805489e+01     1.405383    0.5163342  61.06  0.008122401    2.272    0.560
        23 -12.1251    241.3036    224.2931   8.9407561515e+01  -9.1170911114e-01    0.2495114    0.1692007 -16.43  0.001726603    1.555    0.357
        24 -12.8754    236.6353    220.6154   8.9588558545e+01   1.3679208184e-02    0.3953701    0.2138075  12.62  0.002524223    1.746    0.427
        25 -12.0538    130.8915    217.3607   1.0754528759e+02   1.5459673458e+01    0.3737586    0.2745145  64.51  0.002555514    1.596    0.373
        26 -11.3298    127.4913    212.2921   1.0764049702e+02   1.6679828574e+01    0.5238215    0.3156065  15.70  0.002786507    2.523    0.604
        27 -13.0339    215.8743    212.0660   9.1635580692e+01   3.6621532351e+00    0.8729225    0.5692669   3.64  0.005186335    1.508    0.337
        28 -12.9439    227.4039    201.8226   8.8201852367e+01   3.0615976738e+00     1.183696    0.5751264  -6.56  0.005919467    2.981    0.665
        29 -14.4347    222.0709    191.7169   8.7447921695e+01   4.8999117970e+00     1.828737    0.9357643 -11.33  0.009607581    2.492    0.599
        30 -13.2978     49.0347    203.8302   1.2262043138e+02   2.8307441600e+01    0.5853938    0.4568172  42.44  0.002790965    1.233    0.189
        31 -14.3832    125.2295    232.0834   1.1011095878e+02   1.4227969746e+01     1.435932    0.8301013  51.26  0.008057158    1.551    0.355
        32 -11.5866    111.6981    205.4248   1.1001431373e+02   2.0005133061e+01    0.3872589    0.3761407  83.01  0.003020239    1.284    0.221
        33 -13.8995     97.7458    191.9417   1.1146758303e+02   2.4235027124e+01     1.741139    0.9127512  67.24  0.008500162    2.606    0.616
        34 -12.3647     78.9448    185.5692   1.1489137385e+02   2.7965977985e+01    0.9554501     0.580723  56.86  0.005698061    1.446    0.308
        35 -12.2016     70.5398    178.0444   1.1605306368e+02   3.0484236320e+01    0.6285122    0.3370059  47.81   0.00352978    1.517    0.341
        36 -10.0691     56.5330    209.5049   1.2146264605e+02   2.6483530313e+01    0.2222661   0.08660888  35.16  0.001189673    2.092    0.522
        37  -9.1615     16.7670    207.5779   1.2915864604e+02   3.0904753731e+01    0.2162218    0.1043261  68.47  0.001416686    1.674    0.403
        38 -11.0971     12.3154    205.3271   1.2994393884e+02   3.1693384601e+01    0.2180885    0.1645876  69.57 0.0008085055    1.150    0.130
        39 -12.0513    123.0158    204.2747   1.0761814552e+02   1.8539362367e+01    0.7084984    0.3586249  29.62   0.00370596    1.995    0.499
        40 -12.7030    127.5126    196.7027   1.0581061619e+02   1.9045151946e+01    0.8773962    0.5832981  22.78  0.005158041    1.684    0.406
        41 -13.5186    115.8477    190.4254   1.0745758160e+02   2.1837893476e+01     1.260172    0.7772787  34.36  0.007301574    1.436    0.304
        42 -10.8953    195.1495    199.9103   9.3343589474e+01   8.0619646609e+00    0.2675459    0.1817943  -8.33  0.001702839    1.663    0.399
        43  -9.3651     65.6037    184.5129   1.1773637360e+02   2.9876965722e+01    0.1151362   0.09593824  58.05 0.0002766143    1.074    0.069
        44 -10.5114    168.3335    182.3226   9.5590535237e+01   1.4672154300e+01    0.1287762   0.08750243  13.30 0.0005564956    1.705    0.414
        45 -11.6486    127.9404    179.3364   1.0343531390e+02   2.1820723670e+01     0.499332    0.4312674  89.21   0.00327352    1.386    0.278
        46 -10.5589     40.4169    213.6110   1.2484815890e+02   2.7556540480e+01    0.1814494    0.1552233 -39.97 0.0007543646    1.886    0.470
        47 -10.9366    139.7358    220.7731   1.0625563710e+02   1.3716549345e+01    0.3277937    0.2212607  38.39  0.002238671    1.105    0.095
        48 -11.5821    109.3536    172.8298   1.0663578621e+02   2.5926595395e+01    0.2443459    0.2346496 -36.44  0.001336331    1.280    0.219
        49 -10.8063     97.3067    169.3988   1.0894388953e+02   2.8415157742e+01      0.29016    0.2122869  22.83  0.001669221    1.614    0.380
        50 -12.6454    207.3094    200.7524   9.1363326635e+01   6.1203347916e+00    0.4766603    0.3597095 -30.04  0.003347929    1.610    0.379
        51 -11.2369      8.9819    154.5886   1.2889156663e+02   4.1679678898e+01    0.6584952    0.2095072  68.51  0.002960312    2.935    0.659
        52 -10.7617     21.0905    148.9708   1.2563382262e+02   4.1871564140e+01    0.2769884    0.2325925 -17.96  0.001908915    1.769    0.435
        53 -10.5709     49.8607    212.1030   1.2293321757e+02   2.6794102152e+01    0.2301133    0.2092151 -14.05   0.00134798    1.747    0.428
        54 -11.5923     41.9613    146.5656   1.2010529985e+02   4.0374072034e+01    0.6104609    0.2764022  42.09  0.003124235    1.888    0.470
        55 -11.7196     67.8695    143.5191   1.1296126543e+02   3.7938867912e+01    0.6862177    0.2805906  53.65  0.002870057    2.549    0.608
        56 -11.9974     12.9656    142.2893   1.2732772561e+02   4.3985327199e+01    0.5722386    0.5071942  89.96  0.004161855    1.219    0.180
        57 -15.0455     81.4373    218.2325   1.1717535630e+02   2.2046300607e+01     1.732369     1.159208 -65.56    0.0109027    1.866    0.464
        58 -10.6943     57.8984    130.6455   1.1406126795e+02   4.2098402699e+01    0.2798853     0.135199  48.28  0.001318962    1.923    0.480
        59 -10.1220     98.1153    129.3442   1.0267332072e+02   3.6497761388e+01    0.2239734    0.1891841 -41.47 0.0009896677    1.373    0.272
        60 -12.2403     71.1305    122.4242   1.0907685472e+02   4.2230408105e+01    0.6613775    0.4878509  79.01  0.003621044    1.394    0.283
        61 -11.6422     54.5120    116.3610   1.1312257304e+02   4.5827652809e+01    0.4082003    0.3005442 -36.16  0.002230787    1.785    0.440
        62 -12.2681      2.1005     80.5388   1.2669745286e+02   5.8914245364e+01    0.5934333   0.06846091 -79.51  0.001582832    6.524    0.847
        63 -11.6186    194.4465     34.7460   5.4868971025e+01   3.1513724474e+01     0.283384    0.2795706 -79.40  0.000895363    1.036    0.035
        64 -12.3565    232.3947    243.6280   9.3397286431e+01  -1.4076606155e+00    0.2702642    0.1819978  16.27  0.001839854    1.088    0.081
        65 -12.7197     23.0151     24.9794   1.0596789803e+02   7.0905865705e+01    0.4559971    0.2880224 -37.40  0.002540476    1.504    0.335
        66 -12.5078    203.5481     28.2970   5.1787893896e+01   2.9929766268e+01    0.5993384    0.4199959  83.70  0.002968684    1.558    0.358
        67 -12.4259    141.5591    231.0715   1.0703866742e+02   1.2107330421e+01    0.5568689    0.4385464  48.83  0.003304712    1.244    0.196
        68 -13.9440    163.5105    231.6359   1.0318513059e+02   8.9623943220e+00     1.964916    0.8661773  33.17    0.0111691    1.778    0.438
