#   1 NUMBER                 Running object number                                     
#   2 MAG_AUTO               Kron-like elliptical aperture magnitude                    [mag]
#   3 X_IMAGE                Object position along x                                    [pixel]
#   4 Y_IMAGE                Object position along y                                    [pixel]
#   5 X_WORLD                Barycenter position along world x axis                     [deg]
#   6 Y_WORLD                Barycenter position along world y axis                     [deg]
#   7 A_WORLD                Profile RMS along major axis (world units)                 [deg]
#   8 B_WORLD                Profile RMS along minor axis (world units)                 [deg]
#   9 THETA_WORLD            Position angle (CCW/world-x)                               [deg]
#  10 FWHM_WORLD             FWHM assuming a gaussian core                              [deg]
#  11 ELONGATION             A_IMAGE/B_IMAGE                                           
#  12 ELLIPTICITY            1 - B_IMAGE/A_IMAGE                                       
         1 -14.2121      6.4523    141.1352   1.2648515547e+02   4.4282668660e+01       1.7243    0.5813408 -74.86  0.009114536    2.201    0.546
         2 -15.3675    238.1662     43.1889   5.2975158673e+01   1.9977450250e+01     6.163933     2.829432 -22.27   0.02387157    2.426    0.588
         3 -11.6229    113.2203      5.9811   6.2114355627e+01   5.6001954327e+01    0.5354264    0.2774775  11.96   0.00218616    2.683    0.627
         4  -8.4616    164.4097     94.2110   8.0308616118e+01   3.0271889828e+01    0.2234349    0.1413237 -49.62 0.0007515363    1.677    0.404
         5 -11.9885    207.6416    246.4408   1.0165831962e+02  -2.6397695333e+00    0.6801575    0.3730206  26.69  0.004012188    1.944    0.486
         6  -9.1397    192.6691    210.3395   9.8964185122e+01   4.2500063119e+00    0.1202487   0.09189218  72.12 0.0007051754    1.742    0.426
         7  -9.9225    197.7919    204.5856   9.7155729100e+01   4.1133511317e+00    0.2418838      0.18065  65.30   0.00142729    1.658    0.397
         8  -9.6579    186.5103    203.0662   9.8911883608e+01   6.3786067514e+00    0.1713617    0.1270243 -40.67  0.001039596    1.610    0.379
         9  -9.2780    167.4757    202.0769   1.0218751549e+02   9.9872575527e+00    0.1698677    0.1269275 -47.21  0.001032847    1.594    0.372
        10 -11.3975      2.0026    196.9875   1.3077452379e+02   3.3898451394e+01    0.2810698    0.1374089 -72.62  0.001986298    1.807    0.447
        11  -9.7323    177.9067    197.6270   9.9598588958e+01   8.7621248124e+00    0.2366714    0.1720868 -70.94  0.001321881    1.962    0.490
        12  -9.1722    195.5422    196.5097   9.6224733987e+01   5.6577131094e+00    0.1284068    0.1095016  40.51 0.0001427095    1.034    0.033
        13 -10.6043    186.2843    193.1269   9.7333636366e+01   7.8832751604e+00    0.2975024    0.2209253 -50.86  0.001746913    1.632    0.387
        14 -10.4419    199.1173    191.7068   9.4761974022e+01   5.6806345248e+00     0.208057    0.1832292 -55.03  0.001321242    1.416    0.294
        15  -9.3079    172.3909    191.1819   9.9574597664e+01   1.0789806465e+01    0.1696529    0.1230174 -61.37 0.0006487971    1.730    0.422
        16  -8.9959    179.2973    190.6475   9.8204402863e+01   9.5769333752e+00     0.127303   0.09878545  80.01 0.0007034989    1.690    0.408
        17 -10.9778    202.8727    184.4594   9.2796495742e+01   6.0229465859e+00    0.3079861    0.2536162  81.53  0.001405543    1.691    0.408
        18  -9.1568    190.1806    185.1961   9.5254837684e+01   8.3492503143e+00    0.1759157    0.1541079  74.70 0.0007570251    1.352    0.260
        19 -10.1765    182.9449    183.3062   9.6269632515e+01   1.0036383815e+01    0.3333135    0.2049314 -49.89  0.001601754    1.939    0.484
        20 -10.6932    211.4541    183.6240   9.1095364614e+01   4.5020313675e+00    0.2684534    0.2176297  62.20  0.001183769    1.476    0.323
        21 -10.6663    191.2772    179.0476   9.3947723386e+01   9.0901916872e+00    0.3321063    0.2529742 -58.44  0.001559486    1.670    0.401
        22  -9.8625    176.3768    179.2443   9.6796913601e+01   1.1963702260e+01     0.223275    0.1732219 -57.64 0.0008676524    1.528    0.345
        23  -9.0532    169.6805    178.5266   9.7954236268e+01   1.3379994641e+01    0.2246115    0.1253813 -45.76  0.001087139    2.019    0.505
        24 -10.3593    205.0001    177.5042   9.1122688162e+01   6.6425210553e+00    0.2006157    0.1790591 -21.35 0.0007747344    1.218    0.179
        25 -10.5185    199.3412    177.2065   9.2107984289e+01   7.7957723307e+00    0.3110802    0.1697319  47.03  0.001439304    1.653    0.395
        26 -10.6877    182.9604    175.4260   9.4854917788e+01   1.1302744627e+01    0.5243999    0.1844846 -40.70  0.002000768    3.230    0.690
        27 -10.0275    219.8638    174.7765   8.7914654486e+01   4.1465810714e+00    0.1739624    0.1572413  65.37 0.0005662572    1.369    0.270
        28 -10.6583    193.5355    173.5282   9.2499495686e+01   9.5153931404e+00    0.2787179    0.2449543 -63.23  0.001660617    1.386    0.279
        29 -11.1561    191.6204    167.2973   9.1668429975e+01   1.0902130604e+01    0.3638459    0.2560343 -53.19  0.001712797    1.721    0.419
        30 -11.8482    199.2148    153.1704   8.7353094762e+01   1.1662482949e+01    0.8265938    0.2674052 -46.63  0.002655628    3.967    0.748
        31 -11.3058    206.1805    170.9124   8.9642268994e+01   7.4068602862e+00     0.271085     0.245004 -23.20  0.001043389    1.194    0.163
        32 -11.6378    201.9506    167.3913   8.9736637057e+01   8.8001248496e+00    0.3762189    0.2862132  77.70  0.001512131    1.899    0.473
        33 -10.3953    201.2901    171.9989   9.0757980266e+01   8.2131172964e+00    0.3070607    0.2240444  58.91  0.001642546    1.517    0.341
        34 -10.3640    197.4185    169.2110   9.0942405109e+01   9.4250025996e+00    0.2366166    0.2023711 -68.62   0.00098986    1.495    0.331
        35  -9.7394    177.0221    170.7562   9.5136471348e+01   1.3256010508e+01    0.2365555    0.1789461 -65.24 0.0008323551    1.666    0.400
        36  -8.2421     88.7272    171.0058   1.1290737417e+02   2.8923240250e+01    0.1353861   0.09844197 -73.97  0.000253471    1.292    0.226
        37 -10.9296    216.9877    168.9392   8.7281859670e+01   5.5570619354e+00    0.2131437    0.1882094  23.86 0.0009187057    1.008    0.008
        38  -9.3819    185.3739    168.1247   9.3025213535e+01   1.2026451631e+01    0.1877538    0.1282215 -54.48 0.0007726718    1.779    0.438
        39  -9.2902    170.3790    168.2225   9.5965941227e+01   1.5012690568e+01     0.183957    0.1294963 -57.77 0.0009452103    1.674    0.403
        40 -10.1205    179.2934    166.7607   9.3943038130e+01   1.3481099974e+01    0.2322104    0.1724596 -47.46   0.00124804    1.496    0.332
        41 -11.8879    199.1673    132.2701   8.2731675622e+01   1.5225169455e+01     1.071876    0.4040665 -51.47  0.003071168    4.611    0.783
        42 -12.0791    192.5025    130.6755   8.3669066051e+01   1.6993907240e+01     1.221758    0.2875422 -38.24  0.003404993    4.401    0.773
        43 -12.6566    220.4515    127.3607   7.7584292995e+01   1.1308489280e+01    0.7404589    0.5314103 -48.96  0.003622685    1.594    0.373
        44 -12.4837    212.9532    163.4954   8.6919764283e+01   7.1814531067e+00    0.9685165    0.2517422 -42.17  0.003061168    4.422    0.774
        45 -10.4930    195.4601    121.3371   8.0856358498e+01   1.7982380675e+01    0.4605834    0.2588437 -44.20  0.001466845    1.863    0.463
        46 -10.7737    193.3823    114.1205   7.9482443793e+01   1.9749688560e+01    0.4521975    0.3371159 -29.61  0.001786234    1.384    0.277
        47 -11.7682    219.6561    117.0783   7.5250536323e+01   1.3162441035e+01     0.575576    0.3756045 -43.79  0.001905136    1.614    0.381
        48 -10.1819    217.7047    110.1614   7.3884553179e+01   1.4749612453e+01    0.3703151     0.259795 -62.87  0.001178302    1.951    0.488
        49 -12.8593    207.9567    160.5588   8.7241595391e+01   8.6533400527e+00     1.129794    0.2946629 -36.01  0.003551739    4.282    0.766
        50 -12.4657    203.9699    154.3283   8.6693224866e+01   1.0474815494e+01     1.317942    0.3038972 -45.90  0.003254246    6.817    0.853
        51 -12.7127    209.7770    126.7049   7.9395051025e+01   1.3799566985e+01     1.150364    0.7239788 -77.02  0.003926182    3.861    0.741
        52 -11.8482    212.0699    122.1054   7.7862998532e+01   1.4054093429e+01    0.7344443    0.4652824 -69.65  0.002762878    3.022    0.669
        53 -11.6008    211.6427    114.7056   7.6126942335e+01   1.5396270324e+01    0.6239066    0.4201642 -56.37   0.00255244    1.880    0.468
        54 -11.8362    203.0116    118.6792   7.8737143824e+01   1.6711277964e+01    0.8564581    0.3734695 -34.69  0.003194453    2.342    0.573
        55 -11.2884    187.3813    138.2379   8.6421716987e+01   1.6780165158e+01    0.6146588    0.2418569 -32.92  0.002093831    3.160    0.684
        56 -11.3720    206.1931    130.8934   8.1060438087e+01   1.3894667405e+01    0.4662187    0.2917525 -44.97  0.002120019    1.725    0.420
        57 -11.2902    201.5872    127.9274   8.1244204853e+01   1.5434657148e+01    0.6668584    0.2853273 -50.81   0.00221531    3.332    0.700
        58  -9.3235    187.6792    172.5152   9.3416453240e+01   1.0842663253e+01    0.2234665    0.1272158 -41.14  0.001069456    1.952    0.488
        59 -12.1963    226.6824    158.1764   8.3343116171e+01   5.2094882409e+00    0.4688746    0.3558062 -47.16  0.002551758    1.594    0.373
        60 -10.5093    192.2786    161.7926   9.0456254185e+01   1.1673912626e+01      0.20891    0.1792966 -64.15  0.001173932    1.411    0.291
        61 -13.1857    196.9777    138.5999   8.4607046198e+01   1.4613233837e+01     1.045847    0.6647758 -45.26  0.004868621    1.698    0.411
        62 -11.5448    195.8739    157.4604   8.8886623987e+01   1.1649451391e+01    0.7448242    0.1963181 -45.47  0.002208902    4.718    0.788
        63 -11.4851    192.1266    149.6173   8.7970579675e+01   1.3761472719e+01    0.5348315    0.1967057 -41.61  0.001950991    2.877    0.652
        64  -8.7732    194.3393    219.3201   1.0003634655e+02   2.7655828966e+00    0.1231402   0.08237673  21.97 0.0006515871    1.714    0.416
        65 -10.5912    182.7127    135.0066   8.6634609272e+01   1.8388591452e+01    0.5645517    0.2330598 -36.43  0.002052092    2.664    0.625
        66  -9.6597    180.0016    140.0071   8.8305865246e+01   1.8068811339e+01    0.2044015    0.1753404 -74.08 0.0006634614    1.374    0.272
        67 -11.2722    184.1276    151.8766   9.0021921012e+01   1.5062404261e+01    0.5488612    0.1614186 -44.49  0.001774957    3.717    0.731
        68 -11.7191    182.2300    144.5521   8.8846935991e+01   1.6765787774e+01    0.7715395    0.2631769 -35.03   0.00245936    3.744    0.733
        69 -12.2463    234.6126    147.7163   7.9706843317e+01   5.1447571041e+00    0.4667918    0.3936144 -63.12  0.002536968    1.620    0.383
        70 -11.6973    231.0005    142.4835   7.9180621107e+01   6.6702335139e+00    0.3655821    0.2377936 -35.15  0.001458672    1.560    0.359
        71 -10.7451    230.4411    138.2570   7.8328137359e+01   7.4307977213e+00    0.2232005    0.2035033  46.51 0.0008277421    1.180    0.153
        72 -10.1868    170.5375    150.7778   9.2531559442e+01   1.8107878580e+01    0.2656637    0.2088014 -77.48  0.001357187    1.612    0.380
        73  -8.8319    162.4727    149.9780   9.4029738526e+01   1.9925488032e+01    0.2091511     0.141344 -46.91 0.0006992499    1.568    0.362
        74 -10.0777    177.3626    146.9504   9.0343856737e+01   1.7371643656e+01    0.2278627    0.1842389 -65.51  0.001041074    1.462    0.316
        75  -9.7285    171.2672    144.9806   9.1172836944e+01   1.9024674897e+01    0.1989411    0.1943072 -48.69 0.0005831829    1.080    0.074
        76 -11.0625    187.7626    154.0896   8.9764503808e+01   1.3913752562e+01    0.5567725    0.1319545 -37.04  0.001507145    5.411    0.815
        77 -10.6184    187.3023    130.4942   8.4666932431e+01   1.8189643405e+01    0.5407367     0.324699 -62.60  0.002109792    2.600    0.615
        78 -12.1804    248.1780    130.0190   7.3436434594e+01   4.9549928996e+00    0.8279002    0.3796712 -30.06   0.00349875    2.106    0.525
        79 -11.8391    241.5068    126.5105   7.3724163320e+01   6.8688773943e+00    0.5638006    0.3044623 -50.71  0.002296018    2.567    0.610
        80 -12.0979    239.6515    141.1741   7.7392766212e+01   5.0769349465e+00    0.5848607    0.4398855 -77.48  0.002808354    2.330    0.571
        81 -12.4543    243.5253    137.0490   7.5810696529e+01   4.8867148525e+00    0.7896369    0.4431877 -42.99  0.003617434    1.992    0.498
        82 -10.0178    175.6477    156.8127   9.2720505976e+01   1.5958142349e+01     0.196101    0.1310741 -53.15 0.0009505833    1.710    0.415
        83  -9.6215    174.5701    140.2847   8.9479972978e+01   1.9190908594e+01    0.2675216    0.1410239 -46.51  0.001119618    2.019    0.505
        84 -12.7006    218.4530    137.3486   8.0267704595e+01   1.0135958747e+01    0.6737555    0.4617404 -40.89  0.003328625    1.539    0.350
        85  -9.0475    171.3938    136.2404   8.9246810646e+01   2.0632214414e+01    0.2598166    0.1854592 -52.41 0.0008370534    1.519    0.342
        86  -9.1485    178.1532    136.1577   8.7827040983e+01   1.9177481746e+01    0.2014955    0.1761364 -78.80  0.000643912    1.328    0.247
        87 -11.1035    233.7126    133.2370   7.6610990707e+01   7.5054235338e+00    0.3353806    0.3011936 -52.59  0.001424064    1.321    0.243
        88 -11.7038    200.7076    109.4785   7.6875019396e+01   1.8850500706e+01    0.6343524    0.3598116 -38.23  0.002675024    1.753    0.430
        89  -8.4489    164.3433    134.2830   9.0298990500e+01   2.2525070614e+01    0.1474781    0.1155064  15.06 0.0005158159    1.637    0.389
        90  -8.8719    178.5219    131.2947   8.6644369777e+01   1.9996738652e+01    0.2739547    0.1437995 -45.09 0.0008111437    1.994    0.499
        91  -9.2404    173.0751    129.1867   8.7291690101e+01   2.1596286898e+01    0.3256616    0.2102254 -45.21  0.001163182    1.603    0.376
        92  -8.8772    159.4786    129.9967   9.0382389017e+01   2.4402224208e+01    0.2236675    0.1456451 -44.46 0.0007141824    1.575    0.365
        93  -9.0717    165.8688    126.6926   8.8242851649e+01   2.3659952406e+01    0.2603317    0.2055448 -30.80  0.001043302    1.380    0.275
        94 -11.5371    226.8386    123.3626   7.5494047487e+01   1.0535641201e+01    0.5126882    0.2947153 -44.06  0.002184828    1.885    0.469
        95  -9.9311    188.4916    123.2508   8.2709659396e+01   1.9232702812e+01    0.3544966    0.2647623 -46.83  0.001071583    1.410    0.291
        96  -8.8363    176.5168    124.0122   8.5352468570e+01   2.1804926169e+01    0.2310587    0.1481994 -40.88  0.001033072    1.593    0.372
        97 -13.4409    221.2520    149.2472   8.2408300417e+01   7.6680523805e+00    0.9340543    0.7136431 -37.08  0.005048494    1.385    0.278
        98  -9.0995    181.9206    119.8031   8.3212313716e+01   2.1364990747e+01    0.2694226    0.2148212 -38.34   0.00082194    1.276    0.216
        99  -8.6344    157.0000    119.9338   8.8583371825e+01   2.6925651440e+01    0.2474712    0.0849888 -43.15 0.0008029598    2.946    0.661
       100  -8.2209    162.0000    117.9472   8.7000293761e+01   2.6217853744e+01    0.2429271   0.08564083 -42.08 0.0007921478    2.872    0.652
       101  -8.6208    170.4126    122.2552   8.6221141829e+01   2.3507599941e+01     0.211418    0.1402115 -53.01   0.00093982    1.659    0.397
       102 -11.7265    232.1619    116.0386   7.2804225280e+01   1.0510344501e+01    0.4555204    0.3444021 -60.95  0.002229725    1.726    0.421
       103  -9.7610    185.1461    115.4859   8.1482999788e+01   2.1418810286e+01    0.3031844    0.2164868 -47.84  0.001067094    1.476    0.323
       104  -8.2435    152.6509    114.3124   8.8195087661e+01   2.8996020641e+01     0.155713    0.1188341 -88.82 0.0007046051    1.719    0.418
       105  -8.3390    146.2317    113.9722   8.9577746507e+01   3.0448755986e+01    0.2013396    0.1228426 -45.54 0.0007922818    1.633    0.388
       106  -9.0398    176.0235    112.2055   8.2552391650e+01   2.4142214105e+01    0.2773224    0.2193931 -38.58 0.0008354741    1.277    0.217
       107  -9.0253    167.9013    111.8297   8.4194674381e+01   2.6079898399e+01    0.2954473    0.1993456 -44.68  0.001340108    1.499    0.333
       108  -8.4335    162.4097    111.1746   8.5230551793e+01   2.7453064102e+01     0.217748    0.1400967 -53.25 0.0009386556    1.700    0.412
       109 -12.1863    212.1212    140.0757   8.2053703448e+01   1.1064132116e+01    0.7328192    0.4885977 -77.49  0.002855219    3.169    0.684
       110  -8.8681    183.0881    108.3496   8.0094387855e+01   2.3212882625e+01    0.2757338     0.200481 -27.94  0.000896168    1.464    0.317
       111  -9.5583    189.9884    107.3806   7.8442255542e+01   2.1759742714e+01    0.3566814    0.2255104 -35.60  0.001536342    1.592    0.372
       112  -8.6936    173.4953    108.0324   8.2022099000e+01   2.5517249762e+01     0.235543     0.150821 -39.01 0.0008348563    1.571    0.364
       113 -11.3706    222.3045    105.1400   7.1800413396e+01   1.4502518769e+01    0.4534871    0.2363773 -44.91  0.001308968    2.062    0.515
       114 -11.8306    211.8669    105.1973   7.3683118250e+01   1.6945947900e+01    0.4861135    0.3322744  23.36  0.002143019    1.811    0.448
       115 -11.4280    204.0014    104.7518   7.5031656524e+01   1.8889859895e+01    0.4829966    0.3435871 -84.90  0.002035456    2.194    0.544
       116 -12.6091    206.8450    147.9511   8.4786186912e+01   1.0908403721e+01     1.033705    0.5758062  72.20  0.003287787    4.547    0.780
       117  -9.1171    193.5871    101.3378   7.6147887480e+01   2.1982244719e+01    0.2892892    0.1427975 -40.30 0.0008270382    2.012    0.503
       118  -8.5216    174.6297    101.8481   8.0161525913e+01   2.6417694026e+01    0.2207338    0.1400983 -47.84 0.0007429246    1.651    0.394
       119  -9.1382    167.8458    100.5187   8.1266359942e+01   2.8264091506e+01    0.3246492    0.1909191 -52.58  0.001311425    1.936    0.483
       120  -8.8405    160.4747    100.5053   8.2890264480e+01   2.9975823023e+01    0.2895995    0.1363298 -50.45  0.001034427    2.415    0.586
       121 -12.4648    220.6300     95.4908   6.9607931353e+01   1.6466904039e+01    0.5113781    0.4605994   7.53  0.001696721    1.139    0.122
       122  -9.1684    169.6132    215.7890   1.0380023991e+02   7.5662106989e+00    0.1528289    0.1148338 -65.98 0.0009557781    1.743    0.426
       123  -8.8659    188.4994     92.9675   7.4905758499e+01   2.4704333866e+01    0.2403076    0.1519126 -35.24   0.00102767    1.574    0.365
       124  -8.8347    177.4529     93.0187   7.7175976796e+01   2.7381761461e+01    0.2433321     0.150827 -38.12 0.0008233859    1.601    0.375
       125  -9.1759    158.6597     91.1415   8.0740533954e+01   3.2204108393e+01    0.2502326    0.1892746 -55.09 0.0009526721    1.428    0.300
       126 -12.0026    209.6871    144.4442   8.3483477198e+01   1.0874884227e+01    0.6414642    0.3369279  58.64  0.002608588    2.334    0.572
       127  -8.7138    168.5176     90.0704   7.8258938336e+01   3.0077092547e+01    0.2417562    0.1510952 -39.03  0.001028134    1.585    0.369
       128  -8.5978    142.5051     90.5079   8.4325923746e+01   3.5994699156e+01    0.1504903    0.1464977 -56.61 0.0001518956    1.022    0.021
       129  -8.9677    151.3623     88.5561   8.1684794709e+01   3.4387599446e+01    0.3088942    0.1217294 -51.10 0.0009504856    3.260    0.693
       130  -9.7093    181.9056    126.0303   8.4715699763e+01   2.0216147026e+01    0.4974624    0.1974625 -40.11  0.001778467    2.575    0.612
       131  -9.2393    148.4575     95.4665   8.4282138694e+01   3.3690243157e+01    0.2902527    0.1349833 -51.52  0.001031891    2.465    0.594
       132  -9.3848    170.3750     83.1299   7.5884773218e+01   3.0906925436e+01    0.2291676    0.1385738 -46.64 0.0009414959    1.724    0.420
       133  -9.2133    150.3810     79.2451   7.9214937939e+01   3.6391696368e+01    0.2817649    0.1889045 -47.06 0.0009058233    1.520    0.342
       134  -9.1019    158.4805     82.5255   7.8321940496e+01   3.3877184656e+01    0.2806804    0.1360761 -47.96  0.001023903    2.245    0.555
       135  -8.1792    171.6544     95.3175   7.9035915307e+01   2.8347741867e+01    0.1605061    0.1231925 -78.86 0.0007048668    1.723    0.420
       136  -8.7954    157.5800     75.8152   7.6540438080e+01   3.5330634672e+01    0.2275013    0.1398785 -47.46 0.0009485648    1.705    0.414
       137  -9.3258    139.6722     74.3286   8.0291973997e+01   3.9763449560e+01    0.2389828    0.1831185 -74.77  0.001099119    1.729    0.422
       138  -8.6223    151.3167     72.6652   7.7015657591e+01   3.7392284332e+01    0.1582593    0.1211425 -72.20 0.0006768018    1.694    0.410
       139  -9.1470    133.1597     70.1679   8.0622452183e+01   4.1990895244e+01    0.2136864    0.1817424 -68.82   0.00101317    1.366    0.268
       140  -9.0406    145.5096     68.0000   7.6930413683e+01   3.9598737361e+01    0.2386366    0.1467285 -38.22 0.0007992164    1.587    0.370
       141  -9.0519    136.3287     63.6761   7.7776391261e+01   4.2480011041e+01    0.1531363    0.1192972 -73.45 0.0007049639    1.697    0.411
       142 -10.0034    122.3463     59.9252   8.0120576170e+01   4.6207425595e+01    0.2547373    0.2215261  14.76 0.0004186312    1.220    0.181
       143  -8.6296    141.3139     62.6585   7.6233697627e+01   4.1525385566e+01     0.155402    0.1190596 -69.92 0.0007047259    1.704    0.413
       144  -8.8847    150.8256     66.2318   7.5133356520e+01   3.8664575875e+01    0.2611924    0.1657666 -72.36 0.0009498202    2.804    0.643
       145  -9.0236    137.9800    231.5602   1.1120233875e+02   1.0586967685e+01    0.1574523     0.133461  66.37 0.0003219917    1.134    0.118
