#   1 NUMBER                 Running object number                                     
#   2 MAG_AUTO               Kron-like elliptical aperture magnitude                    [mag]
#   3 X_IMAGE                Object position along x                                    [pixel]
#   4 Y_IMAGE                Object position along y                                    [pixel]
#   5 X_WORLD                Barycenter position along world x axis                     [deg]
#   6 Y_WORLD                Barycenter position along world y axis                     [deg]
#   7 A_WORLD                Profile RMS along major axis (world units)                 [deg]
#   8 B_WORLD                Profile RMS along minor axis (world units)                 [deg]
#   9 THETA_WORLD            Position angle (CCW/world-x)                               [deg]
#  10 FWHM_WORLD             FWHM assuming a gaussian core                              [deg]
#  11 ELONGATION             A_IMAGE/B_IMAGE                                           
#  12 ELLIPTICITY            1 - B_IMAGE/A_IMAGE                                       
         1 -14.1513    179.8652     33.7706   6.8658354626e+01   3.6347521229e+01     1.192799     0.983561  10.93  0.004476558    1.644    0.392
         2 -12.6916    184.1004     27.1460   6.6349095713e+01   3.6139340447e+01    0.5028354    0.4600467  70.89  0.001254222    1.121    0.108
         3 -14.6268    146.4479      7.4572   6.6573911230e+01   4.7112913925e+01     1.625374     0.900286  74.12  0.005603555    1.746    0.427
         4 -12.7214    200.0418      3.1610   5.8708490264e+01   3.4992507484e+01    0.7449389    0.3600256  70.41  0.003807002    1.734    0.423
         5 -11.6581     94.6209      3.1076   7.5286531335e+01   5.8771950315e+01    0.5060118    0.1876074  54.36  0.002377919    2.202    0.546
         6 -10.5190    179.9342      1.4871   6.0467506485e+01   3.9819545711e+01    0.3331144    0.1053453  70.49  0.001348311    2.675    0.626
         7  -9.8481    164.2213    205.5848   1.1305941948e+02   6.7068345610e+00    0.2354058       0.1972 -48.00 0.0003231521    1.270    0.213
         8 -12.3169    203.7688    247.5660   1.1220995977e+02  -7.5054103099e+00    0.4934707    0.4272977   0.59  0.001943763    1.126    0.112
         9 -10.4293    194.6187    250.5346   1.1442808953e+02  -6.4890664783e+00    0.4154244    0.1077783  37.52  0.001480355    3.482    0.713
        10 -15.5043    153.8234    247.8244   1.2196543016e+02   7.0919078802e-01     5.009498     1.897178  40.52   0.02143948    2.258    0.557
        11 -19.5347     35.8353    143.9045   1.3349045874e+02   4.1809198517e+01     19.86277     4.928505 -68.15   0.06427755    3.883    0.742
        12 -11.3063    184.1491    216.1572   1.1076872354e+02   1.0055329433e+00    0.3211045    0.2389997  78.43  0.001575987    2.116    0.527
        13 -11.9898     71.8871    203.3008   1.3297417154e+02   2.3188569342e+01    0.4142593    0.3170273 -56.70  0.001423422    1.438    0.305
        14  -9.9431     65.9168    208.7854   1.3489806762e+02   2.2803993138e+01    0.2846678    0.1982738  18.29  0.001473285    2.303    0.566
        15 -10.8885    139.6532    201.3369   1.1767719841e+02   1.2209255293e+01    0.2321951    0.1682328  75.82  0.001107948    1.713    0.416
        16 -11.4869    193.5287    193.3890   1.0456998323e+02   3.5391075372e+00    0.7583573    0.4575084 -56.22  0.003364719    2.067    0.516
        17 -11.8025    134.4858    197.8578   1.1823179755e+02   1.3924682540e+01    0.3814425     0.205175 -42.20  0.001596622    2.193    0.544
        18 -11.7195    103.7628    194.9073   1.2471004712e+02   2.0084677791e+01     0.416191    0.3083045  38.42  0.001561201    1.413    0.292
        19 -11.9653     80.8825    192.6149   1.2957513160e+02   2.4311082318e+01    0.6625601    0.3915004  59.98  0.002571944    1.760    0.432
        20 -12.0526     81.9162    188.2083   1.2871023692e+02   2.5184947749e+01    0.6672812    0.4479831  55.56  0.002659137    1.457    0.314
        21  -9.4185     90.6248    193.9991   1.2756296509e+02   2.2465380560e+01    0.2677686     0.169773  66.78  0.001188965    1.720    0.419
        22  -9.3673    180.0059    192.2930   1.0718937077e+02   6.3500915202e+00    0.2024703    0.1826443  43.72  0.000485037    1.096    0.088
        23 -12.4258    126.4190    191.2162   1.1891261515e+02   1.6895805726e+01    0.4082167    0.3326187 -53.00  0.002160108    1.277    0.217
        24 -10.6093     87.2893    183.0735   1.2668942622e+02   2.5560683246e+01    0.6077445    0.2492359  35.07  0.001778545    2.714    0.632
        25  -9.4234     91.8876    185.0848   1.2592222892e+02   2.4346783112e+01    0.2166589    0.1705697  75.62 0.0003581711    1.254    0.203
        26 -11.1334    207.7049    180.2903   9.9045943689e+01   3.3519963568e+00    0.7739577    0.4107053  23.79  0.002881491    2.930    0.659
        27 -10.8245     98.6568    180.8042   1.2363417853e+02   2.4240278792e+01    0.3853124    0.2461126  35.26  0.001586939    1.712    0.416
        28  -9.1008     62.4848    216.5270   1.3646187383e+02   2.1571486952e+01    0.2541277    0.1458873  62.99  0.001332605    1.656    0.396
        29 -11.0849    196.1366    171.1288   9.9471386130e+01   7.4240284047e+00    0.3720177    0.3453416 -14.83  0.001064952    1.073    0.068
        30 -11.2606    136.0566    179.3949   1.1452020896e+02   1.7749899414e+01    0.3465158    0.1419537  41.70  0.001098343    2.399    0.583
        31 -12.7904    136.2193    171.7716   1.1299636964e+02   1.9465530069e+01    0.6859306    0.4246593  28.89  0.002700401    2.001    0.500
        32 -12.3830    128.5579    175.4340   1.1553280026e+02   2.0105721017e+01    0.4891421    0.3184724 -49.81  0.002233316    1.555    0.357
        33 -12.5118    118.7259    173.5343   1.1752996874e+02   2.2404598556e+01    0.5351647    0.3087008  47.90  0.002261628    1.730    0.422
        34 -12.1750    101.3020    169.6526   1.2106702075e+02   2.6455147746e+01    0.5946459    0.3854268 -74.26  0.002700405    1.710    0.415
        35 -12.2516      2.7269    164.4122   1.4385072200e+02   3.9927362856e+01    0.5098842    0.2378646 -63.26  0.002681732    1.732    0.422
        36 -10.5523     64.3322    213.2008   1.3572402581e+02   2.2045240506e+01    0.3552806    0.2590984 -88.13  0.001471685    1.221    0.181
        37  -9.2530    120.0129    163.6766   1.1531148925e+02   2.4498766169e+01    0.2104858    0.1886598  57.40 0.0004374671    1.109    0.098
        38 -11.0253     97.3302    161.8681   1.2063447819e+02   2.9017767305e+01    0.2910847    0.2448447 -71.44 0.0004291915    1.124    0.110
        39  -9.1303    115.2191    162.4007   1.1624718747e+02   2.5702620822e+01    0.2046856    0.1378996  53.55 0.0002844023    1.544    0.352
        40 -12.5318    102.1541    154.2710   1.1794467766e+02   3.0029015308e+01    0.7757477    0.4555199 -37.54  0.003193642    2.143    0.533
        41  -9.8397    120.0712    156.4618   1.1383172066e+02   2.6207375932e+01    0.2348345    0.1495367  43.82  0.001028381    1.592    0.372
        42 -12.3812    133.9209    145.5787   1.0800083149e+02   2.6036626424e+01     1.228933    0.3189847 -54.16  0.003003277    4.961    0.798
        43 -11.8382    242.2706    215.3671   9.9371414938e+01  -8.6646288903e+00     0.415775    0.2457685  25.11  0.002206431    1.734    0.423
        44 -11.5422    145.3423    146.1521   1.0532285194e+02   2.3525055815e+01    0.3816072    0.3175006  62.52  0.000486609    1.269    0.212
        45  -9.7764    206.9136    146.1933   9.1815653172e+01   1.0238035309e+01    0.2311001    0.2054521 -81.04  0.001216547    1.279    0.218
        46 -11.7756    111.4631    139.8945   1.1248946256e+02   3.1805914310e+01     0.536548    0.3305913 -33.01  0.002185307    2.091    0.522
        47 -11.5443    100.4950    139.9780   1.1542372660e+02   3.3783473909e+01    0.2943499     0.267161 -49.33 0.0003802462    1.095    0.087
        48  -9.8923    220.9786    137.3311   8.7165681690e+01   9.0512200581e+00    0.2944385    0.2270962  78.25  0.001251549    1.673    0.402
        49 -10.9022    106.0891    130.8816   1.1188336861e+02   3.4951792750e+01     0.374946     0.320134 -75.16  0.001236607    1.226    0.184
        50 -10.3709    105.5517    126.6269   1.1103518277e+02   3.6055070661e+01    0.3085037    0.2427722 -32.45 0.0008873452    1.392    0.282
        51 -11.0876    117.5614    130.2045   1.0864643287e+02   3.2929661945e+01    0.3697745    0.2728055 -30.43 0.0009800779    1.579    0.367
        52 -11.5823    135.1503    122.8684   1.0227658248e+02   3.1010568425e+01    0.7404966    0.1938273 -49.47  0.001975157    4.028    0.752
        53 -10.9138    126.3634    127.6993   1.0573141589e+02   3.1747091257e+01    0.3621982    0.2386139  72.24  0.001427895    2.251    0.556
        54 -10.8261     71.6987    213.4489   1.3422854254e+02   2.0945721977e+01    0.3767249    0.2350401  89.12  0.001253173    1.645    0.392
        55  -9.6413    112.0220    119.0790   1.0742819763e+02   3.6586554814e+01    0.2259396    0.2204051 -68.46  0.000319328    1.026    0.026
        56 -10.7801    159.5565    208.0461   1.1449697889e+02   7.0899823592e+00    0.4117495    0.2712775 -82.25  0.001740643    2.591    0.614
        57 -10.0792    168.5514    113.4610   9.1922549486e+01   2.5566338041e+01    0.3773501    0.2655388 -75.17  0.001092295    1.920    0.479
        58 -10.3415    160.9527    127.4566   9.7159481727e+01   2.4315520055e+01    0.3558195    0.1960557 -61.21   0.00126946    2.438    0.590
        59  -9.9783    205.5284    110.1936   8.3658322904e+01   1.7680455347e+01    0.2681993    0.2133487  55.90 0.0006347199    1.314    0.239
        60 -10.7192     93.2942    207.0762   1.2882223685e+02   1.9062990109e+01    0.3662194    0.2671783 -70.41  0.001110041    1.345    0.257
        61  -9.8682    152.7238    103.0461   9.2804719329e+01   3.1378621002e+01     0.342571     0.221735  68.24  0.001396693    1.979    0.495
        62 -13.0977    165.6384     49.6245   7.5282468131e+01   3.7664668889e+01    0.9143896    0.5727915 -21.96   0.00162287    2.022    0.505
        63 -10.2209     94.0118    199.0723   1.2753770338e+02   2.0752712925e+01    0.3136106    0.1943316  78.53  0.001139765    1.994    0.498
        64 -10.1908     78.4901    232.5460   1.3498370371e+02   1.5880183941e+01    0.2172026    0.2093381  68.03 0.0006366452    1.337    0.252
        65  -9.5143     10.3753    206.2407   1.4573860776e+02   2.9934773735e+01     0.458981    0.2007591  37.19  0.002521477    2.422    0.587
        66 -10.8195     87.4327    224.2286   1.3225214400e+02   1.6261327847e+01    0.3500191    0.2649653  59.31  0.001590683    1.150    0.130
        67 -11.3063    189.6408     14.9214   6.2603596705e+01   3.6204348391e+01    0.2256254    0.1564722  63.38 0.0006821968    1.308    0.235
        68 -12.5827     80.2585    219.5559   1.3317021613e+02   1.8351892387e+01    0.5099887    0.2946568  47.49  0.000427337    1.571    0.364
        69  -9.8600     82.3414    212.4271   1.3187343056e+02   1.9590571193e+01    0.4382817     0.272732  50.08  0.001005668    1.475    0.322
