#   1 NUMBER                 Running object number                                     
#   2 MAG_AUTO               Kron-like elliptical aperture magnitude                    [mag]
#   3 X_IMAGE                Object position along x                                    [pixel]
#   4 Y_IMAGE                Object position along y                                    [pixel]
#   5 X_WORLD                Barycenter position along world x axis                     [deg]
#   6 Y_WORLD                Barycenter position along world y axis                     [deg]
#   7 A_WORLD                Profile RMS along major axis (world units)                 [deg]
#   8 B_WORLD                Profile RMS along minor axis (world units)                 [deg]
#   9 THETA_WORLD            Position angle (CCW/world-x)                               [deg]
#  10 FWHM_WORLD             FWHM assuming a gaussian core                              [deg]
#  11 ELONGATION             A_IMAGE/B_IMAGE                                           
#  12 ELLIPTICITY            1 - B_IMAGE/A_IMAGE                                       
         1 -14.6800    184.9058     43.7153   5.2135191368e+01   3.3342649246e+01     1.243188    0.9588752  10.69  0.003903729    1.600    0.375
         2 -14.6878    208.1711     12.9202   4.0462251158e+01   3.1305486605e+01    0.9591659    0.8367872 -39.98  0.004051855    1.054    0.051
         3 -12.2595     67.9948    248.0003   1.1600872938e+02   1.7279512377e+01    0.1686089    0.1466739 -60.16 0.0008893579    1.579    0.367
         4 -13.0226    248.7726    246.7428   8.5603283245e+01  -4.4766505556e+00    0.4733306     0.183799 -21.84   0.00289092    2.703    0.630
         5 -16.0365     52.5212    227.9302   1.1763276037e+02   2.2227649867e+01     8.493153     7.095446  44.97   0.06737851    1.214    0.176
         6 -11.8483    192.8268    194.7275   8.6747320226e+01   8.2643519322e+00     0.678452    0.3554112 -58.65  0.002322789    6.884    0.855
         7 -11.5387     82.2827    195.1507   1.0894588758e+02   2.4546171272e+01    0.2374815    0.2038284  41.75 0.0007113704    1.146    0.127
         8 -11.1010    167.0480    225.8866   9.5883776681e+01   7.8047631998e+00    0.1683345    0.1511669  -4.74 0.0004779193    1.231    0.188
         9 -13.1940    150.6830    193.0066   9.4372566984e+01   1.4937791688e+01    0.3262588    0.2519278 -57.05  0.002041818    1.604    0.376
        10 -13.5089    147.5455    187.7016   9.4193149509e+01   1.6290865384e+01    0.4216402     0.243981 -45.70  0.001839528    1.930    0.482
        11 -12.1668     89.8377    212.4142   1.0908471428e+02   2.0411209302e+01    0.2639399    0.1885057  56.78 0.0005874512    1.250    0.200
        12 -12.4075     65.4708    191.7360   1.1228128434e+02   2.7363613927e+01     0.330824    0.2326699 -41.92  0.001358396    2.011    0.503
        13 -18.7503     25.8013     96.8332   1.1236547933e+02   5.3899562989e+01     14.94629     1.255848 -71.25   0.02876534   10.371    0.904
        14 -10.4257     60.3710    186.9160   1.1297619412e+02   2.8952937476e+01    0.1784759    0.1523797  18.83 0.0007983713    1.478    0.323
        15 -12.1869     67.3976    205.7001   1.1308792700e+02   2.4452795281e+01    0.3264106    0.2316161  12.93  0.001070509    2.016    0.504
        16 -12.0866    148.9184    176.2266   9.2076227347e+01   1.8012684480e+01    0.2203504    0.1929527 -59.69  0.000576517    1.341    0.254
        17 -12.3520    146.7117    172.6740   9.1938261720e+01   1.8996811938e+01    0.2294206    0.1929558  80.57 0.0006791435    1.542    0.351
        18 -12.1207    186.7365    174.9007   8.4450983682e+01   1.2026320759e+01    0.3011844     0.276502 -20.15 0.0009958592    1.193    0.162
        19 -11.3269     72.1705    202.7524   1.1183452572e+02   2.4412730771e+01    0.2540826    0.1483948  62.18  0.001176323    1.665    0.400
        20 -10.9151      9.0311    161.3380   1.2315490151e+02   3.9709162903e+01    0.2019198    0.1739078 -29.71  0.001073942    1.684    0.406
        21 -10.8169      3.8298    162.2077   1.2444944664e+02   3.9928974545e+01    0.1422973    0.1224524 -78.97 0.0005943464    1.300    0.231
        22 -12.5032     93.9051    155.6617   1.0122769283e+02   3.0960759973e+01    0.2548367     0.247149 -63.03 0.0003981109    1.145    0.127
        23 -13.8745     99.1064    149.5145   9.8938439687e+01   3.1482521908e+01    0.5960773    0.4390304 -28.32  0.002972074    1.851    0.460
        24 -12.8667     75.4957    248.0582   1.1467376852e+02   1.6416811208e+01    0.3235289    0.1424251 -63.56  0.001989301    2.783    0.641
        25 -13.2955    133.8781    145.8065   8.9851025755e+01   2.6290007379e+01     1.073939    0.2837467 -54.38  0.002841348    5.771    0.827
        26 -10.5344    174.6890    149.3251   8.1835941802e+01   1.8176982504e+01    0.1283751    0.1098134 -85.79 0.0003642483    1.658    0.397
        27 -12.3312    107.9357    146.2626   9.6165075467e+01   3.0738650861e+01    0.2519738    0.1915387  87.22 0.0005131786    1.571    0.363
        28 -13.0603     98.2342    136.0464   9.6775309796e+01   3.4622462697e+01    0.4053626    0.3061854 -61.85 0.0009716869    1.320    0.242
        29 -13.1542    109.7874    136.2341   9.3811972851e+01   3.2606515568e+01    0.5440074     0.320888 -34.65   0.00232753    2.272    0.560
        30 -12.7644    106.0071    130.9213   9.3729861401e+01   3.4447742732e+01    0.4038364    0.3472769 -76.58  0.001159573    1.191    0.160
        31  99.0000     13.3442    205.7175   1.2417280340e+02   3.0193961480e+01    0.4317989    0.1739014  37.01  0.002494093    1.986    0.497
        32 -12.2270    116.2005    128.1994   9.0521417615e+01   3.3217047354e+01    0.2846448    0.2482269  -9.28 0.0007464394    1.383    0.277
        33 -11.6694    104.1487    123.5995   9.2699539492e+01   3.6428890315e+01    0.2965198    0.2499926   4.41 0.0007045815    1.515    0.340
        34 -12.3805     59.0474    203.1670   1.1462876566e+02   2.5926954517e+01     0.283893    0.2240551 -32.68  0.001460892    1.937    0.484
        35 -10.7978    111.0457    117.6688   8.9528373194e+01   3.6507300966e+01    0.2018618    0.1854644  49.42 0.0003912542    1.104    0.094
        36 -11.9395     71.5752    240.4858   1.1487709741e+02   1.8024884794e+01    0.1754612    0.1633336 -74.75  0.001137427    1.409    0.290
        37 -10.7639    231.0567    113.9230   6.4316880773e+01   1.3304682928e+01     0.203383    0.1714795 -17.80  0.000798484    1.006    0.006
        38 -10.9600    167.2918    112.3962   7.4932817358e+01   2.6183234293e+01    0.2536095    0.1738228 -56.52 0.0007951726    1.737    0.424
        39 -12.8019    119.7332    110.5103   8.5514274187e+01   3.6416284588e+01    0.4407707    0.3720767 -80.25  0.002248446    1.327    0.247
        40 -10.6593    205.5707    110.2150   6.7355294321e+01   1.8686443515e+01    0.2100412    0.1654194  36.41 0.0006348406    1.352    0.260
        41 -11.4395     72.3083    102.9774   9.7557132849e+01   4.6667859569e+01    0.2075236    0.1809134 -64.97 0.0005031861    1.065    0.061
        42 -10.1980      1.7473     91.9996   1.2048638173e+02   5.6844070851e+01    0.1731349    0.1358625 -83.83 0.0004752188    1.018    0.018
        43 -13.6530    170.2264     57.5519   5.8713838445e+01   3.4968806765e+01    0.5183402    0.4485697 -43.88 0.0008233854    1.088    0.081
        44 -11.5286     83.5345    239.3611   1.1259921464e+02   1.6790694087e+01    0.1684171    0.1287684  47.17 0.0002530387    1.015    0.015
        45 -13.2340    190.2822     37.1925   4.9434362465e+01   3.2873046303e+01    0.5510888    0.4348621  21.08  0.001581742    1.548    0.354
