#   1 NUMBER                 Running object number                                     
#   2 MAG_AUTO               Kron-like elliptical aperture magnitude                    [mag]
#   3 X_IMAGE                Object position along x                                    [pixel]
#   4 Y_IMAGE                Object position along y                                    [pixel]
#   5 X_WORLD                Barycenter position along world x axis                     [deg]
#   6 Y_WORLD                Barycenter position along world y axis                     [deg]
#   7 A_WORLD                Profile RMS along major axis (world units)                 [deg]
#   8 B_WORLD                Profile RMS along minor axis (world units)                 [deg]
#   9 THETA_WORLD            Position angle (CCW/world-x)                               [deg]
#  10 FWHM_WORLD             FWHM assuming a gaussian core                              [deg]
#  11 ELONGATION             A_IMAGE/B_IMAGE                                           
#  12 ELLIPTICITY            1 - B_IMAGE/A_IMAGE                                       
         1 -11.8950     89.5172     57.0931   7.0936177350e+01   5.3752547845e+01     1.466857     1.128854  83.36  0.006721132    2.108    0.526
         2 -12.4465     74.0352     51.2309   7.4055008381e+01   5.7635036514e+01     1.266168    0.5867828 -48.09  0.005220779    2.580    0.612
         3 -10.7439     79.2754     33.7840   6.5450283013e+01   5.9352968353e+01     0.901675    0.5738737  22.33  0.004581871    1.718    0.418
         4  99.0000     67.5020     31.7563   6.8717699094e+01   6.1809039622e+01    0.6746345    0.4304616 -40.94  0.003621302    1.765    0.434
         5 -12.0096     26.2051     56.4268   9.5266433904e+01   6.3113195584e+01       1.1777     0.831126   1.81  0.007101267    1.499    0.333
         6 -13.2109     42.6512     45.6829   8.4354615065e+01   6.3373560090e+01     0.791249    0.6131796  53.46 0.0007404182    1.929    0.482
         7 -11.5593     49.1312     30.5111   7.5431996552e+01   6.4978540816e+01    0.7901194    0.3762273  41.69  0.003850859    2.247    0.555
         8 -12.1983    124.7339     27.9300   5.1056024651e+01   5.0177990753e+01     0.847478     0.486041  50.79  0.003026394    1.562    0.360
         9 -12.5110    117.7542     43.4249   5.8027156888e+01   4.9830456216e+01      1.07164    0.6022184  64.99  0.002759353    2.055    0.513
        10 -11.4384    164.7394     18.5372   4.1275614206e+01   4.1494669398e+01     0.910484     0.467073  26.64  0.003412056    3.897    0.743
        11 -12.5970    119.2303     37.7394   5.5690794733e+01   5.0261436594e+01    0.8711293    0.6140745 -87.49   0.00357336    2.055    0.513
        12 -11.5093      8.1237     32.4363   9.5885717603e+01   6.9166093894e+01     2.047385    0.4184497 -47.90  0.008311843    3.218    0.689
        13 -11.9145     26.8977     27.8510   8.4489370723e+01   6.8261683912e+01    0.5179988    0.4162862  15.65  0.002527695    1.279    0.218
        14 -12.0793     36.6099     17.6382   7.5158693147e+01   6.8585148671e+01    0.7244916    0.6166531  -3.29  0.005122749    1.154    0.134
        15 -12.2940     48.5958     12.9522   6.7596819155e+01   6.7401155513e+01     0.564496    0.4178596  21.21  0.001655393    1.153    0.133
        16 -11.8227     20.1593     21.6108   8.5184200520e+01   6.9962408978e+01    0.6953121    0.2348642 -40.10  0.003251704    2.537    0.606
        17 -12.6586     17.1301     12.4774   8.2524913380e+01   7.1639607062e+01    0.7650004    0.4937018 -19.11  0.003576352    1.292    0.226
        18 -12.0655     22.7687     11.6032   7.9063846337e+01   7.1143654034e+01     0.516809     0.341534  -6.13  0.002606926    1.339    0.253
        19 -11.2504    154.4938     23.5954   4.4243994074e+01   4.3457009408e+01    0.8714603    0.4936474  29.62  0.003797017    2.608    0.617
        20 -10.4535    147.1478     16.6491   4.3279111568e+01   4.5982004728e+01    0.4969356    0.2962206  45.43  0.002507776    1.704    0.413
        21 -11.4603    136.5695     22.8137   4.7018261884e+01   4.7911969965e+01    0.9643781    0.3294525  52.67  0.003757605    2.500    0.600
        22 -12.0682    131.1974     14.8117   4.5351202103e+01   5.0020449414e+01     1.341683    0.5212098  67.51  0.005424808    2.463    0.594
        23 -11.2895    105.9234     20.3842   5.2572593389e+01   5.5361500369e+01     0.454376    0.3872896 -26.41  0.001272392    1.290    0.225
        24 -10.8379    198.5426     29.2509   3.9915556194e+01   3.2149900446e+01    0.5146516    0.3807874 -40.35  0.002292331    1.358    0.263
        25 -10.7525    213.5995     25.2193   3.7354010617e+01   2.9163601579e+01    0.4814063     0.334748  31.84  0.002366555    2.263    0.558
        26 -11.1117     87.2175      7.5376   5.2174610058e+01   6.0688594447e+01    0.5445501    0.3400144  62.04  0.002023105    1.611    0.379
        27 -11.2187     90.8393     21.2309   5.6816538935e+01   5.8566119425e+01    0.5728967    0.3596626 -25.24  0.002323394    1.692    0.409
        28 -11.3427     86.1267     14.2457   5.5275152401e+01   6.0288997899e+01    0.7381753    0.4243644  17.68  0.003177635    2.128    0.530
        29 -10.9844    178.8945     21.0886   4.0144472876e+01   3.7782042926e+01    0.5549002    0.2528562  47.78  0.001670442    2.519    0.603
        30 -11.8717     68.2081     18.0163   6.2514464059e+01   6.3426378522e+01    0.4934926    0.3996376  30.43  0.001836047    1.096    0.087
        31 -12.0125    238.1832     15.7001   3.3157648027e+01   2.4923813909e+01     0.745711    0.3607987  74.07  0.004008363    1.981    0.495
        32 -11.1220    226.4497     15.1366   3.3948437855e+01   2.7483462431e+01    0.4871058    0.2701601 -69.81  0.001625642    1.721    0.419
        33 -11.5784    192.3626      9.2530   3.5616251401e+01   3.5822591062e+01     0.951496    0.4736767 -16.33  0.004328548    2.979    0.664
        34 -12.2173    104.5353     12.7301   4.9996156780e+01   5.6434866147e+01    0.4758945    0.4718008 -77.98  0.002443099    1.177    0.150
        35 -11.5398    241.8952      3.7135   3.0468890982e+01   2.5473577376e+01    0.5462405    0.4238153 -86.62  0.003866103    1.154    0.134
        36 -11.8401    245.4991      8.5213   3.1190735404e+01   2.4221064187e+01    0.5304565    0.2893933 -23.75  0.002866658    2.472    0.595
        37 -10.8884    248.4573      5.0362   3.0317873661e+01   2.4003592960e+01    0.3142378    0.2403629  45.31  0.002092663    1.965    0.491
        38  -9.8952      4.7009     12.5665   8.9641785969e+01   7.2760054581e+01    0.2558483    0.1820823  11.44  0.001836126    1.388    0.279
        39  -9.2572      5.3555      9.3034   8.7704456794e+01   7.3202214035e+01    0.1657765   0.08889186 -36.17 0.0005945526    1.527    0.345
        40 -10.9081    211.5222     10.7670   3.4219167833e+01   3.1260100372e+01    0.3206274    0.2803724  14.35  0.001488334    1.647    0.393
        41 -10.3981    213.4312      5.7420   3.2926442999e+01   3.1356140962e+01    0.2228775    0.2029882 -84.15 0.0007482781    1.186    0.157
        42 -10.2173     65.7053     10.2522   5.9850711797e+01   6.4726255085e+01    0.2855509    0.2011447  52.52 0.0009570548    1.499    0.333
        43  -9.9800     62.9901      6.6319   5.9088618464e+01   6.5585304088e+01     0.327412    0.2035536  27.29  0.001391592    1.464    0.317
        44  -9.7135    168.5163      9.9372   3.8385171863e+01   4.1441947426e+01    0.4099469     0.124091  56.85  0.001598704    2.817    0.645
        45  -8.8010    163.1985      9.8311   3.9010596722e+01   4.2739250632e+01    0.1745038    0.1607456 -85.61 0.0006032105    1.082    0.076
        46  -9.1781      1.0000      8.1813   8.9795352428e+01   7.3714492053e+01    0.2897414   0.06249515 -45.98  0.001116359    3.672    0.728
        47 -11.4125      2.8382      1.9705   8.5513145016e+01   7.4467682882e+01     0.404383    0.1748823  14.80  0.002222842    2.456    0.593
        48 -10.3241     12.5486      1.7680   7.9544678687e+01   7.3569451374e+01     0.315972    0.1367641  27.61  0.001448111    2.217    0.549
        49 -12.0629    234.1551      6.2557   3.1496679779e+01   2.6809351831e+01    0.8082185    0.3917067 -88.51   0.00425513    2.022    0.505
        50 -10.9523    218.7629      3.2950   3.1974952657e+01   3.0425866722e+01    0.3125516    0.2438924 -38.51  0.001045649    1.387    0.279
        51 -10.7778    223.6496      1.8988   3.1319541656e+01   2.9503057689e+01    0.3768327    0.1899223  77.37  0.001307761    1.788    0.441
        52  -9.3981     78.4773      7.5318   5.4592896261e+01   6.2499214445e+01    0.2686073     0.155522  57.06  0.001281483    1.676    0.403
        53 -11.1488     75.1622      3.3273   5.3696460544e+01   6.3534007562e+01    0.6391894    0.2642531  49.10   0.00309492    1.968    0.492
        54 -10.6386    184.0550      4.9173   3.5352725665e+01   3.8202004577e+01    0.4279877    0.2930447 -41.69  0.001919036    1.492    0.330
        55  -9.4843    153.2055      7.1644   3.9538674501e+01   4.5407630240e+01    0.2864589    0.1408561  58.11  0.001387878    1.756    0.431
        56 -11.0213    176.9142      5.7996   3.6318286837e+01   3.9815961284e+01    0.3931294    0.1956047  83.76 0.0009113551    1.976    0.494
        57  -9.3599    169.8690      3.3285   3.6425852914e+01   4.1728025563e+01    0.2615711    0.1599079 -75.23   0.00137991    1.711    0.416
        58  -9.9018    116.9814      2.7549   4.3770396855e+01   5.4430532602e+01    0.4674246    0.3131939  39.15  0.002668564    1.442    0.306
        59 -10.8854    105.5054      1.8432   4.5649402410e+01   5.7138087311e+01    0.4915607    0.3315289 -86.31   0.00208682    1.970    0.492
        60 -10.4253    109.9768      2.0000   4.4816649512e+01   5.6107296717e+01    0.4395061    0.1635533  63.58   0.00189446    2.293    0.564
        61 -10.4947     41.7062      4.2346   6.6133971087e+01   6.9454360914e+01    0.3598034    0.1999192   8.32  0.001934297    2.054    0.513
        62 -10.1667    122.5923      5.0425   4.3565718931e+01   5.2933740185e+01    0.3854911    0.1495513  65.24 0.0003959221    2.222    0.550
        63 -12.1137    134.2805      2.5245   4.0808844964e+01   5.0361369488e+01    0.4182275    0.2419551  72.72 0.0005809705    1.564    0.361
        64  -9.8896    142.5888      3.2390   3.9814273789e+01   4.8310029306e+01    0.3994757    0.1972233  73.80  0.001905839    1.859    0.462
        65  -9.2614     54.0328      4.0007   6.1035073164e+01   6.7443875286e+01    0.1661332    0.1470208  76.67 0.0009393249    1.773    0.436
        66 -11.0668    207.5710      2.5165   3.2668358376e+01   3.2994008999e+01    0.2647609    0.1923278  82.84 0.0001991704    1.203    0.168
        67 -10.2372    203.6997      1.6590   3.2786054342e+01   3.3953966110e+01    0.2959453    0.1426516  65.57  0.001069513    1.892    0.471
        68  -9.7530    158.5941      2.4455   3.7483681104e+01   4.4516936232e+01     0.340066    0.1765278  46.54  0.001668107    2.047    0.512
        69  -8.7100     30.1320      1.7407   7.0128197706e+01   7.1424200627e+01    0.1622446    0.1060275   4.44  0.001039939    1.362    0.266
        70  -9.1647    122.7132      1.3452   4.2272302645e+01   5.3197793272e+01    0.2458313     0.109422  70.63 0.0009127597    2.102    0.524
        71 -10.3279     82.2252      1.3129   5.0847019490e+01   6.2253337577e+01    0.1972249   0.09624667  55.07 0.0003514776    1.744    0.427
        72  -9.2012    151.7698      1.3446   3.8010528892e+01   4.6253975886e+01    0.2455745    0.1076971  74.31 0.0007262201    2.067    0.516
        73  -9.3830    234.5287    150.1839   6.3118460489e+01   5.0252836024e+00    0.2630022    0.1707478   3.95  0.001210198    2.274    0.560
        74  -9.5456    216.6776    250.2974   8.5006803757e+01  -7.8048301977e+00    0.1030617   0.08901821  42.95 0.0003982188    1.622    0.384
        75 -10.8494    249.1581    141.7816   5.9015100699e+01   3.9261771840e+00    0.5280983    0.2356573 -33.05  0.002333256    2.040    0.510
        76 -10.0160    239.8481    146.6792   6.1503697998e+01   4.6975475519e+00    0.2499536    0.1754475 -38.97 0.0006429288    1.260    0.206
        77  -9.0018    107.7991    145.8445   9.0120190921e+01   3.0856590027e+01    0.2104786    0.1771581  85.60  0.000382851    1.332    0.249
        78 -10.7424     33.5238    144.3813   1.1079991033e+02   4.1807710585e+01    0.4380587    0.2687259  53.41  0.001903255    1.764    0.433
        79  -8.9378    233.6969    143.3238   6.1791425393e+01   6.3572862955e+00    0.1336452    0.1035753 -62.96 0.0007030758    1.637    0.389
        80  -9.9030    133.0371    140.6322   8.2292262634e+01   2.7214959948e+01    0.3194416    0.2367339 -51.03 0.0009318063    1.342    0.255
        81  -9.9577     27.4522    140.0045   1.1192873275e+02   4.3476423265e+01    0.3960071     0.194873 -68.43  0.001057651    1.703    0.413
        82 -11.8482     29.9623    132.9844   1.1023400219e+02   4.4986988876e+01    0.6246079    0.3836882  89.51 0.0003372636    1.749    0.428
        83 -10.1332     25.5010    135.4842   1.1188563140e+02   4.4772906007e+01    0.3195567     0.165216 -69.09 0.0009431141    1.621    0.383
        84 -10.4314    216.9660    138.1080   6.3507599350e+01   1.0406962839e+01    0.4059226    0.2739503 -51.91  0.001249725    1.580    0.367
        85  -9.9270     79.9570    137.1550   9.6161965023e+01   3.7716959608e+01    0.4750356    0.2879211 -28.05  0.001898126    2.481    0.597
        86 -10.3268     67.1621    135.8830   9.9671449207e+01   3.9925229554e+01    0.4098818    0.2165973 -46.29  0.001632778    1.920    0.479
        87 -10.0809     39.9614    138.1695   1.0807148848e+02   4.2695540233e+01    0.2799313    0.2010496  26.61  0.001334035    1.615    0.381
        88 -10.8362     92.8344    131.1952   9.1146464083e+01   3.7080776467e+01    0.7191722    0.2994396 -55.92  0.002590451    2.355    0.575
        89  -9.7862    244.8056    134.5834   5.8157757195e+01   5.8766135973e+00    0.1626916    0.1321198  67.66 0.0004707066    1.616    0.381
        90  -9.3215     38.9324    133.2448   1.0761511380e+02   4.4035186921e+01    0.2765069    0.1575327  33.79  0.001197382    1.920    0.479
        91  -9.7895     74.1047    132.1530   9.6875827651e+01   3.9853867734e+01     0.313287    0.2156564  16.65  0.001455787    1.860    0.462
        92  -9.9261     61.7783    131.8436   1.0051345683e+02   4.1672845029e+01    0.3964899    0.2787467 -26.50  0.001910849    1.827    0.453
        93 -10.0536    104.1470    130.7715   8.7801257884e+01   3.5167773129e+01    0.2849457    0.2359557 -15.34  0.001388655    1.455    0.313
        94 -10.6796     10.0249    127.9193   1.1541789661e+02   4.7855005803e+01    0.4788805    0.2181806 -62.30  0.002197567    1.728    0.421
        95  -9.5561    241.0326    128.1575   5.7352163562e+01   7.6368861946e+00    0.2221997     0.154164  14.15 0.0006695049    2.077    0.519
        96  -9.9756     81.5623    125.2827   9.3174529957e+01   4.0402657884e+01    0.4118735    0.3152539  10.22  0.002001022    1.646    0.393
        97  -9.0027    223.9827    126.9274   5.9792125904e+01   1.1062672088e+01    0.2171045    0.1605264 -62.94  0.000598855    1.627    0.385
        98 -10.1827     22.8599    127.0308   1.1149762337e+02   4.7091036722e+01    0.1917922    0.1728041 -67.36 0.0003414092    1.091    0.083
        99  -9.5760     58.5580    118.2713   9.8815989618e+01   4.5474072531e+01    0.2755975    0.1237789 -54.63 0.0008203461    1.945    0.486
       100  -9.7077     53.4817    124.9112   1.0173753335e+02   4.4468230832e+01    0.3463235    0.1996014 -61.84  0.001178777    1.553    0.356
       101  -9.7112     56.4761    122.0352   1.0024183178e+02   4.4809876194e+01    0.2710888    0.2022229 -35.66 0.0007898226    1.446    0.308
       102  -9.9325     49.3885    123.2481   1.0270142671e+02   4.5373820905e+01    0.3274218    0.2444751   6.37  0.001296125    1.698    0.411
       103 -10.6647     21.6181    135.5087   1.1300820248e+02   4.5102672682e+01    0.5274166    0.2910216 -76.04   0.00267715    1.587    0.370
       104  -9.6957      2.1162    125.7828   1.1746900252e+02   4.8885700623e+01    0.2485957     0.146973 -71.25 0.0008628982    1.330    0.248
       105 -12.2156    103.9677    122.4208   8.5871570917e+01   3.7200042129e+01    0.4284615    0.3989552  10.18 0.0007079254    1.160    0.138
       106 -10.2476     18.9042    122.4156   1.1204369203e+02   4.8546803329e+01    0.2501746    0.1570635 -66.72 0.0002766047    1.305    0.234
       107 -11.3438     45.2904    119.9940   1.0338617311e+02   4.6651421369e+01    0.6597063    0.3883779  87.20   0.00282281    2.438    0.590
       108  -8.8605    139.5915    122.2087   7.6156467999e+01   3.0019989603e+01    0.2162583     0.147725 -34.81 0.0003745366    1.557    0.358
       109  -9.2283     71.3418    120.8641   9.5336991360e+01   4.3060476205e+01    0.2096957    0.1741944 -52.37 0.0005699438    1.116    0.104
       110 -10.3731     33.3429    119.3881   1.0707215476e+02   4.8040083661e+01    0.3996873     0.185669 -36.37  0.001622551    2.803    0.643
       111  -9.0086    221.4758    120.5092   5.8751846718e+01   1.2702940637e+01    0.1431551    0.1274513 -43.98  0.000111928    1.045    0.043
       112  -9.0890    148.1938    120.2038   7.3514932004e+01   2.8588156409e+01    0.2641354    0.1754671  -0.98 0.0009443408    2.795    0.642
       113  -9.4203    185.2506    119.0154   6.5005096169e+01   2.0621377961e+01    0.2089667    0.1251538 -40.18 0.0008907155    1.593    0.372
       114  -9.5813    113.6355    115.9378   8.1484058930e+01   3.6848494048e+01    0.3771424    0.2276521 -37.81  0.001556298    1.764    0.433
       115  -9.6282     79.7116    114.8835   9.1351415637e+01   4.3233096713e+01     0.422204    0.2958047  89.39  0.001852365    2.064    0.516
       116  -9.6415     67.1557    114.1710   9.5170292958e+01   4.5307322597e+01    0.3587086    0.2419489  81.63  0.001564773    2.219    0.549
       117  -9.8099     67.1864    110.5761   9.4333697728e+01   4.6175434930e+01      0.37844    0.2032674  27.00  0.001614286    2.160    0.537
       118 -11.6270     49.5641     99.1322   9.7593621003e+01   5.1234631768e+01     1.722837    0.5572885 -49.32  0.006341949    2.628    0.619
       119 -10.7439     42.6792     94.6411   9.8977341114e+01   5.3081075617e+01    0.3303674     0.323083 -71.44  0.001091124    1.143    0.125
       120 -11.8429      7.1350     88.7722   1.1066724668e+02   5.7398956271e+01      0.55367    0.4278394  24.39   0.00152714    1.569    0.363
       121 -11.6069     17.0257    100.9230   1.0929123309e+02   5.3899306452e+01    0.4603109    0.3052367  16.63 0.0003599126    1.816    0.449
       122 -11.4421      9.8647     97.5911   1.1119726863e+02   5.5171319428e+01    0.8717348    0.6290454  68.20  0.005183907    1.681    0.405
       123 -11.5159     27.0635     85.9508   1.0271769798e+02   5.6627653273e+01    0.5446938    0.4527666 -39.74  0.003426554    1.089    0.082
       124 -11.9829     34.8241     93.5982   1.0156445785e+02   5.4137195416e+01     1.350548    0.7756687 -51.57  0.004972564    1.461    0.316
       125 -12.2734     42.8468     85.1846   9.6608544298e+01   5.5248529169e+01    0.9125388    0.4579936  19.94  0.003754926    2.401    0.583
       126 -11.3978     18.7319    106.0503   1.0958321486e+02   5.2544067845e+01    0.3075093    0.2289789 -34.36 0.0002104247    1.409    0.290
       127 -11.7134     23.0406     94.7626   1.0604654027e+02   5.4905821260e+01    0.7296735    0.3405388  10.20  0.003263401    2.908    0.656
       128 -11.9564     18.3353     90.0743   1.0682576796e+02   5.6365634093e+01    0.5207921    0.2597045 -61.08  0.001850816    1.622    0.383
       129 -11.8577     24.4255    113.6800   1.0897371637e+02   5.0241423155e+01    0.8712827    0.3687827   9.88  0.003462166    3.702    0.730
       130 -12.3195     25.3090    108.0128   1.0772258793e+02   5.1547367598e+01    0.9910364     0.573647  -8.47  0.004736628    2.511    0.602
       131 -10.2938      6.8073    114.3762   1.1467936847e+02   5.1349518676e+01    0.2514744    0.2247337 -52.80 0.0009351271    1.170    0.145
       132 -12.6317      2.1508    111.3084   1.1573667840e+02   5.2360510312e+01    0.4009417    0.2297912 -69.67 0.0005825796    1.372    0.271
       133 -11.2235      4.0281    104.7842   1.1425840257e+02   5.3810993764e+01    0.4263941    0.2997323  39.64  0.002160804    1.702    0.412
       134  -9.2029    126.8560    113.8186   7.7296596793e+01   3.4609165280e+01    0.2388067     0.216049  -6.22 0.0007300316    1.216    0.177
       135 -10.4926    107.4761    111.9708   8.2215067162e+01   3.8977073274e+01    0.5072797    0.3430347 -64.88   0.00219329    1.762    0.433
       136  -9.5427    103.8040    112.5932   8.3449008414e+01   3.9541176299e+01    0.3229061    0.2345497  48.14 0.0007344335    1.455    0.313
       137 -10.8558    102.1007    108.3847   8.2848818952e+01   4.0837639887e+01    0.6710163    0.5115836   0.42  0.002122267    1.736    0.424
       138  -9.6944     94.0907    112.3794   8.6295065378e+01   4.1389223467e+01    0.3049048    0.2233876 -60.15 0.0009775328    1.408    0.290
       139  -9.7566     48.8314    112.4811   1.0076832262e+02   4.8099284064e+01    0.2623622    0.2139013 -81.34    0.0011464    1.286    0.222
       140 -11.1076    170.2931    110.5417   6.5968294936e+01   2.5649575476e+01     0.452046    0.3621344 -34.85  0.001296887    1.246    0.198
       141 -10.1167    129.0145    110.0170   7.5710464424e+01   3.4990610545e+01    0.2269776    0.2188292 -41.70  0.001190758    1.020    0.019
       142 -10.1714    120.3977    109.3549   7.7862457138e+01   3.6961520051e+01    0.3603585    0.2576666 -30.17  0.001474412    1.560    0.359
       143 -11.4066     79.6373    108.3948   8.9789224035e+01   4.4798463924e+01    0.6225596    0.3834178  32.62  0.001320255    1.754    0.430
       144  -9.4075     58.9449    109.6900   9.6832338135e+01   4.7523916967e+01    0.2457565    0.1778231 -75.53 0.0005730061    1.534    0.348
       145 -10.0717    157.1668    106.5101   6.7814874047e+01   2.9457374189e+01    0.3784507    0.2860782   4.26  0.001661912    1.854    0.461
       146 -11.1776    143.8356    106.1262   7.0872369264e+01   3.2562529717e+01     0.378051     0.355303  61.79  0.001372728    1.095    0.087
       147 -11.5627    145.3938    100.1064   6.8843280704e+01   3.3456118574e+01    0.4695621     0.424921  58.18  0.000380408    1.132    0.117
       148 -10.3261     85.9977    103.7450   8.6567213721e+01   4.4829250990e+01    0.4223122    0.2541955 -31.51  0.001703493    1.998    0.500
       149  -9.6469    246.0005    102.9655   5.1161522316e+01   1.0923819261e+01    0.1677326    0.1377289 -42.84 0.0007611149    1.035    0.034
       150  -9.6060     57.2377    102.5059   9.5744795124e+01   4.9475272410e+01    0.2747554    0.1823002 -55.16   0.00087186    1.359    0.264
       151  -8.5633     82.2772    102.6919   8.7477475440e+01   4.5703777262e+01     0.143191    0.1171516  87.72 0.0004254007    1.554    0.356
       152 -10.2535    209.2812     99.7741   5.5893411440e+01   1.8946414408e+01    0.4867488    0.2466183 -28.62 0.0006651331    2.317    0.568
       153 -10.3275     67.0607     82.0722   8.6876704277e+01   5.2765560213e+01    0.3978843    0.3284166 -21.69  0.002087438    1.205    0.170
       154 -10.9431     89.9188     89.4303   8.1317653990e+01   4.7349609206e+01    0.9559351    0.5242997 -23.28  0.003376094    3.051    0.672
       155 -10.0733     77.5113     96.5801   8.7396813548e+01   4.7895639608e+01    0.3299323    0.2807063 -73.76  0.001299925    1.346    0.257
       156 -11.3726     79.4535     93.1018   8.5791483003e+01   4.8364136652e+01    0.8374738    0.5418707  39.72  0.003955366    1.634    0.388
       157 -10.6562     80.6150     83.6666   8.2658157159e+01   5.0235101803e+01    0.5999449    0.2969642 -39.87  0.002460418    2.005    0.501
       158 -11.4292     74.5229     78.2514   8.3090755515e+01   5.2402830503e+01    0.7167287    0.6373465  77.28  0.003994826    1.447    0.309
       159 -11.2563     68.0013     95.6283   9.0340921347e+01   4.9590220709e+01    0.5742469    0.4244972  25.33  0.002592848    1.478    0.324
       160 -10.0927     57.3324     97.0869   9.4394568697e+01   5.0743434894e+01     0.304145    0.2589179  55.98   0.00170883    1.382    0.277
       161 -10.6599     89.4652    104.5285   8.5682035453e+01   4.4044643808e+01    0.4580497    0.3218302 -45.42  0.000526268    1.356    0.262
       162 -10.1626    117.5900     93.1845   7.4112798950e+01   4.1055375405e+01    0.4102418    0.2785137  18.67  0.001494518    2.035    0.508
       163 -11.4844    121.0540     88.1681   7.1675565981e+01   4.1342433060e+01    0.8821362    0.4025683 -42.14  0.002685047    2.175    0.540
       164 -10.6254    125.8733     93.8718   7.2045289033e+01   3.9120769677e+01    0.4098324    0.3437409 -40.67  0.001438129    1.181    0.153
       165  -9.9957    122.3234     93.6743   7.2947404391e+01   3.9936280067e+01    0.2381247    0.2003301 -40.23 0.0006666881    1.176    0.149
       166 -10.3635     66.4626     88.7545   8.9004366428e+01   5.1380861240e+01    0.3238776    0.2309693 -17.90 0.0007859718    1.663    0.399
       167  -9.7084    160.1702     93.6250   6.3648975151e+01   3.1317321415e+01    0.4509245    0.2610985  75.75  0.001558204    3.036    0.671
       168 -10.7990    152.3377     91.9451   6.4932528856e+01   3.3476456207e+01     0.456395    0.3725676 -73.46  0.001690763    1.423    0.297
       169  -9.6151    103.3329     93.3299   7.8293208903e+01   4.3955257022e+01    0.3486646      0.30601  -0.61  0.001810084    1.240    0.193
       170 -10.4250     99.3990     90.9552   7.8792879330e+01   4.5236339545e+01    0.4220013    0.2882991  40.94  0.001179056    1.501    0.334
       171 -10.5672    104.8570     86.6141   7.5844980900e+01   4.5070286474e+01    0.5777509    0.3336262 -25.05  0.002228622    2.381    0.580
       172 -11.1013    113.8418     83.7612   7.2357560456e+01   4.3784654423e+01    0.6067668    0.4544428 -32.52  0.002291788    1.368    0.269
       173 -10.7044    183.5302     85.5168   5.6769564398e+01   2.7313740824e+01    0.8322418    0.3203151 -48.12  0.002849365    2.789    0.641
       174 -10.4325    165.7084     83.6813   5.9724880763e+01   3.1864738975e+01    0.3927301    0.3266127 -64.21  0.001349133    1.270    0.213
       175 -11.2320    142.7306     84.3056   6.4984132803e+01   3.7189086264e+01    0.5670959    0.3403769  44.19  0.001230882    1.702    0.413
       176 -10.1680    127.3759     82.9822   6.8426979592e+01   4.0969373877e+01    0.3225819    0.2922308 -47.04  0.001069169    1.118    0.106
       177 -10.3532    126.9061     77.4322   6.6856442886e+01   4.2133278347e+01    0.3560872    0.3026037  -8.65 0.0008697324    1.322    0.244
       178 -10.1899     60.4863     83.4560   8.9638589696e+01   5.3420448650e+01    0.3449687    0.2254252 -52.28  0.001255934    1.444    0.308
       179 -10.7399     57.9494     77.7290   8.8904984681e+01   5.5021145968e+01    0.3746529    0.2396756 -53.08 0.0009631481    1.516    0.340
       180 -11.6084     53.0621     75.9316   9.0207294265e+01   5.6063678315e+01    0.6359542    0.3941591 -54.70  0.003088988    1.581    0.367
       181 -10.7009     47.0482     74.8545   9.2195547789e+01   5.7051322436e+01    0.3562237     0.247474 -48.93 0.0007771337    1.294    0.227
       182  -8.5053      3.2894     83.5683   1.1116370940e+02   5.8807018245e+01    0.1239679   0.08396155  76.52 0.0003139838    1.886    0.470
       183  -9.5913     21.0636     80.9108   1.0387275500e+02   5.8269828472e+01    0.1960394    0.1685883 -49.18 0.0006582217    1.047    0.045
       184  -8.7779    249.2801     80.6964   4.5922524718e+01   1.3835183337e+01    0.1325295   0.08584212 -60.67 0.0002119787    1.550    0.355
       185 -10.3804    109.1286     80.8391   7.2813541039e+01   4.5362640781e+01    0.3452832    0.3134801 -21.04 0.0009936196    1.102    0.092
       186  -9.7500    103.2600     79.3525   7.4087703418e+01   4.6869300893e+01    0.2810671    0.1989021 -37.24 0.0005770648    1.402    0.287
       187 -11.2746    103.9916     74.0793   7.2190697689e+01   4.7748837257e+01     0.405471    0.2881652 -49.58 0.0004450667    1.503    0.335
       188 -10.2840    232.8390     77.7098   4.7270771595e+01   1.7604814536e+01    0.3627871    0.2130652 -36.97  0.001520912    1.556    0.357
       189 -10.5909     94.5658     76.0185   7.5713130818e+01   4.9259127428e+01    0.5298101    0.3946499  23.43   0.00209469    1.471    0.320
       190 -11.5764     86.1873     73.4533   7.7597327113e+01   5.1349879767e+01    0.7835275    0.5486703  40.37  0.003317216    1.463    0.317
       191 -11.4340     91.4782     63.1008   7.2407060710e+01   5.2308990701e+01    0.6648918    0.3787502  53.72  0.002487638    2.084    0.520
       192 -10.4362    143.2975    248.7628   9.8907258229e+01   3.1706271890e+00    0.3084717    0.2115739 -23.74  0.001738589    2.011    0.503
       193 -11.4639     77.7632     66.2194   7.8060926791e+01   5.4268550545e+01    0.6922676    0.5152951 -78.38  0.003248217    2.280    0.561
       194  -9.7286    174.9270    246.8632   9.2377045386e+01  -1.3410154374e+00    0.2399493    0.1504869  36.98  0.001382951    1.371    0.270
       195 -10.4964     81.9828     40.2058   6.7104242761e+01   5.7917069333e+01    0.3862852    0.2656536  64.74  0.001486035    2.083    0.520
       196 -11.3397    127.0847    242.0458   1.0132506661e+02   6.8077936947e+00    0.3412663     0.303934  80.19  0.001950073    1.270    0.212
       197 -11.6678     13.9872     74.7876   1.0527873978e+02   6.0157667332e+01    0.5442743    0.2703787 -62.27  0.002066723    1.705    0.413
       198 -10.1107     14.7177     67.3387   1.0323177076e+02   6.1744550195e+01    0.3555304    0.2230854   9.90  0.002062694    1.825    0.452
       199 -11.6461      1.9783     71.3257   1.0935557437e+02   6.1625480803e+01    0.6521719    0.1668086 -63.81  0.002630167    2.872    0.652
       200  -9.4940    139.4837     77.4757   6.3734041249e+01   3.9221573460e+01    0.1498435    0.1472179  87.71 -2.675977e-05    1.029    0.028
       201 -12.6089      6.1036     62.4308   1.0568888481e+02   6.3340938755e+01    0.7201186      0.44333 -10.49  0.004264818    1.804    0.446
       202 -12.2361    186.4447     70.6148   5.2315203583e+01   2.9157287245e+01    0.9373689    0.5994177 -42.31  0.002888507    1.500    0.333
       203  -9.7026    184.3399     61.5109   5.0235981218e+01   3.1103794544e+01    0.2997515    0.2038138 -47.01  0.001409672    1.428    0.300
       204  -9.4017     63.3897     75.7486   8.6299594316e+01   5.4665932349e+01    0.3871657    0.2689376 -84.73   0.00168087    2.718    0.632
       205  -9.0007     66.4344     74.4835   8.4796364572e+01   5.4472903873e+01    0.2149794    0.1876278  29.57 0.0008131241    1.216    0.178
       206  -9.4726    114.3636     74.9728   6.9472926558e+01   4.5381703989e+01     0.317497    0.1894434  31.76  0.001305245    1.979    0.495
       207 -11.5884     32.9913     72.0517   9.6956294105e+01   5.9196083124e+01    0.7561103    0.2749507  26.78  0.003004664    2.990    0.666
       208 -10.7430     40.4876     69.4755   9.3209251688e+01   5.8963183813e+01    0.3330232    0.2578388  -5.95  0.001256144    1.349    0.259
       209 -10.2131     41.4592     72.4866   9.3698425261e+01   5.8212143118e+01    0.2861419    0.2096767 -32.57  0.001015629    1.246    0.197
       210  -9.8441    153.2689     72.8240   5.9230338716e+01   3.6771293834e+01    0.5093471    0.1664352  44.17  0.001527526    3.626    0.724
       211 -11.7469    122.9560     69.0489   6.5254864150e+01   4.4558095600e+01    0.6018886    0.5029548  42.24  0.001688711    1.176    0.150
       212  -9.9899    172.4749     68.4997   5.4187469799e+01   3.2855825142e+01    0.3436826    0.3238209  56.62   0.00140451    1.097    0.089
       213 -10.1120    171.3860     64.4434   5.3254040978e+01   3.3774906280e+01    0.4494644    0.3037684 -83.09  0.001607903    1.931    0.482
       214  -9.8787    162.1969     70.8011   5.6800200409e+01   3.4961853566e+01    0.3119502    0.2491832 -75.09  0.001441156    1.414    0.293
       215  -9.2295     22.6023     66.3259   9.9670716502e+01   6.1365959256e+01    0.3884682    0.3436354 -80.94  0.001255442    1.396    0.284
       216 -11.4410    219.9737     66.4767   4.6325367488e+01   2.2102332042e+01    0.5643637    0.3529793  58.73  0.002490017    1.697    0.411
       217  -9.7188    192.4415     65.6538   5.0042148315e+01   2.8528482547e+01    0.2783109    0.2144279 -65.52 0.0007383281    1.318    0.241
       218  -9.5049     53.1151     65.9954   8.7119305741e+01   5.8131279061e+01    0.2571464    0.1804525  41.85  0.001012716    1.667    0.400
       219  -9.5641    201.5169     64.6494   4.8416128045e+01   2.6559243566e+01    0.3416609    0.2444102  69.52  0.001096296    1.428    0.300
       220  -9.5865    198.3042     62.6477   4.8379321100e+01   2.7615809201e+01    0.2658037    0.2097926  89.47  0.001395104    1.302    0.232
       221 -11.3685    234.3696     61.0821   4.3336021930e+01   1.9809444384e+01    0.4597746    0.3880725  66.26  0.001806764    1.312    0.238
       222  -9.7304    156.7643     63.3962   5.5734848553e+01   3.7500489264e+01    0.3267635    0.2154178  45.73 0.0009517867    1.561    0.359
       223  -9.4981    160.9576     61.7707   5.4436076881e+01   3.6738444036e+01    0.3053948    0.2097705  60.30 0.0008537063    1.424    0.298
       224  -9.6501    106.0036     63.7554   6.8193495402e+01   4.9224092360e+01    0.2743714    0.2602999 -32.01  0.001560406    1.091    0.083
       225 -10.7985    106.6336     58.7969   6.6326364534e+01   4.9941622776e+01    0.5712636    0.3585382  69.06  0.002392929    2.393    0.582
       226  99.0000     64.9953     62.0347   8.1243431566e+01   5.7183514327e+01     0.306715    0.2704689 -30.32  0.001211108    1.091    0.084
       227 -10.3800     59.6570     63.8423   8.3878186559e+01   5.7641365630e+01    0.3916354    0.2602111 -18.29  0.001612994    1.705    0.413
       228  -9.8094     57.3263     61.3009   8.3919156345e+01   5.8476395181e+01    0.2582856     0.191506 -10.07 0.0005985726    1.423    0.297
       229  -9.3758    163.4896    243.5030   9.4149422519e+01   9.2274916985e-01    0.2337812   0.09800595  44.91  0.001033871    2.327    0.570
       230 -10.4501     66.0578     53.7340   7.7900498950e+01   5.8549462528e+01    0.3662874    0.2804744 -69.13 0.0007794522    2.060    0.515
       231 -11.2955     21.1564     46.7608   9.4445791442e+01   6.5469047038e+01    0.4363371    0.2750064 -39.66  0.002602617    1.296    0.228
       232  -9.7870     67.9844    240.4752   1.1315517695e+02   1.5691868077e+01    0.1832886    0.1042514  38.87  0.001016066    1.575    0.365
       233 -11.3018     26.8743     47.3157   9.1990003619e+01   6.4836995207e+01    0.7353183    0.3408837 -24.62   0.00323225    2.725    0.633
       234 -10.6455     22.2718     36.7975   9.0368469899e+01   6.7214528641e+01    0.5672572    0.3236385  48.75  0.002731534    3.334    0.700
       235 -12.0042     60.1578     46.5412   7.7465347979e+01   6.0741877136e+01    0.9895954    0.5994838 -40.83  0.005141865    1.625    0.384
       236 -11.4029     60.9888     36.3449   7.3082890888e+01   6.2250061414e+01     0.486873    0.3170299 -38.04  0.001386005    1.574    0.365
       237 -10.9980     52.6732     49.1228   8.1433150023e+01   6.1411177890e+01    0.4513725    0.3818156  61.78  0.002667304    1.755    0.430
       238  -8.7053    221.4908    239.4624   8.2401770208e+01  -7.0158328065e+00    0.1218862   0.09518033   7.02 1.466021e-05    1.020    0.019
       239 -12.0991     58.2129     29.9125   7.1460361047e+01   6.3650254388e+01    0.3633049    0.2639123   2.34 0.0008806858    1.352    0.260
       240 -11.1948    148.6564    237.7099   9.6323219305e+01   4.1942165979e+00    0.4661396    0.2526534  35.69  0.002053216    1.593    0.372
       241 -12.1620     48.0004     60.2565   8.7273232633e+01   5.9950387951e+01    0.7600641    0.5738752  27.21  0.004433331    1.403    0.287
       242 -11.0328     41.0655     57.1593   8.9103012000e+01   6.1412533945e+01    0.3871294    0.2358233  38.53  0.001416564    1.926    0.481
       243  -9.1361    233.6327    236.3060   7.9703247853e+01  -8.2296032835e+00    0.1028171   0.09376515  46.80 0.0004162652    1.749    0.428
       244 -11.3309    123.2471     59.0012   6.1919576672e+01   4.6201808488e+01     1.057426    0.4816872  40.65   0.00400848    2.400    0.583
       245 -12.4650    117.4103     55.4920   6.2250419252e+01   4.8099856840e+01     1.665529    0.9622786 -63.70  0.006132659    3.224    0.690
       246  -9.8439    167.5038    237.5215   9.2468024691e+01   1.2637412454e+00    0.1283631    0.1086807  25.43 0.0001772101    1.005    0.005
       247  -9.9357    149.0000     60.9555   5.6597126415e+01   3.9777270517e+01    0.4935388    0.2026652  56.93  0.001827469    2.373    0.579
       248 -10.5166    136.3912     56.8439   5.8070725095e+01   4.3461867344e+01    0.6781605    0.4438779   0.02  0.002795366    2.430    0.588
       249 -10.7519    135.5113     50.3671   5.6195063024e+01   4.4656460776e+01    0.4215201    0.2629506  72.79  0.001861973    1.943    0.485
       250 -11.3840    145.8685     47.4706   5.3097334418e+01   4.2571374848e+01    0.9799943    0.4175015 -22.81   0.00343002    3.335    0.700
       251 -10.1336    145.5801     39.2611   5.0591656401e+01   4.3760108235e+01    0.2323486    0.2080955  17.57 0.0004232137    1.255    0.203
       252 -11.2966    156.5979     53.2133   5.2752840644e+01   3.9115705300e+01    0.9827344    0.5849785 -41.73  0.004525115    1.705    0.413
       253 -10.2943    162.5726     43.6848   4.8867775698e+01   3.9001632656e+01    0.5238342    0.2808283  63.31  0.002345811    1.771    0.435
       254 -10.8318    155.7943     42.1031   4.9581194986e+01   4.0880826939e+01    0.5595492    0.4280727  21.29  0.002683526    1.666    0.400
       255 -12.2371    153.0369     35.9205   4.8202869605e+01   4.2361559392e+01    0.4052041    0.3283861  63.59 0.0003652138    1.142    0.124
       256 -10.9083    198.4460    232.6851   8.5606102177e+01  -2.7333029571e+00    0.3499712     0.308373 -22.63  0.002355671    1.254    0.202
       257 -12.2968    159.9585     29.7029   4.5201619837e+01   4.1419639899e+01    0.4347784    0.4036018 -23.79  0.001173111    1.219    0.180
       258 -11.2720    164.0731     27.6777   4.3985104522e+01   4.0647192833e+01    0.3091835    0.2706521 -39.32 0.0005058022    1.228    0.186
       259  -9.1795    238.3955     55.7236   4.1704783995e+01   1.9740948748e+01    0.1777366    0.1368095 -56.17 0.0002367565    1.102    0.093
       260 -10.6225    240.0797     50.4433   4.0376587367e+01   2.0132956943e+01    0.3399318    0.2929735 -51.44  0.001098825    1.125    0.111
       261 -10.6710    244.9816     51.2941   4.0070586381e+01   1.9008371448e+01    0.3343684      0.19397  85.91  0.001749559    1.971    0.493
       262  -9.4262    187.8853     55.1650   4.7991848611e+01   3.1209775802e+01    0.2579697    0.1833993  59.42  0.001327683    1.398    0.285
       263  -9.4014      7.0151     54.6602   1.0333305191e+02   6.4920658240e+01    0.3053164   0.09357161 -38.88  0.001280609    2.873    0.652
       264  -9.8173    211.4910     52.9940   4.4185736266e+01   2.5999945645e+01    0.2826558     0.180026  69.03  0.001455515    1.585    0.369
       265 -10.8429    201.7073     48.9791   4.4452142482e+01   2.8825876433e+01    0.5890212    0.3789563  -7.14  0.002611535    2.668    0.625
       266 -11.2833    200.6634     45.3262   4.3672535578e+01   2.9576334400e+01    0.5469843    0.2723548  87.64  0.002156562    2.845    0.649
       267 -10.2428    247.2727    231.7337   7.6563401721e+01  -9.4014182039e+00    0.1921132    0.1255701 -28.32 0.0005216081    1.436    0.304
       268 -10.9142    173.6891     48.1625   4.8304527989e+01   3.5657129766e+01    0.5157781    0.3957403 -81.91  0.002721369    1.384    0.277
       269  -9.3901    176.2326     43.3723   4.6576655554e+01   3.5696830210e+01    0.2424955    0.2005975  87.67  0.001358504    1.167    0.143
       270 -11.3371    114.1121     38.3512   5.7148853568e+01   5.1359015153e+01    0.3888359    0.3289174  33.77  0.000619813    1.133    0.117
       271  -9.4599     91.2494     48.3420   6.7211865672e+01   5.4850060188e+01    0.2706105    0.1810908 -43.55 0.0009761134    1.639    0.390
       272 -10.7400     12.8039     47.9615   9.8745429842e+01   6.5896217617e+01    0.3737577    0.1596452 -34.53  0.001597881    2.156    0.536
       273  -9.5279     23.9197    231.9361   1.2109194578e+02   2.2697944698e+01    0.1956446    0.0987917  61.92   0.00104196    1.670    0.401
       274 -10.5282     13.9482     23.5004   8.9296322830e+01   7.0248472804e+01    0.3262368    0.1509384 -31.00   0.00124994    1.932    0.482
       275  -9.0739    190.1715    229.7952   8.6743624981e+01  -1.0283440761e+00    0.1789916    0.1332895   5.97 0.0006066037    1.332    0.249
       276  -9.3959     15.3369    233.6396   1.2279777088e+02   2.3252177414e+01     0.209321    0.1172439 -79.74  0.001311514    1.617    0.382
       277  -9.6974    233.9038    223.2086   7.7420325668e+01  -6.4788494156e+00    0.2404351    0.1357267 -10.50  0.001239814    2.051    0.512
       278 -10.2662    242.7077    231.8429   7.7365354089e+01  -8.8297702020e+00    0.2417927    0.2116413  47.45  0.001670517    1.851    0.460
       279  -8.9254    153.6500    219.3017   9.2528219173e+01   6.6522713306e+00    0.1351156    0.1007423  63.09 0.0007039029    1.695    0.410
       280  -9.4774      9.7670    217.9818   1.2297206327e+02   2.7001458414e+01    0.1488356   0.07916591 -82.31 0.0006324523    1.615    0.381
       281 -10.7769    134.9311     45.7770   5.4837244615e+01   4.5457161910e+01     0.442686    0.2258274  57.79 0.0003347701    1.854    0.461
       282 -10.7962    139.7683     43.8009   5.3178495082e+01   4.4565851604e+01    0.3816935    0.3337283 -54.32  0.001299315    1.218    0.179
       283  -9.4737    194.3863     46.5931   4.4822763745e+01   3.0882372013e+01    0.2764152    0.1238134  82.40 0.0009551038    3.469    0.712
       284  -9.0574    101.4812     44.5122   6.2742324424e+01   5.3299974469e+01    0.2033192    0.1289846 -42.72 0.0008673614    1.738    0.425
       285 -10.7182     94.1062     41.1634   6.3655122920e+01   5.5345526171e+01    0.6725202    0.2883048  48.56  0.002796117    2.198    0.545
       286  -9.3311     95.0180     36.2214   6.1509103184e+01   5.5843851399e+01    0.2309595    0.1916831 -77.21  0.001112729    1.701    0.412
       287 -10.4787    189.2403     40.9560   4.4058834553e+01   3.2873351601e+01    0.5541723    0.2034966 -27.42  0.002006134    3.332    0.700
       288  -9.9941     17.4079     41.4901   9.4433751935e+01   6.6787633413e+01     0.264415    0.1704012 -25.58  0.001608686    1.367    0.269
       289 -10.5205    231.4821     38.6693   3.8651287790e+01   2.3535116460e+01     0.330777    0.2221155 -47.26  0.001590607    1.304    0.233
       290  -9.2645    217.7782     38.9995   4.0129442712e+01   2.6498147079e+01    0.2001837    0.1274227 -75.97 0.0009334827    1.623    0.384
       291  -9.8394    193.6688     38.9943   4.2966685810e+01   3.2074616767e+01    0.2297284    0.1716903  54.13 0.0002951753    1.424    0.298
       292 -10.5705    175.9850     30.6476   4.3112584390e+01   3.7384240534e+01    0.4677086     0.211113  51.08  0.001375406    2.276    0.561
       293 -10.9694    176.7004     36.5672   4.4634506292e+01   3.6475972183e+01    0.4030968     0.339688 -27.97  0.002335665    1.330    0.248
       294 -10.1507    172.2422     33.4169   4.4409125814e+01   3.7959242254e+01    0.3848377    0.2250902  78.02  0.001505974    1.769    0.435
       295  -9.5689    132.9053     36.9425   5.2374809455e+01   4.7131841011e+01    0.3690599    0.2664494 -83.81  0.001825528    1.785    0.440
       296  -9.3102    206.8252     37.1735   4.0912790880e+01   2.9227867918e+01    0.2038438    0.1601966 -71.86 0.0006535473    1.162    0.139
       297 -10.2818    125.2974     20.8899   4.8519937759e+01   5.0818576139e+01    0.7438152    0.2439573  68.77  0.002400336    3.908    0.744
       298 -10.4339    164.6630    212.3821   8.9058769964e+01   6.0716332703e+00    0.2511441    0.2028392  47.27 0.0007997546    1.282    0.220
       299 -10.6808    138.1162     33.3114   5.0135808172e+01   4.6329585360e+01    0.4774841    0.3296641 -60.96   0.00173927    1.753    0.430
       300  -9.3647    204.5105    208.4978   8.0259747056e+01   1.4062050757e-01    0.1319353    0.1149947   4.74 -0.0001056825    1.026    0.025
       301 -10.3353    144.2970     25.3576   4.6460515463e+01   4.5755984202e+01    0.5395787    0.3016047  69.43  0.002548683    1.724    0.420
       302  -9.8849    148.9107     21.6108   4.4525912886e+01   4.5038321391e+01    0.2827316    0.2469763  12.93  0.001028905    1.351    0.260
       303  -9.9664    139.7939     27.7330   4.8019399721e+01   4.6583779872e+01    0.4315108      0.22875 -53.77  0.001863882    2.413    0.586
       304  -9.8423    153.3585    207.7720   9.0711816666e+01   8.8704228557e+00    0.2663426    0.2100268  59.99 0.0009030359    1.471    0.320
       305  -9.5095     61.1472    206.6598   1.1132225922e+02   2.3651130171e+01    0.2098559    0.1598031  84.30 0.0006976795    1.214    0.177
       306 -10.3796    238.2359    204.5082   7.3294106226e+01  -4.3806124669e+00    0.2403516    0.1576276 -30.69  0.001403772    1.389    0.280
       307 -11.9413    105.9142     32.8386   5.7233135372e+01   5.3921966241e+01    0.6039023    0.3350666  21.99  0.002198855    2.643    0.622
       308 -12.2018    113.6817     25.3924   5.2599664853e+01   5.3048993772e+01     0.791246    0.3450184  51.13  0.002643781    1.986    0.496
       309 -10.8904    240.2088     30.9060   3.6176326483e+01   2.2683497451e+01    0.4973597    0.2883376 -34.02  0.002137784    1.732    0.423
       310  -8.8249    214.6402     34.7011   3.9460327168e+01   2.7759951398e+01     0.125293   0.09742539  39.97 0.0007035151    1.712    0.416
       311  -8.6883    216.6951     32.3073   3.8688098918e+01   2.7599540973e+01    0.1307711    0.1188063 -80.86 0.0002858367    1.118    0.106
       312 -10.3495     16.7598    201.7453   1.2053359903e+02   2.9822770235e+01    0.2780706    0.1347925 -89.86  0.001448425    1.885    0.469
       313  -9.2201     36.0972     31.8402   8.1784387126e+01   6.6545862631e+01    0.1694872    0.1551854  -1.08 0.0004630259    1.266    0.210
       314  -9.4132    221.5500     29.8659   3.7645748471e+01   2.6821149711e+01    0.1857638      0.11581 -37.21   0.00101888    1.565    0.361
       315 -10.6317    189.5076     27.6118   4.0560404079e+01   3.4485726084e+01    0.3661106    0.2915079   8.72  0.001898225    1.783    0.439
       316  -9.0198     99.5245     30.4910   5.8049263659e+01   5.5620706250e+01    0.1919011    0.1151046  43.57 2.164489e-05    1.520    0.342
       317  -9.7435     97.5131     26.5531   5.7080712513e+01   5.6532232596e+01    0.2485248    0.2334963 -72.29  0.001269707    1.307    0.235
       318 -10.3368    230.3339     27.1417   3.6227959609e+01   2.5238712578e+01    0.3540286      0.18393 -42.20  0.001059805    1.692    0.409
       319 -12.1707      4.7335    184.3991   1.2190868770e+02   3.4805714780e+01    0.6269425    0.4414463  79.85  0.003376647    1.148    0.129
       320 -11.4670    183.1674     25.5264   4.0793314231e+01   3.6250095870e+01     0.521027    0.3199215  55.83   0.00235914    1.615    0.381
       321  -9.5479    250.5183     26.5163   3.4434905809e+01   2.1120917039e+01    0.2331324    0.1046867 -35.27  0.001024104    2.083    0.520
       322  -9.2414      1.3868     26.5123   9.7315358121e+01   7.0671342024e+01    0.1118658    0.0869083 -32.99  0.000128769    1.081    0.075
       323 -11.2265      6.0039    198.9934   1.2259157171e+02   3.1427308189e+01    0.7326797   0.08716873 -66.79  0.002482025    4.931    0.797
       324 -10.5533    245.6523    200.8797   7.1340875057e+01  -4.9023431219e+00    0.2089524    0.1521918  11.78  0.000686982    1.297    0.229
       325 -10.6783    234.2606    196.9758   7.2583799697e+01  -2.6489050241e+00     0.404492    0.2876836   1.19  0.001516702    1.399    0.285
       326  -9.4938    168.6542     23.8612   4.2243083669e+01   3.9961299960e+01    0.2295405    0.1668369  57.68 0.0006711439    1.315    0.239
       327  -9.2179     59.6116     23.7668   6.8224463209e+01   6.4253131263e+01     0.197057    0.1535585  12.96 0.0007761784    1.134    0.118
       328  -9.8626     60.5447     20.1675   6.6253612749e+01   6.4547443765e+01    0.3119418    0.2504648 -60.55  0.001158793    2.060    0.515
       329  -9.3298     82.7001    196.2354   1.0513118550e+02   2.2984365785e+01    0.3281559    0.2053816  19.81  0.001519012    2.204    0.546
       330  -9.0772    223.2702     22.0389   3.5730603378e+01   2.7384892754e+01    0.1753864    0.1413178 -68.67 0.0006418129    1.033    0.032
       331  -9.0021    195.5491    199.8094   8.0428241168e+01   3.0834014018e+00    0.1785041    0.1286913 -51.37   0.00093615    1.682    0.405
       332  -9.6911     74.7458     19.4622   6.0950143742e+01   6.2023471417e+01    0.2447867    0.1500238  29.34 0.0008679545    1.577    0.366
       333  -9.9677    169.9167    191.4451   8.4197225967e+01   9.1099376297e+00    0.3612316    0.2188964  24.20   0.00135584    1.891    0.471
       334  -9.1268    162.5801    190.8335   8.5684466823e+01   1.0557843245e+01    0.1884197    0.1383188 -60.19 0.0003999943    1.646    0.392
       335  -9.7209    221.6747     13.3115   3.3938136224e+01   2.8727530196e+01    0.3050115    0.1389637 -76.90 0.0009981202    2.548    0.608
       336  -8.6163      1.3360     20.7292   9.5117779362e+01   7.1677209262e+01   0.09183974   0.08634748  31.54 0.0003924711    1.598    0.374
       337 -10.7433    211.3288     18.5653   3.6028372269e+01   3.0449386122e+01    0.2583488    0.1986481 -43.84 0.0009282391    1.292    0.226
       338  -9.2633    198.1259     18.1655   3.7226941211e+01   3.3532180978e+01    0.1829514    0.1615438  62.73  0.000567088    1.253    0.202
       339 -10.2463    239.6379    184.8530   6.9314741793e+01  -1.5647169744e+00    0.3410382    0.2138418 -11.52  0.001178127    1.774    0.436
       340 -10.3819    186.3508     15.2281   3.7741865997e+01   3.6626369915e+01    0.2415555    0.1982639  87.17 0.0003957422    1.063    0.059
       341  -9.1764    205.2153     17.4110   3.6338479527e+01   3.1973493453e+01    0.1773935    0.1076221  88.77 0.0006136696    1.575    0.365
       342  -8.8748    174.2679     16.0064   3.9345348273e+01   3.9444525795e+01     0.172528    0.1551781  89.82 0.0004505886    1.042    0.040
       343 -10.1421    214.3825    185.1723   7.3935040613e+01   2.4453741845e+00    0.3201711    0.2089948 -75.74  0.001037776    5.664    0.823
       344 -10.0628    250.4628    178.0705   6.6174618288e+01  -2.1392711018e+00    0.3997516     0.108825 -35.89  0.001454404    3.286    0.696
       345  -9.8073    230.7866    175.5323   6.9008976377e+01   1.3533129373e+00    0.3352572     0.151805  35.78  0.001474368    2.407    0.585
       346 -10.3402     52.1358    173.5014   1.0964345230e+02   3.2538367135e+01     0.520694    0.2512168  88.79  0.001945073    2.896    0.655
       347  -8.6237    115.2897     13.2946   4.7872373562e+01   5.3921552461e+01    0.1340615   0.08759481  35.21 0.0006971132    1.551    0.355
       348  -9.8753     27.7075    175.8966   1.1593014339e+02   3.4687559417e+01    0.2330239    0.1708877  52.13 0.0007855173    1.336    0.251
       349  -9.9166    247.4682    174.1729   6.5896375541e+01  -1.0732433780e+00    0.4383359    0.2023707  22.62  0.001667138    3.805    0.737
       350 -10.1353     38.8888    173.1945   1.1291938531e+02   3.4158703729e+01    0.4836437    0.2028814  49.97  0.002102441    2.432    0.589
       351 -10.0517     35.4883    169.4834   1.1335351127e+02   3.5424787433e+01    0.2266517    0.2053619  88.02 0.0009092487    1.101    0.092
       352  -8.9280     94.2739     12.3691   5.2328693065e+01   5.8737547881e+01    0.1692614    0.1142911  64.48 0.0005078343    1.534    0.348
       353  -8.7638    170.6000    171.8271   8.0180901999e+01   1.2894453153e+01    0.1981923    0.1400283 -54.03 0.0008006706    1.571    0.364
       354 -11.5833      9.5713    166.9794   1.1947529860e+02   3.8455657452e+01    0.4749358    0.3722974  72.31  0.002192885    1.155    0.134
       355 -11.1926     13.5083    159.5640   1.1784820900e+02   3.9902227774e+01    0.5773268    0.2430063 -66.80   0.00229207    1.927    0.481
       356  -9.1874    198.0033    167.7697   7.3571456679e+01   8.4883301973e+00    0.2000988       0.1837  -3.21  0.001144127    1.026    0.026
       357  -9.6638    188.8344    163.9756   7.4632144401e+01   1.0953719792e+01    0.2969117    0.1875596 -18.86  0.001043574    2.065    0.516
       358  -9.1388    156.3722    166.2079   8.2225519583e+01   1.6830018360e+01    0.2057665    0.1419671 -56.24 0.0005072355    1.599    0.375
       359  -8.8850    152.4487    166.5290   8.3204150935e+01   1.7527309165e+01    0.1485163    0.1447189   4.72 9.994509e-05    1.012    0.012
       360 -10.3359     19.1056    164.7776   1.1695027005e+02   3.8166123474e+01     0.314202    0.2621597 -12.23  0.001600021    1.675    0.403
       361 -10.1031    205.0909    162.9846   7.1162682170e+01   8.0649037369e+00    0.4464538    0.2373175  50.16  0.001623747    2.208    0.547
       362  -9.2475    208.4758    160.4778   6.9976814629e+01   7.9004020246e+00    0.2582068    0.2040514 -27.15  0.001291831    1.188    0.158
       363 -10.4647     27.9932    162.1593   1.1444281360e+02   3.7969296739e+01    0.4706962    0.2145544 -64.32  0.002236027    1.862    0.463
       364 -10.0219    246.4414    159.2838   6.3063402001e+01   1.4904071679e+00    0.2660714    0.1122068 -33.83  0.001147823    2.128    0.530
       365  -9.3964     78.8658    160.0691   1.0068961800e+02   3.2186031825e+01     0.232747    0.1838515  79.53 0.0009373426    1.338    0.253
       366  -9.5201    224.1305    157.5032   6.6461343152e+01   5.5877735003e+00    0.3354284    0.1883648 -46.17  0.001557753    1.803    0.445
       367  -9.3570    215.3368    158.1104   6.8182508174e+01   7.0678970110e+00    0.2830522    0.1195037 -32.95  0.001074255    2.466    0.595
       368 -11.1044     31.8902    153.1114   1.1237268521e+02   3.9805662448e+01    0.9682235    0.4757965  71.11  0.004040214    2.718    0.632
       369 -11.8399     15.7797    147.7804   1.1607275814e+02   4.2571909537e+01    0.8314405    0.3087761  36.29  0.003767521    2.731    0.634
       370 -11.6033     12.9962    138.1115   1.1576296176e+02   4.5152175549e+01     1.001442    0.5076982 -88.67  0.004824157    1.984    0.496
       371 -11.0010     22.4203    155.0181   1.1510322554e+02   4.0234727983e+01    0.6002025    0.3519188  39.76  0.001858793    1.800    0.444
       372 -11.1773     21.2842    150.6939   1.1492496188e+02   4.1393810792e+01    0.1945448    0.1650019  66.96 0.0001962003    1.188    0.158
       373 -11.6098     24.2152    148.0200   1.1382918185e+02   4.1789769570e+01    0.3235235    0.1832884 -67.51 0.0007637109    1.476    0.322
       374  -9.8042      9.1640    155.8815   1.1859836353e+02   4.1135338845e+01    0.2369478    0.1380784 -70.60  0.001060033    1.407    0.289
       375 -10.3721    104.5674    154.1365   9.2689298587e+01   2.9429812372e+01    0.3707782    0.3150689 -36.40  0.001910752    1.281    0.219
       376 -11.8090      3.5067    147.2309   1.1925059326e+02   4.3628145574e+01    0.7935775    0.3292927 -79.28  0.003064981    2.022    0.506
       377 -11.5343      2.9381    141.6939   1.1887962933e+02   4.4997954770e+01    0.6440303    0.3526523  65.01  0.002998201    1.956    0.489
       378 -10.8820     63.2623    150.5371   1.0337963614e+02   3.6785468840e+01    0.4645533    0.3129995   9.57  0.002053852    2.139    0.532
       379 -10.4001     47.1777    135.8936   1.0559440885e+02   4.2468230215e+01    0.6412178    0.1581787 -62.74  0.001732337    3.359    0.702
       380 -11.2531     46.5197    146.9176   1.0750837869e+02   3.9780438088e+01    0.7717114    0.3280246 -60.11  0.003289969    2.018    0.504
       381  -9.0754     41.6155    148.7517   1.0914364745e+02   3.9872417184e+01    0.2052193    0.1929262 -14.79 0.0007710727    1.300    0.231
       382  -9.4672     71.5772    151.0466   1.0114618075e+02   3.5501219836e+01    0.3246529    0.2345865 -12.90  0.001515124    2.071    0.517
