#   1 NUMBER                 Running object number                                     
#   2 MAG_AUTO               Kron-like elliptical aperture magnitude                    [mag]
#   3 X_IMAGE                Object position along x                                    [pixel]
#   4 Y_IMAGE                Object position along y                                    [pixel]
#   5 X_WORLD                Barycenter position along world x axis                     [deg]
#   6 Y_WORLD                Barycenter position along world y axis                     [deg]
#   7 A_WORLD                Profile RMS along major axis (world units)                 [deg]
#   8 B_WORLD                Profile RMS along minor axis (world units)                 [deg]
#   9 THETA_WORLD            Position angle (CCW/world-x)                               [deg]
#  10 FWHM_WORLD             FWHM assuming a gaussian core                              [deg]
#  11 ELONGATION             A_IMAGE/B_IMAGE                                           
#  12 ELLIPTICITY            1 - B_IMAGE/A_IMAGE                                       
         1 -14.4223    161.7492     52.4256   7.9412165259e+01   3.8368335053e+01     1.970067     1.386888  16.10  0.006563067    2.079    0.519
         2 -14.0183    174.4332     35.8734   7.2468202228e+01   3.7523057516e+01    0.8798619    0.7837287  81.32  0.002849477    1.026    0.026
         3 -13.2570    178.5061     28.8269   6.9913299883e+01   3.7396014303e+01    0.5105159    0.4395283  22.02  0.001499992    1.454    0.312
         4 -12.5342    189.7437     14.4752   6.4641346882e+01   3.6279255237e+01    0.3622262    0.2968533 -59.00  0.001467776    1.237    0.192
         5 -13.8710    192.5331      4.3620   6.1813488021e+01   3.6648910496e+01    0.9315224     0.539359  71.31  0.004085317    1.454    0.312
         6 -12.5613    196.0762    171.4302   1.0241375304e+02   7.3899385751e+00    0.9354436    0.4623246 -54.20  0.003004181    2.535    0.605
         7 -18.8415     66.4506    243.4160   1.4030826898e+02   1.6165232106e+01     6.790276     5.735084  79.45   0.04726021    1.199    0.166
         8  -9.9854    175.3880    194.2160   1.1131783922e+02   7.0827590257e+00    0.1963097    0.1374729 -59.77 0.0005029673    1.685    0.406
         9 -10.4046    180.0279    192.3843   1.0999161650e+02   6.5217966018e+00    0.2513588    0.2025849 -70.28 0.0004425718    1.515    0.340
        10 -11.0627    167.4537    191.1289   1.1242566836e+02   9.2771842638e+00    0.3618731    0.2800424   8.33  0.001713602    1.717    0.418
        11 -10.7575      2.7843    176.6629   1.4672699339e+02   3.7561845273e+01    0.1133662   0.08958208  80.90 0.0002293912    1.132    0.117
        12 -10.0308    176.5189    187.9677   1.0987988549e+02   8.0954960438e+00    0.2158297    0.1454528 -46.51 0.0006083352    1.560    0.359
        13 -12.9604    139.3593    200.6057   1.2021031142e+02   1.2808938813e+01    0.6929387    0.3221893  48.49  0.002848225    2.025    0.506
        14 -11.2971    230.1628    166.1482   9.4649486315e+01   1.5520672025e+00    0.1927066    0.1697682 -64.11 0.0005729609    1.341    0.254
        15 -10.7672    223.9430    164.3665   9.5422940870e+01   3.0903724391e+00    0.2644761    0.1918248 -53.98 0.0006237262    1.546    0.353
        16 -10.4636    122.0564    165.1926   1.1779082285e+02   2.4008964785e+01    0.2238899    0.1993796  74.37 0.0003913777    1.083    0.077
        17  -9.6707     25.2347    165.5721   1.4092640042e+02   3.8035194077e+01    0.1343115    0.1233952   5.34 0.0004520034    1.568    0.362
        18 -11.2250    237.5222    159.5042   9.1906975620e+01   1.3339635070e+00    0.2497708    0.1219794 -48.31 0.0007088825    2.195    0.544
        19 -13.3096    194.3499    193.5025   1.0724357029e+02   3.4891627714e+00     1.030858    0.7775656 -77.87  0.002986802    1.978    0.494
        20 -12.9120     23.0321    157.5226   1.4053490708e+02   4.0098443175e+01    0.6413363    0.4517349   3.75  0.003169221    2.325    0.570
        21 -11.1441     27.6429    151.1147   1.3869084169e+02   4.1147079105e+01     0.227872    0.1687673  54.29  0.001435216    1.449    0.310
        22 -10.1668    139.4238    156.1796   1.1178225366e+02   2.2628703285e+01    0.2072889    0.1457371 -65.12 0.0003357095    1.554    0.356
        23 -12.8340    134.0385    145.6659   1.1080577742e+02   2.6166816649e+01     1.351958    0.3430216 -54.88   0.00318614    5.484    0.818
        24  -9.7430     13.7748    152.2115   1.4208365001e+02   4.2133293507e+01    0.1552293    0.1188045 -56.54 0.0005954912    1.354    0.261
        25 -11.2790    174.3870    148.5127   1.0200536681e+02   1.6789255481e+01    0.3947184    0.3001103 -67.29   0.00125967    1.523    0.344
        26 -12.3768    145.7097    146.4407   1.0814272103e+02   2.3530419790e+01    0.5111949     0.365356  72.56  0.001602606    1.747    0.427
        27 -13.2344      3.1525    128.2582   1.4193637652e+02   4.8350637027e+01     0.766159    0.4466339  79.88  0.004443609    1.855    0.461
        28 -12.1482      4.0652    137.7127   1.4279192159e+02   4.6163554508e+01    0.5341519    0.3266799  75.30  0.003229272    1.703    0.413
        29 -11.0184      2.9945    144.7805   1.4379729270e+02   4.4647731759e+01    0.2041322    0.1780702  52.50 0.0004516898    1.384    0.277
        30 -12.1534      9.3405    143.1489   1.4212992549e+02   4.4550114878e+01    0.3931204    0.3231149   8.72  0.002156215    1.727    0.421
        31 -12.6889    113.1948    139.2902   1.1466444436e+02   3.1811505524e+01    0.5834392    0.4144905 -25.78  0.002544765    1.955    0.488
        32 -12.3967    102.9926    138.9566   1.1725462036e+02   3.3778182256e+01    0.3094191    0.2794872 -46.94 0.0004273031    1.147    0.128
        33 -12.1208      3.7342    112.5261   1.3977521637e+02   5.1821979644e+01     0.321152    0.2539863  -9.20  0.001681498    1.670    0.401
        34 -19.1649     45.7788     98.6679   1.2486917647e+02   5.1441224141e+01     17.54352     1.008276 -58.32   0.02807891   15.970    0.937
        35 -11.9678    106.1797    130.8344   1.1462427861e+02   3.5122177342e+01    0.4246705    0.3522267 -82.06  0.001314303    1.295    0.228
        36 -11.3642    107.0870    125.7822   1.1321760558e+02   3.6137846119e+01      0.30528    0.2632654 -20.18 0.0005606918    1.371    0.270
        37 -12.1135    118.7340    129.5947   1.1101811720e+02   3.3008966670e+01    0.3999708    0.3526676 -51.41  0.001051212    1.110    0.099
        38 -12.6632    135.5879    123.9317   1.0531330213e+02   3.0818036216e+01     1.016632    0.2517093 -49.74  0.002640901    4.303    0.768
        39 -11.3713    160.5022    127.7813   1.0023529609e+02   2.4418533237e+01    0.4161893    0.2643586 -57.08  0.001417632    1.724    0.420
        40 -11.8674    142.8515    127.6723   1.0442575608e+02   2.8399355824e+01    0.4419115    0.3179261  81.63  0.001321345    1.893    0.472
        41 -11.9570    125.7073    127.6218   1.0873682601e+02   3.2057247545e+01    0.5455464     0.317872  70.04  0.001897058    2.950    0.661
        42 -10.9381     92.3790    123.7160   1.1676673682e+02   3.9236798167e+01    0.2651307     0.174858  52.52  0.001223453    1.686    0.407
        43 -11.0153    113.0403    118.7798   1.0992624577e+02   3.6620358527e+01    0.2661712    0.2383025 -75.42 0.0003784926    1.150    0.130
        44 -11.7280      7.0747    119.5107   1.3981904168e+02   5.0054552994e+01    0.1455805    0.1196714  23.21 0.0006782379    1.583    0.368
        45 -12.2838     21.7298    116.1934   1.3532879794e+02   4.9733030437e+01    0.3403635    0.2116368  18.16  0.001572822    2.106    0.525
        46 -11.1141    168.2500    113.1776   9.4794079208e+01   2.5731985356e+01    0.4310319    0.3133017 -84.69  0.001300441    1.860    0.462
        47 -11.2753    134.8698    105.5928   1.0076241322e+02   3.5003548179e+01     0.557455    0.1624129 -46.20  0.001627336    3.433    0.709
        48 -10.7973    205.3257    110.2001   8.6478170843e+01   1.7547644890e+01    0.3367318    0.2469748  43.89 0.0009139094    1.481    0.325
        49 -10.7694     94.2164    111.2071   1.1328195736e+02   4.1811527721e+01    0.2003684    0.1714956  88.07 0.0004607516    1.342    0.255
        50 -10.2743    163.0108    110.2632   9.5218556528e+01   2.7574199225e+01    0.2176229      0.20142  67.57 0.0003221716    1.079    0.073
        51 -11.4988     24.6858    108.9129   1.3327715251e+02   5.1139174564e+01    0.1906836    0.1604217 -28.61 0.0005791574    1.343    0.255
        52 -11.0811    209.1158    197.8961   1.0514145438e+02  -1.2688926591e-01    0.2043041    0.1899635  74.21 0.0006534707    1.313    0.238
        53 -11.1038     88.0376     77.9806   1.0605436682e+02   4.9938585587e+01    0.2083908    0.1969091 -20.20 0.0003784038    1.032    0.031
        54 -11.1095    113.1775     76.3369   9.8176505514e+01   4.5517686968e+01    0.5116971    0.2469998  58.92  0.001827787    3.023    0.669
        55 -10.6163     82.2144     70.5976   1.0562551866e+02   5.2331070715e+01    0.1811034    0.1260409  23.82 0.0002922222    1.571    0.364
        56 -11.3961    154.7818    196.1833   1.1609427146e+02   1.0752522893e+01    0.4476599    0.2469392 -76.38  0.001444763    4.187    0.761
        57 -12.5969    206.6655    180.1347   1.0208437465e+02   3.5732727336e+00    0.8356949    0.4488388  31.52  0.002950182    2.187    0.543
        58 -10.4993     17.8779    212.2448   1.4655045654e+02   2.8496585917e+01     0.108364   0.09200749  50.95 0.0005633008    1.463    0.317
        59 -10.2297     13.5031     59.9206   1.2666922352e+02   6.2247391245e+01    0.1605217    0.1286954 -36.65 0.0004004321    1.063    0.059
        60 -12.8026     11.7997    205.5130   1.4717246426e+02   3.0526123439e+01    0.3486036    0.3091482 -87.39  0.002649105    1.371    0.270
