#   1 NUMBER                 Running object number                                     
#   2 MAG_AUTO               Kron-like elliptical aperture magnitude                    [mag]
#   3 X_IMAGE                Object position along x                                    [pixel]
#   4 Y_IMAGE                Object position along y                                    [pixel]
#   5 X_WORLD                Barycenter position along world x axis                     [deg]
#   6 Y_WORLD                Barycenter position along world y axis                     [deg]
#   7 A_WORLD                Profile RMS along major axis (world units)                 [deg]
#   8 B_WORLD                Profile RMS along minor axis (world units)                 [deg]
#   9 THETA_WORLD            Position angle (CCW/world-x)                               [deg]
#  10 FWHM_WORLD             FWHM assuming a gaussian core                              [deg]
#  11 ELONGATION             A_IMAGE/B_IMAGE                                           
#  12 ELLIPTICITY            1 - B_IMAGE/A_IMAGE                                       
         1 -13.1343    193.8553    101.8906   1.1507521559e+01   2.3289720178e+01     4.036453    0.9171469 -34.75   0.01092583    5.469    0.817
         2 -14.8767    207.2918    115.7648   1.2560093628e+01   1.8628585451e+01     4.542037     2.023242 -34.37   0.01878186    2.040    0.510
         3 -14.7691    244.4050     93.5466   3.3865575329e+00   1.6026274179e+01     4.737171     2.012962 -58.93   0.01884203    4.267    0.766
         4 -14.9235    178.9197    168.4382   2.8107767536e+01   1.4076059783e+01     3.044723      2.78934 -27.07   0.01976367    1.137    0.120
         5 -11.8950    223.3370     40.8696   3.5428418335e+02   2.6622362832e+01    0.8957506    0.4721934 -52.16   0.00376818    1.537    0.349
         6 -11.0588    178.9810     24.3104   3.5403693172e+02   3.7683308800e+01    0.5714926    0.3650656 -70.29  0.002690856    1.458    0.314
         7 -10.9375    249.5410     21.3796   3.4861074504e+02   2.4241873775e+01    0.4379274    0.2824817 -14.15  0.002732447    2.340    0.573
         8 -11.9013    247.6348      3.0168   3.4511338603e+02   2.6462730093e+01    0.6966212    0.6658594 -81.64  0.006075098    1.478    0.323
         9 -12.5056    211.0876     13.7505   3.4906634303e+02   3.2091709766e+01     1.288709    0.9031388  -4.27  0.007682193    2.288    0.563
        10 -10.9125    198.1086     17.0992   3.5068026884e+02   3.4369912794e+01    0.4389523    0.2610208 -36.78  0.001689112    1.495    0.331
        11 -10.7216    202.6380     13.8596   3.4960715075e+02   3.3781696091e+01    0.2811234    0.2264563 -63.77 0.0005515375    1.049    0.047
        12 -11.9584    226.0789     11.7035   3.4780112924e+02   2.9424657304e+01    0.9489462    0.3491769  53.34  0.002483848    4.604    0.783
        13 -12.5522    225.3426      7.1267   3.4686332089e+02   3.0031431732e+01     1.145598    0.4235451  61.35  0.005229647    3.343    0.701
        14  -9.4698    120.3227      9.1730   3.5596467364e+02   5.3300062792e+01    0.2787187    0.2474883 -27.99  0.001129796    1.281    0.219
        15 -10.7902    181.8614      3.8711   3.4846965301e+02   3.9200516726e+01    0.3856817    0.2223123  67.45  0.002199577    1.797    0.443
        16  -8.9990    225.6470    219.2755   2.8534775183e+01   5.0214166660e-01    0.1809646    0.1516354  28.31  0.001013351    1.670    0.401
        17 -10.9781    248.5218    247.1866   2.9109905707e+01  -4.8962993042e+00    0.5271676    0.2506731 -29.27    0.0037011    1.686    0.407
        18 -10.9099    240.4143    243.6822   2.9818874775e+01  -3.8344655994e+00    0.4029421    0.3176243  37.95  0.003124695    2.365    0.577
        19 -10.0439    221.0349    216.0939   2.8783244925e+01   1.3917113382e+00    0.2528638    0.2189525 -16.38 0.0008570144    1.370    0.270
        20 -10.4535    216.0673    212.7463   2.9071869781e+01   2.3689717267e+00    0.2630953    0.2338401  55.79  0.001169081    2.103    0.525
        21  -8.7630    188.3298    215.2956   3.4288349821e+01   5.1078167072e+00    0.1225915   0.07664555  -6.41 0.0007025572    1.634    0.388
        22 -10.0018    175.3757    213.1533   3.6398960274e+01   6.9855408539e+00    0.2023098    0.1896189  66.96  0.001396483    1.666    0.400
        23 -10.0036    249.8497    211.0576   2.3650120820e+01  -8.0056517173e-01    0.2302666    0.1635289   4.84  0.001398958    1.275    0.216
        24 -11.6553    241.1179    206.4448   2.4191652235e+01   6.2233222750e-01    0.4853245     0.261963  28.75  0.003201642    2.001    0.500
        25 -14.3401    172.7251    114.5961   1.8002827751e+01   2.5029802761e+01     2.738474     2.530601  46.45   0.01650305    1.196    0.164
        26 -13.6671    193.6857    194.6729   3.0001612727e+01   7.6417469198e+00     3.226432     2.165091  70.58   0.01082388    7.834    0.872
        27  -8.2531    190.0397    244.0128   3.8124037723e+01   8.4216943823e-01    0.1339249   0.09932495   3.22 0.0003668886    1.032    0.031
        28  -9.1636    128.9341    241.9637   4.9798448744e+01   7.8834912248e+00    0.2746185    0.1958684 -85.44  0.001561996    2.578    0.612
        29  -9.1859    181.3050    203.6552   3.3771516007e+01   7.7688413155e+00     0.187228    0.1697937   3.35  0.001305084    1.216    0.177
        30  -9.7163    182.8535    200.8366   3.3022009473e+01   8.0272652863e+00    0.2472954    0.2044718 -52.30 0.0003660386    1.607    0.378
        31  -9.1932    249.5599    202.5753   2.2369935001e+01   2.8704343291e-01    0.3079629    0.1553165  39.54  0.001888112    2.798    0.643
        32  -9.9073    250.4140    198.5790   2.1617138640e+01   7.1117579097e-01    0.2167787    0.1099968 -35.68 0.0008433118    1.619    0.382
        33  -9.4562      2.6864    203.0315   7.6703404039e+01   2.9338910845e+01    0.2031547    0.1696551  25.17 0.0003576724    1.267    0.211
        34  -9.4106    187.2583    199.2479   3.1937331876e+01   7.7256844932e+00    0.2244967    0.1563362 -45.66 0.0008411381    1.610    0.379
        35  -9.6571    244.9311    193.5107   2.1573231678e+01   1.9212443853e+00    0.1975428    0.1650799   8.14  0.000995264    1.349    0.259
        36 -10.2810    244.3154    198.2145   2.2420788913e+01   1.3679958883e+00    0.3277451    0.1716958  11.36  0.001423728    2.311    0.567
        37  -9.9273    240.6214    196.1931   2.2628186483e+01   2.0134723862e+00    0.2493995    0.1282456 -30.39  0.001555485    1.536    0.349
        38 -12.3514    188.4425    175.6809   2.7648641192e+01   1.1444815104e+01     0.853076    0.3391992 -42.26  0.003129275    2.314    0.568
        39 -13.4464    245.1662    179.0240   1.9138980937e+01   3.8359122792e+00     1.237437    0.7351453 -27.28  0.004316154    1.304    0.233
        40 -10.9246    180.5603    194.4414   3.2401594780e+01   9.3690421625e+00    0.3482758    0.2470604 -45.20  0.001949347    1.529    0.346
        41 -11.1498     17.1832    194.7434   7.2564891013e+01   3.0087254464e+01     0.430075    0.3206461 -38.90  0.002379831    1.706    0.414
        42 -13.5237    226.8208    167.5746   1.9790085956e+01   7.6203697276e+00     1.052202    0.8094217  42.69  0.003925853    1.725    0.420
        43 -10.5537    245.5796    233.7970   2.7652843883e+01  -3.1408466163e+00    0.2418251    0.1582618 -29.68   0.00187185    1.421    0.296
        44 -14.7482    238.6563    124.7229   1.0154332363e+01   1.2399871253e+01      1.74744    0.9766537 -35.48  0.007372297    1.397    0.284
        45  -8.5505    149.9893    192.7209   3.8355251272e+01   1.3850401183e+01     0.192613    0.1575297  17.45  0.001154258    1.133    0.117
        46  -9.0251     79.6957    190.6453   5.5228687678e+01   2.4160618554e+01    0.2901168    0.2121777 -20.82  0.001398691    1.731    0.422
        47 -13.4825    249.5273    117.5666   7.5012344942e+00   1.1911683018e+01     1.045848    0.2754485 -40.47  0.001167316    2.816    0.645
        48  -8.9782     18.1627    181.8372   7.1538924276e+01   3.3130307077e+01    0.1709339    0.1549263 -38.95 0.0003724754    1.321    0.243
        49 -11.4993    129.0092    170.0158   3.9278833931e+01   2.1534854322e+01    0.5983746    0.3436279 -53.52  0.002742727    1.834    0.455
        50  -9.8835    117.8579    171.6539   4.2341506623e+01   2.2936023323e+01    0.2417691    0.1943688 -37.59 0.0007804617    1.280    0.218
        51 -10.3748     10.3423    207.3862   7.4947251086e+01   2.7740737501e+01    0.2792753    0.2210462  -9.85  0.001717418    1.645    0.392
        52 -12.5098    134.0101    147.6185   3.3734395003e+01   2.5523816752e+01     1.758615    0.5017567 -55.10   0.00466684    5.084    0.803
        53 -11.8677    143.6197    145.7842   3.1068819326e+01   2.4223896367e+01    0.8467075    0.4972146 -68.76   0.00322841    2.970    0.663
        54 -11.3338    142.8483    136.4377   2.9241118502e+01   2.6325349132e+01    0.4404584    0.3908999 -71.73  0.002415133    1.272    0.214
        55 -12.6982    138.0933    129.3724   2.8777660897e+01   2.8711494305e+01     1.449331     0.623199 -41.84  0.005440398    2.328    0.570
        56 -11.7305    133.1470    122.4390   2.8360563626e+01   3.1154218788e+01    0.9255975    0.5110861 -31.71  0.003629856    2.290    0.563
        57  -9.4447    126.9853    153.5116   3.6665550661e+01   2.5450972860e+01    0.2419356    0.1841523 -47.08  0.000880144    1.305    0.234
        58  -8.4414      5.4312    155.0000   7.3705982228e+01   4.0993732523e+01    0.2908854   0.07639818  16.60 0.0009474061    4.038    0.752
        59 -10.7082     67.9853    143.9383   5.1878194510e+01   3.7327301715e+01    0.7407059    0.4191242  60.03  0.002925783    2.225    0.550
        60  -9.9346    213.6021    205.7081   2.8366488018e+01   3.6228848404e+00    0.2580706    0.1983359  46.84  0.001136909    2.094    0.522
        61 -11.2046    154.2434    144.5101   2.8412507905e+01   2.2618435860e+01    0.3188435    0.2640358 -29.64  0.001709889    1.168    0.144
        62 -11.8675    150.8657    140.2336   2.8245423584e+01   2.4083610395e+01    0.5827959    0.3182356 -41.81  0.002585711    1.754    0.430
        63  -7.6717      4.7214    145.6046   7.3354704824e+01   4.3532633028e+01    0.1462131   0.08994632 -50.39 0.0006993937    1.751    0.429
        64  -9.0804     90.8953    141.4275   4.4230616183e+01   3.4424501599e+01    0.2881169    0.2097758 -51.02 0.0007085801    1.379    0.275
        65 -10.6034    150.8649    129.5701   2.5890606129e+01   2.6259974079e+01    0.3442569    0.2035274 -56.93  0.001038178    1.944    0.486
        66 -11.0299    134.7554    108.6391   2.4570826647e+01   3.3774123470e+01     1.257009    0.2376688 -44.90  0.003115831    5.081    0.803
        67  -9.5124    121.2946    131.0229   3.3376784617e+01   3.1518941267e+01    0.2144951    0.1898488 -50.71 0.0004485391    1.114    0.102
        68  -8.0811    113.4805    130.4278   3.5353141110e+01   3.3112018132e+01    0.1481272    0.1478872 -74.07 4.505164e-05    1.010    0.010
        69 -10.0046    125.2374    127.5449   3.1552212617e+01   3.1557944622e+01    0.2949378    0.2115534 -48.97   0.00140247    1.364    0.267
        70  -9.6332     79.1472    127.3832   4.5093554543e+01   3.9919796558e+01    0.2948908    0.2435086 -56.14 0.0005011572    1.201    0.168
        71  -9.0467     72.9417    126.9048   4.7068656648e+01   4.1040402807e+01    0.2280601    0.2056956 -20.51 0.0005231655    1.233    0.189
        72  -9.5667    116.5144    119.5362   3.1977267177e+01   3.5050950623e+01      0.30289    0.2142558 -87.53 0.0007720778    2.115    0.527
        73  -8.4387     79.4798    121.1246   4.3637506852e+01   4.1470469504e+01    0.2417987    0.1498668 -56.48  0.001030268    1.589    0.371
        74  -8.9188    126.5342    117.9911   2.8948767651e+01   3.3426116594e+01    0.2306524      0.14523 -47.49 0.0006533788    1.543    0.352
        75 -10.3775    133.5193     97.7368   2.2009774247e+01   3.6290536660e+01    0.3072539    0.2815717 -40.54 0.0005328378    1.089    0.082
        76  -9.1936    112.6851    119.2982   3.2978969140e+01   3.5849715558e+01    0.2690927    0.2015283  -9.58 0.0005690913    1.868    0.465
        77 -11.6912     56.4699    107.0819   4.8827110981e+01   4.8766971199e+01    0.6421942    0.5788729  30.41  0.001124026    1.144    0.126
        78 -12.9191     49.2997    102.8301   5.0740353208e+01   5.0905859510e+01     2.326635    0.9682258  31.38  0.004164263    2.374    0.579
        79 -10.1572    140.9277    107.5895   2.2855277042e+01   3.2719657055e+01    0.3466741    0.3039969  74.40  0.001041882    1.256    0.204
        80 -11.2806     39.8616    101.7767   5.4434249419e+01   5.2396707415e+01     0.472477    0.3502191  31.54 0.0009454556    1.381    0.276
        81 -10.1622    125.0567     97.0491   2.3903607839e+01   3.8244947686e+01     0.416294    0.2624719 -35.34   0.00092736    1.725    0.420
        82 -11.6394    124.7431    104.2924   2.5931409049e+01   3.6773478239e+01    0.6495973    0.4316525 -53.89  0.002251971    1.525    0.344
        83 -11.0437    120.2460    102.6135   2.6659920773e+01   3.8075384686e+01     0.449821    0.2978853 -61.06   0.00166869    1.699    0.412
        84  -7.5850     93.3113    108.3026   3.6035307939e+01   4.2183941854e+01    0.1551717     0.123696 -13.22 0.0003741405    1.609    0.379
        85 -12.4208      9.6934     98.7341   6.7132214854e+01   5.6001484544e+01    0.9575767    0.8319194 -66.62  0.004055304    1.059    0.056
        86  -9.7897    111.1169    102.3821   2.9102993082e+01   4.0022735699e+01    0.3589457    0.1671971 -36.24  0.001226546    2.724    0.633
        87 -10.2385    184.9200     94.0708   1.1064712157e+01   2.6303749024e+01     0.498432    0.3797204 -22.54  0.002749709    1.467    0.318
        88  -9.7053    121.1736     93.8315   2.4010604568e+01   3.9754626930e+01    0.3242486    0.2040526 -56.47  0.000828465    1.702    0.412
        89  -8.0538    102.8254     99.1209   3.0638552915e+01   4.2461638590e+01    0.1955253    0.1766418 -17.45 0.0009943265    1.246    0.197
        90 -10.1590    217.4699     92.6077   6.2081562556e+00   2.0533738453e+01    0.4507735    0.2746076 -15.13  0.002195475    2.490    0.598
        91  -9.4729    221.5003     91.5258   5.4902125433e+00   2.0005054647e+01    0.2567866    0.2095914 -20.63  0.001674696    1.340    0.254
        92  -8.3356    154.2012     94.3908   1.6600980626e+01   3.2528569560e+01    0.1888615    0.1383754  68.04 0.0003942452    1.567    0.362
        93  -9.0059    167.1487     91.4381   1.3393420522e+01   3.0347679062e+01    0.4152365    0.1936868 -32.93  0.001552339    2.319    0.569
        94 -14.9531    206.0867    178.1459   2.4978623276e+01   8.6583971944e+00     2.541197     2.397479  64.55   0.01791457    1.610    0.379
        95  -9.6107     57.1152    231.6905   6.4981898066e+01   1.8006516424e+01    0.1919195    0.1827217 -25.77 0.0004940121    1.267    0.211
        96  -8.3565    144.2456     89.0663   1.7237558177e+01   3.5677241427e+01     0.199669     0.174612 -51.96  0.001075888    1.079    0.073
        97  -8.6395    189.3276     86.8147   8.6616800265e+00   2.6641271287e+01    0.2113774    0.1775196  88.26  0.001262938    1.331    0.249
        98 -10.1737    172.9805     81.8740   9.9645180717e+00   3.0781501213e+01     0.358541    0.2936777 -31.98  0.001251584    1.245    0.197
        99  -9.5281    128.5685     81.6023   1.8654836255e+01   4.0591347599e+01    0.3516597    0.2403641 -28.90  0.001071626    1.712    0.416
       100  -7.5129    206.3076     79.7166   4.7169425256e+00   2.4492118953e+01    0.1771632    0.1565203 -78.68 0.0002470779    1.205    0.170
       101  -9.4505    203.1712     78.4993   4.8268756184e+00   2.5267992213e+01    0.2234505    0.1716385 -34.96 0.0003359651    1.214    0.176
       102  -9.9928    197.9053     79.0457   5.6287018533e+00   2.6195948847e+01    0.4243771    0.2719094  42.71  0.001633448    2.036    0.509
       103 -10.1354    199.1137     69.8298   3.2980750053e+00   2.7353190597e+01    0.6240342     0.336352 -25.22  0.002648575    2.237    0.553
       104 -10.7342    183.0016     77.9992   7.4404817540e+00   2.9336577085e+01     0.480943    0.3787126 -77.18  0.001587405    1.366    0.268
       105 -10.3274    175.9246     69.1346   6.2307067678e+00   3.2228252310e+01    0.2995105    0.2588831 -22.61 0.0007752014    1.325    0.245
       106 -10.1298    173.0943     74.7213   8.1071827390e+00   3.1940096330e+01    0.3682548     0.240342 -21.93 0.0009021919    1.938    0.484
       107  -8.8372    145.8863     70.9091   1.1801350466e+01   3.8608155939e+01    0.2089158    0.1998512   7.89 0.0006117102    1.234    0.190
       108  -9.2998    151.8486     68.8531   1.0092451788e+01   3.7598430953e+01    0.2672034    0.1936324 -26.61 0.0007102826    1.572    0.364
       109  -9.9648    188.7302     67.2895   3.9907642479e+00   2.9823196890e+01    0.3017899    0.2730904  42.33 0.0009213021    1.370    0.270
       110  -9.3259    191.1383     62.3367   2.4625310416e+00   3.0061857188e+01    0.2158512    0.1968057 -54.61 0.0002872019    1.104    0.094
       111  -9.2121    146.7938     66.5715   1.0370349683e+01   3.9137482725e+01    0.2636124    0.2268231  -1.79 0.0008246285    1.504    0.335
       112 -10.0368    235.5791     64.8456   3.5839002104e+02   2.1367752620e+01    0.3049912    0.2567606  47.06  0.002178805    1.614    0.381
       113  -9.1235    234.4013     60.0143   3.5748309613e+02   2.2205736779e+01    0.2848486     0.205664  88.14  0.001723269    1.599    0.375
       114 -15.9059    244.0485    140.5249   1.2465775441e+01   9.3753071517e+00     2.263562     1.746233  -6.62  0.009406576    1.374    0.272
       115 -10.3295    173.8087     62.7279   4.8622435805e+00   3.3677104972e+01    0.4057728    0.2684821 -25.07  0.002044191    1.753    0.430
       116  -8.4299     93.6637     63.0216   2.2190291540e+01   5.2103950071e+01    0.2065486    0.1895245 -44.46 0.0004122613    1.113    0.102
       117  -9.4698    186.6976     59.9322   2.4146911671e+00   3.1335452845e+01    0.2689665    0.2101016 -13.29  0.001518831    1.672    0.402
       118  -8.3437    243.4796     60.5144   3.5683103795e+02   2.0613317558e+01     0.115732   0.08839271 -45.38 -1.142074e-05    1.043    0.042
       119  -9.5164    143.9615     59.4004   8.7779384900e+00   4.0973556116e+01    0.3606047    0.2509918  82.19  0.001351122    1.603    0.376
       120  -7.7465    111.6774     60.6670   1.6245406311e+01   4.8393543791e+01    0.1492353    0.1183647  16.40 0.0007050202    1.704    0.413
       121  -8.6559    247.3516     57.0503   3.5582970310e+02   2.0420355667e+01      0.17099    0.1495831  -0.83   0.00126717    1.627    0.386
       122  -9.0752    216.1996     55.2376   3.5808396213e+02   2.6113804136e+01    0.2143773    0.1843395 -79.96 0.0007218794    1.210    0.173
       123  -9.6347    233.9414     51.4021   3.5571302426e+02   2.3394897772e+01    0.4574554    0.1565494  62.11  0.002201161    3.357    0.702
       124 -10.7605    217.2793     22.9618   3.5075696821e+02   2.9877847462e+01     0.333646    0.2207174 -65.97  0.001386521    1.290    0.225
       125  -9.7988    227.7125     48.3296   3.5555810781e+02   2.4890037974e+01    0.2617205    0.1719377 -46.97 0.0007532474    1.170    0.145
       126 -10.3043    212.3627     26.3844   3.5185948469e+02   3.0446642446e+01    0.2867458    0.1989873 -41.23 0.0005922866    1.238    0.192
       127  -8.7563    202.1932    231.4019   3.4219510226e+01   1.2851486373e+00    0.1468618   0.09062683  31.34 0.0009499049    1.719    0.418
       128 -10.5774    213.9927     31.9171   3.5299915603e+02   2.9481865623e+01    0.5061064    0.2542078  64.59  0.002474125    2.228    0.551
       129  -8.7743    213.9238     50.3698   3.5719629210e+02   2.7189489428e+01    0.1998784    0.1376253 -50.65  0.000719503    1.167    0.143
       130  -8.3391    166.3365     50.2806   2.5488409422e+00   3.7182615149e+01    0.1277496    0.1050809  32.25 0.0003712652    1.618    0.382
       131  -8.5102    244.0023     48.8373   3.5442357166e+02   2.1995074092e+01    0.1529679    0.1324975 -41.21 0.0005163606    1.242    0.195
       132  -9.7081    160.3654     48.5433   2.9055487746e+00   3.8797240834e+01    0.2603827    0.2301321 -12.44 0.0005784787    1.405    0.288
       133  -8.8636    232.4643     42.8281   3.5401864085e+02   2.4723614248e+01    0.1970214    0.1530552  89.36  0.001395878    1.401    0.286
       134  -7.7375     97.2711     33.6290   9.9718350750e+00   5.6181170764e+01    0.1469729    0.1035759 -66.10 0.0006998391    1.674    0.403
       135  -8.3947     81.4551     31.8642   1.3721374678e+01   6.0209146993e+01    0.1918471    0.1390633 -35.79 0.0005015951    1.462    0.316
       136  -8.7110    169.9818     30.0720   3.5649509491e+02   3.9028310777e+01    0.1990377    0.1653505 -68.30 0.0003365964    1.031    0.030
       137  -9.3354    240.2540    228.7447   2.7705997509e+01  -2.0734035042e+00    0.2267999    0.1206482  25.18   0.00155341    1.878    0.468
       138  -9.5904    232.6199    224.8559   2.8287785633e+01  -8.8974302120e-01    0.3874183    0.2181204  47.09  0.001956989    4.586    0.782
       139  -8.8779    150.5300    226.8932   4.3367828825e+01   7.7913728721e+00     0.166338    0.1149809 -41.08  0.001017333    1.550    0.355
       140 -10.0797    207.6659     20.6655   3.5086915255e+02   3.2025152067e+01    0.3166303    0.1965029 -61.61  0.001111076    1.348    0.258
       141 -10.4780    247.6702    221.3608   2.5524402257e+01  -1.8556641096e+00    0.2239712    0.2040521  -2.18 0.0007606573    1.695    0.410
       142  -9.6450    193.2659     21.8059   3.5218625398e+02   3.4867346239e+01    0.2643322    0.2097318  40.99 0.0005032034    1.775    0.437
       143  -9.5733    176.0177    223.6272   3.7842576072e+01   5.2802810318e+00    0.2702486    0.1676466  53.23  0.001103167    3.270    0.694
       144  -8.9506    204.2347    221.0087   3.2330847093e+01   2.4955931982e+00    0.1750416    0.1400307  -1.12 0.0005536571    1.103    0.094
       145  -9.9618    200.5934    220.4758   3.2881685073e+01   2.9659300908e+00    0.2713868    0.1860691 -14.88   0.00183062    1.236    0.191
       146  -9.8700    239.6798    221.3391   2.6692916525e+01  -1.1183917595e+00    0.2204436    0.1842932   1.10  0.000998143    1.383    0.277
       147  -7.9375     97.0030     16.9528   3.1235391078e+00   5.8336915290e+01     0.158144    0.1424973  74.71            0    1.004    0.004
       148  -9.2096    190.1887     15.1897   3.5077277732e+02   3.6247641341e+01    0.1825475    0.1134246 -58.48 0.0005218426    1.341    0.255
       149  -9.3879    178.4492    221.2233   3.7026554799e+01   5.3631285958e+00    0.1454743    0.1107262 -46.91 0.0009415025    1.643    0.391
       150 -10.0088    234.3123     22.0620   3.4954391013e+02   2.6808509413e+01    0.2337671    0.1520523  75.68  0.001067062    1.734    0.423
