#   1 NUMBER                 Running object number                                     
#   2 MAG_AUTO               Kron-like elliptical aperture magnitude                    [mag]
#   3 X_IMAGE                Object position along x                                    [pixel]
#   4 Y_IMAGE                Object position along y                                    [pixel]
#   5 X_WORLD                Barycenter position along world x axis                     [deg]
#   6 Y_WORLD                Barycenter position along world y axis                     [deg]
#   7 A_WORLD                Profile RMS along major axis (world units)                 [deg]
#   8 B_WORLD                Profile RMS along minor axis (world units)                 [deg]
#   9 THETA_WORLD            Position angle (CCW/world-x)                               [deg]
#  10 FWHM_WORLD             FWHM assuming a gaussian core                              [deg]
#  11 ELONGATION             A_IMAGE/B_IMAGE                                           
#  12 ELLIPTICITY            1 - B_IMAGE/A_IMAGE                                       
         1 -11.0026     33.1859     63.4510   1.0309593009e+02   6.0273353301e+01     1.853298    0.6312104 -34.55  0.006236062    4.381    0.772
         2 -10.8480     37.7339     11.1774   8.1131241445e+01   6.9278864672e+01     1.129855     0.379103 -45.14  0.004280133    4.336    0.769
         3 -10.3908     10.5228     18.5891   9.8273297784e+01   7.0837231716e+01      1.35248    0.4496878 -24.39  0.004148412    6.962    0.856
         4 -11.0198     24.0936     31.7846   9.6750827551e+01   6.7408344153e+01     1.984633    0.4851936 -38.52   0.00455336    3.949    0.747
         5 -10.5319     26.7381     11.5394   8.6661040830e+01   7.0522820861e+01     0.809473    0.4196452  31.81  0.003708503    2.110    0.526
         6 -10.3801     18.4400      5.3982   8.7901475410e+01   7.2276160506e+01    0.5594813    0.4935675 -45.21  0.002904479    1.715    0.417
         7 -10.8165     21.7827     53.3119   1.0484843630e+02   6.3371217827e+01    0.7991639    0.4524651 -85.97  0.002897629    4.009    0.751
         8 -10.3469      4.9658     41.8005   1.0887726749e+02   6.6804048383e+01    0.7514448    0.2955301 -64.43  0.003658128    2.351    0.575
         9  -9.6598      2.1723     14.1143   1.0093016162e+02   7.2158113556e+01    0.5374825    0.2003434 -58.75  0.002491333    3.169    0.684
        10 -10.1534      6.3146      5.4033   9.4698540516e+01   7.3316025973e+01    0.4211999    0.2703035 -21.35  0.001564735    1.228    0.186
        11  -9.7511      2.4879      3.0980   9.5816600199e+01   7.3949507174e+01    0.2737049    0.1420094 -35.67  0.001273434    1.424    0.298
        12 -10.8152    134.0090     31.0050   5.8442817026e+01   4.8069998361e+01    0.3668854    0.2742255   1.48            0    1.546    0.353
        13  -8.2910     72.0950      8.3228   6.5852168049e+01   6.4198841082e+01    0.2107201    0.1509376  -1.65 0.0004374905    1.309    0.236
        14 -10.3356     73.6382     17.4349   6.9604393606e+01   6.2858317397e+01     1.284282    0.3837563 -24.50  0.003972492    4.231    0.764
        15  -9.4297     77.6948      4.0452   6.1981276853e+01   6.3566486380e+01    0.4977863    0.3126381  -6.58  0.001916984    1.607    0.378
        16 -10.0862     69.7045     40.3293   8.0907606250e+01   6.0168673592e+01     1.076273    0.4116831 -36.58  0.003510347    2.463    0.594
        17  -9.8663     79.2103     24.0119   7.0644607915e+01   6.0979840712e+01    0.6270811    0.3068264  23.70  0.001998917    2.904    0.656
        18 -10.1704     62.9525      3.1791   6.6520010907e+01   6.6390034010e+01    0.4992665    0.3831176 -12.13  0.003218621    1.219    0.180
        19  -9.4711     60.5071     32.6947   8.1280484771e+01   6.2874244129e+01     0.782638    0.2937753 -33.56  0.002906186    2.598    0.615
        20 -10.2260     50.3627     15.7614   7.7772488452e+01   6.6913693744e+01     1.416814     0.713468   2.09  0.005487074    3.839    0.740
        21  -9.7112     63.2316     21.3067   7.5195007526e+01   6.4152813868e+01    0.5657848    0.2845559 -46.45  0.002203452    2.774    0.640
        22  -9.8294     64.4326     13.5473   7.1095852974e+01   6.4965260882e+01    0.3687242    0.2735972 -10.40  0.002262451    1.209    0.173
        23  -8.6453    152.6428     28.2065   5.3736910307e+01   4.3758173672e+01    0.3208011    0.1787461   8.32  0.001175009    3.162    0.684
        24  -9.2306     96.3183     15.0534   6.1470960154e+01   5.8631338235e+01    0.6551462    0.2712604 -14.56  0.002381165    3.197    0.687
        25  -8.9144    128.5291     25.1609   5.7520014697e+01   5.0122808475e+01    0.4507199    0.2581501 -22.15  0.001500495    1.881    0.468
        26  -9.2593    102.8740     21.5290   6.2387224736e+01   5.6477353354e+01    0.4255629    0.2622189 -31.19 0.0006583329    1.674    0.403
        27  -8.7115    104.2390     15.3192   5.9463525387e+01   5.6877509798e+01    0.4471327     0.182128  25.87  0.001311653    5.109    0.804
        28  -9.0321    139.3326     18.1284   5.2760434598e+01   4.8261906539e+01     0.504997    0.2637088   6.43  0.001885375    3.241    0.691
        29  -8.7333    120.2476     15.8514   5.5842307431e+01   5.3144824583e+01    0.3566664    0.1940146  30.23  0.001567719    2.112    0.527
        30  -8.1185    128.8428     16.0981   5.4098190752e+01   5.1057227605e+01    0.3152808    0.2102416 -52.41  0.001412998    1.859    0.462
        31  -8.6884    115.2556      4.1320   5.2340369830e+01   5.5434695434e+01    0.2939734    0.1751444 -21.68 0.0006471791    1.795    0.443
        32  -9.0777    114.0816      9.9509   5.4908596903e+01   5.5181765062e+01     0.370091    0.2282773  30.97 0.0002852079    1.653    0.395
        33  -9.5930     85.3691     13.1685   6.3832362744e+01   6.1106895738e+01     0.439064    0.2624274 -49.29  0.001610538    2.536    0.606
        34  -7.8789    120.3496      6.2990   5.2130558059e+01   5.4044131103e+01    0.2239333      0.10977  56.21 0.0009042696    1.751    0.429
        35  -9.8672    132.5474      7.9301   5.0372196219e+01   5.0949285308e+01    0.7264498    0.3693363 -27.57   0.00337114    2.079    0.519
        36  -8.2065    136.1229      1.6139   4.7469757136e+01   5.0615263555e+01    0.3452595    0.1603101  65.31  0.001107248    1.904    0.475
        37  -8.3694    125.2670     13.0100   5.3680860043e+01   5.2236226193e+01    0.2595138    0.2043601  -6.72 0.0006017325    1.365    0.267
        38  -8.9720    126.8280      9.1851   5.1927194141e+01   5.2227652316e+01    0.2848365    0.2004391  38.97 0.0008155075    1.344    0.256
        39  -9.3101    125.9063      5.1913   5.0608198455e+01   5.2809843029e+01    0.4516078    0.2841808 -12.54   0.00231656    1.777    0.437
        40  -8.0826     80.5474     12.4210   6.4997010055e+01   6.2143693540e+01    0.2505856    0.1630144 -39.53 0.0009249132    1.831    0.454
        41  -7.9728    141.3718     12.0449   5.0246538411e+01   4.8375089099e+01    0.1889241    0.1781082 -25.98   0.00095029    1.157    0.136
        42  -8.7761    110.5018      5.9790   5.4117112663e+01   5.6376448852e+01    0.4561821    0.1999561 -20.44  0.001999045    2.440    0.590
        43  -8.9073    101.8565      7.8199   5.6929903322e+01   5.8160655308e+01    0.3606409    0.2717263 -49.72   0.00102075    1.711    0.416
        44  -9.2931    104.4851      2.6034   5.4100650155e+01   5.8038918376e+01     0.610361    0.1757834  50.01  0.002352216    2.689    0.628
        45  -8.3591     97.6583      5.7295   5.7097486573e+01   5.9277189095e+01    0.2632638    0.1716915  19.02   0.00101696    1.579    0.367
        46  -8.7490     95.9852      2.9885   5.6333104907e+01   5.9885476674e+01    0.2700859    0.2124061  37.70 0.0007021924    1.095    0.086
        47  -7.9676     68.2327      9.0275   6.7530688071e+01   6.4827106974e+01    0.1754427    0.1417047  -1.64 0.0003435524    1.094    0.086
        48  -7.9168    143.7359      5.6674   4.7633140684e+01   4.8377318141e+01    0.3439306    0.1309872 -46.82 0.0009920677    3.458    0.711
        49  -7.9798    151.3697      2.0925   4.5254439559e+01   4.6768651396e+01    0.3461486    0.1758804 -69.84  0.001353418    3.029    0.670
        50  -8.4068     89.3024      2.5706   5.7908339795e+01   6.1348242579e+01    0.2451074    0.1480586 -13.80   0.00108238    1.705    0.414
        51  -7.2371     85.2786      2.6741   5.9076788902e+01   6.2174204899e+01    0.1156277   0.09872519 -52.47 0.0003360901    1.592    0.372
        52  -7.6281    147.2741      1.6777   4.5722618418e+01   4.7833481092e+01    0.1330584   0.09694193 -62.65 0.0002652933    1.576    0.365
        53  -8.1879    126.1754    129.8749   9.0702785642e+01   3.0874425493e+01    0.2378936     0.206921  88.87 0.0005838629    1.268    0.212
        54  -9.4313    207.0338    249.7183   9.5526441648e+01  -5.7329187422e+00    0.3533264    0.1166835  38.08  0.001619707    2.429    0.588
        55  -9.3651    200.3158    249.3127   9.6661152096e+01  -4.6721078417e+00    0.2121982    0.1520076  18.85  0.001404624    1.245    0.197
        56 -10.6713    181.9602    249.0970   9.9934707680e+01  -1.8227215794e+00     0.491722    0.2056301  37.84  0.002472612    1.914    0.477
        57  -7.8090    161.0000    128.5247   8.1823035334e+01   2.3759988439e+01    0.3468976   0.08852783 -43.21 0.0009292483    3.891    0.743
        58 -10.0924     58.4424    124.7154   1.0824678309e+02   4.3281412510e+01     0.617905    0.3502974  79.39  0.002285756    2.707    0.631
        59  -9.5861     41.7878    122.5177   1.1261004213e+02   4.5710231821e+01    0.5867608     0.286229 -89.24   0.00232283    2.982    0.665
        60 -10.1552     27.2522    122.8489   1.1674123002e+02   4.7012311823e+01    0.6233404    0.3114143  75.19  0.002145797    2.768    0.639
        61 -10.2717    108.7901    114.5985   9.1685151441e+01   3.7811970054e+01    0.8914694    0.4855005 -67.41  0.002238215    2.682    0.627
        62  -7.9348    158.2531    122.1421   8.0867631032e+01   2.5725559182e+01    0.2967055     0.209307  76.43  0.001213489    2.048    0.512
        63  -9.0924    150.4903    119.5295   8.2052173730e+01   2.8019789281e+01    0.4319663    0.3122863 -84.07            0    2.063    0.515
        64  -8.5210    100.1168    118.8596   9.5144295100e+01   3.8402467112e+01    0.4103544    0.2592924  -5.81  0.001401879    3.650    0.726
        65  -8.5051      1.6474    116.6348   1.2301450878e+02   5.0330238896e+01    0.4037835    0.1303112 -82.75  0.001379727    3.086    0.676
        66  -9.7741    206.2663    116.2104   6.9194255844e+01   1.5974783126e+01    0.2567615    0.2445501  -6.55 0.0002446781    1.046    0.044
        67 -10.2280     91.8752    113.0381   9.6126207829e+01   4.1212391700e+01    0.5906317    0.3798367 -72.31  0.001653641    1.914    0.478
        68  -8.9207     92.2873    104.0557   9.3791387243e+01   4.3256562013e+01    0.5720956    0.3752871   6.48  0.002318615    2.583    0.613
        69  -6.9713    250.6259    116.2765   6.1734807775e+01   6.6055794979e+00    0.1358466    0.1046549 -66.83 0.0007006058    1.693    0.409
        70 -10.2022     78.1997    113.0126   1.0013880489e+02   4.3405700448e+01    0.5681437    0.3433283 -80.71  0.001471427    2.383    0.580
        71  -8.0233     78.1349    105.2520   9.8364231178e+01   4.5267974462e+01    0.3257744    0.2022195 -17.63  0.001285468    2.826    0.646
        72  -9.7180     81.5266     99.3060   9.5852751764e+01   4.6140945377e+01    0.8022926    0.2700247 -52.22  0.002047445    2.680    0.627
        73 -10.0969     14.2978    111.4250   1.1886144582e+02   5.0737344401e+01    0.5234464    0.2645718  79.09  0.001930107    2.502    0.600
        74  -8.7049     14.4664    105.0363   1.1793581760e+02   5.2228057704e+01    0.2157505    0.1408125 -41.01 0.0008605784    1.637    0.389
        75  -8.2750    152.9333    115.5183   8.0423954336e+01   2.8333170242e+01    0.2355232    0.1566369  46.32 0.0004121309    1.525    0.344
        76  -8.9980     56.5683    113.7413   1.0674730837e+02   4.6174994446e+01    0.3215581    0.2482249  82.70  0.001379062    1.442    0.306
        77  -6.9361    167.4329    114.4089   7.6755075454e+01   2.5248846371e+01    0.1559669    0.1506769 -73.83 0.0001196353    1.080    0.074
        78  -8.9625    243.6199    112.5813   6.1939886390e+01   8.5984382579e+00    0.2875556     0.124242 -22.66 0.0009524727    3.395    0.705
        79  -7.6976    211.1701    112.8668   6.7448989225e+01   1.5486015413e+01    0.1987493    0.1716325   2.08  0.001023569    1.265    0.209
        80 -10.4094     65.6317    109.3003   1.0310057709e+02   4.6088569811e+01     1.103336    0.4493915 -57.81  0.003265011    2.153    0.536
        81  -9.6393     59.1697    109.4490   1.0510101807e+02   4.6890244312e+01    0.3380236    0.2348197  78.22  0.001407228    1.851    0.460
        82  -8.3026    159.1149    111.7629   7.7967180612e+01   2.7716085191e+01    0.2786252    0.2022552 -51.13 0.0005316607    1.420    0.296
        83 -11.1098     21.9051    102.3790   1.1527809741e+02   5.2316985716e+01     1.559357    0.7373779  68.49  0.006202559    3.758    0.734
        84  -8.0235     23.4705     69.0368   1.0824916883e+02   5.9864646002e+01    0.2467064    0.1254469 -60.06  0.000389061    1.592    0.372
        85  -9.4952    148.6534    249.2939   1.0604925941e+02   3.3721126328e+00       0.2995    0.1719471  57.08  0.001652655    1.910    0.476
        86  -9.9551     19.9857     85.0158   1.1288442505e+02   5.6509821094e+01    0.9011601    0.1642998 -62.87  0.003100689    3.609    0.723
        87 -10.5695     25.6535     77.9268   1.0946570541e+02   5.7705787332e+01    0.6899366    0.4255238  87.76  0.002051823    2.323    0.569
        88  -9.9802     55.8801     43.7880   8.7576209394e+01   6.1635953962e+01     1.088639     0.557112  -3.81  0.003320091    5.778    0.827
        89  -9.9860     34.5256     90.4765   1.0905490455e+02   5.4064741099e+01    0.5735708    0.2675987 -78.53  0.001768132    3.009    0.668
        90 -10.2443     36.9929     81.0034   1.0613175689e+02   5.6023825177e+01    0.6604998    0.3332069 -20.30  0.002674215    3.440    0.709
        91  -8.4345    149.7930    109.8260   7.9673824455e+01   3.0257279078e+01    0.2180027    0.1868308 -74.40 0.0003637226    1.332    0.249
        92  -9.4198     39.2391    106.3362   1.1061157786e+02   4.9864515490e+01    0.3609154    0.2530548  60.06  0.001043914    1.693    0.409
        93 -10.9206     44.6416    102.3091   1.0816158030e+02   5.0277074603e+01    0.8033556    0.4382793  73.23  0.003093622    3.396    0.705
        94  -9.7251      6.5036    103.7368   1.2012653073e+02   5.3039068405e+01     0.501671    0.2959356  70.07  0.001622918    1.976    0.494
        95 -10.3250      4.4092     89.2228   1.1875671105e+02   5.6507896553e+01    0.9894328    0.3634142 -85.61  0.002313688    3.950    0.747
        96  -9.0809      7.3703     77.9910   1.1594434987e+02   5.8902788566e+01    0.5044597    0.1983466 -37.58   0.00235318    2.736    0.635
        97  -8.4464    165.9930    103.9966   7.4290453989e+01   2.7704917869e+01    0.3042824    0.2131933 -41.13 0.0004831157    1.398    0.285
        98  -9.6405    149.4561    103.2773   7.7968541235e+01   3.1717004475e+01    0.4747494    0.2989913 -55.10 0.0009538304    1.788    0.441
        99  -7.8874     73.9658    102.8102   9.9063490688e+01   4.6469068157e+01    0.2513327    0.1703042 -68.28 0.0007079057    1.556    0.357
       100  -8.6702    159.1361    101.4573   7.5159391944e+01   2.9837404929e+01    0.2867463    0.2352396 -68.78 0.0004886055    1.411    0.291
       101  -9.3325     94.3990     97.2940   9.1379018311e+01   4.4449319981e+01    0.3527607    0.2825288 -66.64 0.0006229189    1.346    0.257
       102  -8.8198     95.9652     91.0183   8.9160835569e+01   4.5585516231e+01    0.4785228    0.2945118 -17.34  0.001698615    2.747    0.636
       103  -7.7436     68.9781     84.1994   9.5895773641e+01   5.1499588272e+01    0.1776055     0.112726  33.45 0.0008603793    1.753    0.430
       104 -10.3048     63.0642     95.8161   1.0083791685e+02   4.9636326611e+01    0.5334717    0.3499939  89.04  0.001530811    2.345    0.574
       105  -8.6269     63.9061     86.6915   9.8267415101e+01   5.1638447686e+01    0.4912891    0.2483207 -28.18  0.001816758    3.192    0.687
       106 -10.1931    242.1866     96.1091   5.8242145978e+01   1.1589343839e+01    0.4161809     0.304233 -86.12  0.002068426    1.882    0.469
       107  -9.4918    130.5090     96.8380   8.0970954116e+01   3.7350023362e+01     0.479881    0.2478379  35.17  0.001759952    2.330    0.571
       108  -8.9402    150.2734     96.5854   7.5888419215e+01   3.2913224037e+01     0.289229     0.146609  38.26  0.001036518    2.281    0.562
       109  -8.8068    164.5353     94.1307   7.1868594864e+01   3.0016148341e+01    0.3994646    0.2646099 -45.53  0.001129726    1.506    0.336
       110  -9.7308    138.8338     91.9689   7.7393781712e+01   3.6508672204e+01    0.7166036    0.3845346 -38.91  0.001544043    1.853    0.460
       111  -9.1415    140.5469     82.3236   7.4073347955e+01   3.8055660630e+01    0.7055039    0.3205671 -35.82   0.00186005    2.270    0.559
       112  -8.2945    140.0416     75.6128   7.2121343637e+01   3.9469108451e+01    0.3851629    0.2197329 -38.87  0.001353358    1.729    0.422
       113  -8.9161    157.8283     90.7522   7.2424496629e+01   3.2292748382e+01    0.4685225    0.2015325 -35.27  0.001402628    2.431    0.589
       114 -10.5110     48.2256     82.9714   1.0267209433e+02   5.4417412434e+01     1.083602    0.4281141 -54.75  0.002402613    2.078    0.519
       115  -9.9870     62.9118     60.8771   9.0968537034e+01   5.7366559099e+01    0.7157008    0.3271144  33.73   0.00314068    2.412    0.585
       116 -10.4422     55.1058     70.9172   9.6968426018e+01   5.6294367952e+01    0.5826267    0.3965078  60.06  0.001176396    2.243    0.554
       117  -9.1255    150.6378     89.2161   7.3666634514e+01   3.4313669333e+01    0.3567122    0.1823975 -39.51  0.001078111    1.925    0.480
       118 -10.2341     85.4005     86.5359   9.1177343576e+01   4.8425423196e+01    0.5059756    0.3915161  76.17 0.0008323019    1.803    0.445
       119  -9.4329     87.2368     78.7981   8.8295968667e+01   4.9804196826e+01    0.5521899    0.3611846   6.67  0.001298003    2.358    0.576
       120  -7.0230     78.2826     89.6533   9.4332819428e+01   4.8874214004e+01    0.1422666    0.1121309 -86.13 0.0007015208    1.644    0.392
       121  -7.8404    163.5896     87.0895   7.0056125884e+01   3.1609119377e+01    0.3420055    0.1510036 -38.22  0.001206514    2.222    0.550
       122 -10.1802     49.9448     54.5178   9.3777119687e+01   6.0351245883e+01    0.6074992    0.3570212 -54.86  0.002557192    1.736    0.424
       123 -10.2027    103.9211     82.5252   8.4237705148e+01   4.5937219254e+01    0.5496882    0.3055109 -53.43 0.0009387823    1.958    0.489
       124  -9.3870    105.3113     71.3394   8.0270354478e+01   4.7957589362e+01    0.7228114    0.4047658 -31.21  0.002581125    1.936    0.483
       125  -8.7771    157.8756     82.9959   7.0136014081e+01   3.3780951086e+01    0.4996142    0.2255145 -32.73  0.001740013    2.398    0.583
       126  -8.5077    156.9642     76.7409   6.8461591049e+01   3.5173434014e+01     0.322166    0.2422831 -52.76 0.0005496436    1.418    0.295
       127  -9.0719    240.3898     82.7942   5.5281984982e+01   1.4112856991e+01    0.2064433    0.1278321 -24.37 0.0009517227    1.721    0.419
       128  -7.7750    170.4631     83.1062   6.7408190539e+01   3.0672126405e+01    0.2395538    0.1522353 -37.54  0.001014412    1.545    0.353
       129  -8.4111     63.2084     81.4066   9.7083022660e+01   5.2929164708e+01    0.3443004    0.1789667 -67.59  0.001358069    2.687    0.628
       130  -8.2804    149.9138     80.7152   7.1299298645e+01   3.6143112531e+01    0.2990803    0.2141827 -47.78 0.0005138019    1.431    0.301
       131  -8.7564    118.9554     80.4804   7.9234971997e+01   4.3279788558e+01    0.3673203    0.2088564 -48.89 0.0006583402    1.824    0.452
       132  -8.1536    119.8244     76.1491   7.7624787893e+01   4.3962114370e+01    0.2722109    0.2285953  20.54 0.0008511512    1.291    0.225
       133  -9.0129     74.2420     79.1308   9.2683378246e+01   5.1847960323e+01    0.6437263    0.2497999 -49.47  0.001487983    2.318    0.569
       134  -8.4845     68.6231     79.8325   9.4790130764e+01   5.2526157776e+01    0.2664548    0.1209871 -49.06  0.001112203    1.937    0.484
       135  -8.0600    166.1684     78.5864   6.6994508998e+01   3.2564042034e+01    0.2795988    0.2041312 -46.10 0.0009519951    1.377    0.274
       136  -7.8995    184.1382     78.1359   6.3225084358e+01   2.8176178936e+01    0.2268573    0.2108566  22.19 0.0004705352    1.164    0.141
       137  -7.6462    174.4588     78.5792   6.5262276198e+01   3.0506241488e+01    0.1530605    0.1507213 -68.36 8.581473e-05    1.012    0.012
       138  -9.4453    127.4004     75.2895   7.5280882421e+01   4.2453022976e+01    0.4081655     0.291393 -62.32 0.0006519021    1.772    0.436
       139  -9.9618     81.5812     72.3980   8.8159993300e+01   5.2119576890e+01    0.4939187    0.3375504 -66.38 0.0008633545    1.976    0.494
       140  -9.0665     83.7290     64.3917   8.4813704261e+01   5.3387257867e+01    0.5817173    0.3559813 -10.59  0.002350378    2.619    0.618
       141 -10.4772     16.3953     66.4747   1.1033684180e+02   6.0929762338e+01     1.486261    0.2214165 -59.58  0.004691414    3.810    0.738
       142 -10.1596    161.1301    248.7900   1.0369638597e+02   1.4844453401e+00    0.3434032    0.1591211  35.98   0.00176884    1.827    0.453
       143  -8.4308    169.3045    248.3356   1.0213896418e+02   2.6189905156e-01    0.1175157   0.08337619  13.23 0.0006552491    1.667    0.400
       144 -10.1218    115.2422    246.7975   1.1190195771e+02   8.9233616975e+00    0.2051342    0.1850896  68.58 0.0004049506    1.182    0.154
       145 -10.3404    160.8635    242.7383   1.0295742370e+02   2.4045326792e+00    0.4732907     0.218301  25.86  0.001971339    3.205    0.688
       146  -8.7091    193.3729    241.2919   9.6743740119e+01  -2.5676713364e+00    0.1859515    0.1225839  12.52 0.0007909843    1.697    0.411
       147  -9.6739    188.2458    234.0098   9.6602652594e+01  -7.5273389649e-01    0.2659048    0.2380179 -49.58  0.001065625    1.468    0.319
       148 -10.2024     12.6794     45.5601   1.0652170993e+02   6.5597852272e+01    0.7288601    0.3643171  -6.90  0.003153254    2.650    0.623
       149  -8.3581    117.8793    232.3741   1.0981886887e+02   1.0938924603e+01    0.1903559    0.1543122  81.63 0.0005069409    1.305    0.234
       150  -7.4766     41.5154    232.4961   1.2397337703e+02   2.1494536078e+01    0.1118057   0.08359627  69.93 0.0008102564    1.033    0.032
       151  -8.4608    227.3116    223.0770   8.7685210139e+01  -5.4706933869e+00    0.2033161     0.148661  31.39 0.0003347502    1.228    0.186
       152  -9.9568     10.8128    207.4584   1.2791040782e+02   2.9605588723e+01    0.4605463    0.2673898  27.30  0.002898726    2.364    0.577
       153  -9.5989      6.9106     32.5135   1.0519071045e+02   6.8525380888e+01    0.2722816    0.1820593 -18.40 0.0008849889    1.452    0.311
       154 -10.0948      7.4493     28.1778   1.0347344020e+02   6.9314269620e+01     0.310517    0.2732621  54.55 0.0009781735    1.737    0.424
       155  -9.1593    115.0718     71.9580   7.7612192707e+01   4.5809642953e+01    0.5959362    0.2841818 -33.17  0.001466049    2.275    0.560
       156  -8.1080    162.8566     73.0867   6.6055637503e+01   3.4377785897e+01    0.2391435    0.2031929 -65.70 0.0005057659    1.292    0.226
       157  -7.7578    175.3719     72.1895   6.3207279932e+01   3.1403583241e+01    0.2189141    0.1370728 -45.35 0.0007815331    1.606    0.377
       158  -9.3459     55.4598     62.9444   9.4410993084e+01   5.7943630861e+01    0.5066174    0.3324288  -0.45  0.001688396    1.998    0.499
       159  -8.2080    169.5059     71.1021   6.4063525112e+01   3.3064651430e+01     0.235756    0.1503658 -37.29 0.0006062605    1.545    0.353
       160  -9.3574    146.9585     68.8507   6.8311929533e+01   3.9053604765e+01    0.5094011    0.2765265 -43.70  0.001739101    1.877    0.467
       161  -9.0665    206.8806     68.6019   5.6603591245e+01   2.4154508603e+01    0.3785568    0.2460131 -23.23 0.0008420043    1.723    0.420
       162  -8.5355    156.5260     69.9900   6.6487519478e+01   3.6499729160e+01    0.2324096    0.1506842 -38.13 0.0005987471    1.528    0.346
       163  -8.8164    129.6622     68.7560   7.2570436720e+01   4.3175874041e+01    0.4561828    0.2560545  25.90   0.00162066    2.781    0.640
       164  -8.6929    130.4999     64.9915   7.1111877735e+01   4.3668472389e+01    0.4607595    0.2010282 -38.38  0.001639378    2.256    0.557
       165  -9.6635     94.7931     68.2664   8.2502937875e+01   5.0617918813e+01    0.4128203     0.249146 -50.16 0.0008351333    1.742    0.426
       166  -9.3025     97.2718     58.6389   7.8407792902e+01   5.1986128659e+01    0.7967279    0.4247091 -13.41   0.00250788    4.133    0.758
       167  -8.7811    138.9288     56.8448   6.6297136062e+01   4.3073254649e+01    0.4342107     0.262103 -54.26  0.001237065    2.079    0.519
       168  -8.1528    142.9993     44.4718   6.1179342374e+01   4.4006938249e+01     0.404626    0.1893497  37.93  0.001051683    2.632    0.620
       169  -8.9768    138.0878     66.1524   6.9578490457e+01   4.1673601443e+01    0.3581935    0.3253599 -46.69  0.001130588    1.132    0.116
       170  -8.2352    139.1843     61.6090   6.7820065615e+01   4.2207235038e+01    0.3871686    0.2038659  38.53  0.001487959    2.153    0.535
       171  -8.1156    139.0009     51.9992   6.4646532369e+01   4.3841207440e+01    0.3047074    0.2048954  35.71   0.00119461    1.603    0.376
       172  -8.4416    142.0482     48.5302   6.2769797329e+01   4.3634603837e+01    0.2668174    0.2154681 -20.13 0.0003784874    1.304    0.233
       173  -8.9357    121.1851     66.2477   7.4010392502e+01   4.5560754662e+01    0.3198216    0.2441524 -52.57 0.0006540508    1.447    0.309
       174  -8.2740    122.1807     61.4550   7.2119930427e+01   4.6207216770e+01    0.2950948    0.2282901  13.37 0.0009752901    1.511    0.338
       175  -8.0660    170.5458     64.9434   6.2000399967e+01   3.3851413007e+01    0.2327583    0.1503157 -33.83 0.0005429638    1.552    0.356
       176  -9.3030    109.7892     63.8175   7.6416995675e+01   4.8481842493e+01    0.3668214    0.2674839 -50.59 0.0007065354    1.500    0.333
       177  -8.7490    110.9508     58.1721   7.4120508274e+01   4.9262314438e+01    0.3851164    0.2891824  -6.47  0.001160091    1.549    0.355
       178  -8.2592    157.7845     63.0947   6.4060979361e+01   3.7375916951e+01     0.236414    0.2012008 -65.68 0.0006215302    1.296    0.228
       179 -10.3637     85.1221     48.0334   7.8467700945e+01   5.6185197457e+01    0.5652687    0.4475108 -80.64 0.0009949951    2.102    0.524
       180  -9.7171     73.1651     59.2664   8.6707635728e+01   5.6151129322e+01    0.4211402    0.2621756 -57.27 0.0008956836    1.977    0.494
       181  -9.6520     75.0234     51.4116   8.3235175241e+01   5.7342262351e+01     0.905935    0.4966787  -5.59  0.002991077    4.340    0.770
       182  -7.7422    164.0948     60.2719   6.1862844027e+01   3.6254515852e+01    0.2147933    0.1985715  67.09 0.0009812041    1.083    0.077
       183  -7.7000    152.5007     60.0739   6.4248715403e+01   3.9200733646e+01    0.2346109     0.148591 -36.88  0.001020695    1.577    0.366
       184  -7.7310    146.5165     58.9354   6.5219351025e+01   4.0872700014e+01    0.2292088    0.1484907 -36.40 0.0007902414    1.545    0.353
       185  -8.4080    147.5429     53.4309   6.3180858710e+01   4.1512104382e+01    0.5265864    0.1550559 -31.40  0.001563748    3.626    0.724
       186  -8.5059     87.6215     58.5877   8.1503213924e+01   5.3819030773e+01    0.5541202    0.2804203 -55.96  0.002067677    2.966    0.663
       187  -8.4399     88.0103     54.4833   7.9900753703e+01   5.4508340186e+01    0.4329727     0.270276   4.10  0.001792826    2.514    0.602
       188  -8.5143    129.8850     58.0845   6.8946763467e+01   4.5020915400e+01    0.2938956    0.2123671 -41.51 0.0005057454    1.411    0.291
       189  -7.9749    130.3196     54.3046   6.7541449339e+01   4.5551623329e+01    0.3031292    0.2110993  23.75  0.001362646    1.727    0.421
       190  -8.1624    122.5896     41.1395   6.4817208121e+01   4.9415401217e+01    0.3793064    0.2272429  18.95  0.001524446    2.414    0.586
       191  -9.2344    118.0694     55.4242   7.1149098333e+01   4.8181927900e+01    0.4249927    0.3157359 -53.47  0.001148709    1.573    0.364
       192  -9.0751    121.0453     46.9876   6.7340610451e+01   4.8887090780e+01    0.4483276     0.244354 -26.33 0.0004879102    1.975    0.494
       193  -8.7931    168.5788     55.4361   5.9480699070e+01   3.5887548437e+01    0.3695437    0.1791863  51.65  0.001442645    2.004    0.501
       194  -8.5734    162.5231     53.6422   6.0104846446e+01   3.7708821789e+01    0.3043517    0.1486451 -32.54 0.0008555977    2.072    0.517
       195  -7.7578    152.6257     53.8348   6.2207378275e+01   4.0179316514e+01    0.2135745    0.1349024 -43.79 0.0004087591    1.640    0.390
       196  -8.6211    105.1913     52.9882   7.3955911591e+01   5.1387788784e+01    0.3229623    0.2110257 -51.11  0.001015363    1.820    0.451
       197  -7.9975    106.4984     48.6812   7.1991753066e+01   5.1837064378e+01    0.3580793    0.2304736  35.24  0.001679754    1.601    0.375
       198  -8.0306     94.8385     53.4384   7.7304160596e+01   5.3401467857e+01    0.2528697    0.1661482 -31.52  0.001218035    1.476    0.322
       199  -9.0206    156.4825     47.5795   5.9376296325e+01   4.0163814261e+01     0.381999    0.2344372 -54.29 0.0007859434    1.948    0.487
       200  -9.5492    130.5845     46.4855   6.4750397794e+01   4.6729467943e+01    0.9070925    0.4219953 -17.65  0.002093579    3.392    0.705
       201  -8.7577    132.8806     35.8522   6.0431173435e+01   4.7708063011e+01    0.2988155    0.2048263 -40.52 0.0006662025    1.550    0.355
       202  -9.0520    225.9707    205.3468   8.4790176200e+01  -2.8573041413e+00    0.2666702    0.2403184  62.60  0.001114175    1.651    0.394
       203  -8.2507    149.7660     47.7526   6.0821182849e+01   4.1832477170e+01    0.2939698    0.1911803 -42.11 0.0006712317    1.590    0.371
       204  -8.3939    111.9900     46.9883   6.9794740232e+01   5.0923686611e+01     0.268284    0.2005612 -40.70 0.0005038849    1.394    0.283
       205  -8.8433    113.0535     42.5570   6.7854991198e+01   5.1378722293e+01    0.6336575    0.3198927 -12.16  0.002150665    3.481    0.713
       206  -7.3772    162.3789     46.1788   5.7769366451e+01   3.8868618694e+01    0.2106905    0.1304002 -43.93 0.0006109278    1.671    0.402
       207  -8.8491    213.9930    199.9907   8.6015892342e+01  -6.8562438191e-02    0.2073742    0.1675876  25.12 0.0003295842    1.099    0.090
       208  -8.9807    191.8429    193.9043   8.9171876439e+01   4.8269029801e+00    0.6405494     0.316429 -59.84  0.002058065    5.157    0.806
       209 -10.5107    245.2894    198.0160   7.9994509325e+01  -4.9329912339e+00    0.2272155    0.1898361  -0.42  0.000210055    1.069    0.064
       210  -8.9001    215.0801    195.2628   8.4925470452e+01   4.6413096900e-01    0.2119645     0.176933 -23.57 0.0002448381    1.219    0.180
       211  -9.8745     76.1327     32.1272   7.5204026505e+01   6.0385602642e+01    0.4532759    0.3338816  60.68   0.00108453    1.951    0.488
       212  -8.6510    215.6231    190.4255   8.3897923663e+01   1.1184113122e+00    0.2407223    0.1998535   7.02 0.0005032522    1.091    0.084
       213  -8.9974     84.8619     21.6788   6.7763532017e+01   6.0201076451e+01    0.2732268    0.2139324  -1.54  0.000638133    1.208    0.172
       214  -8.4847     40.0369     35.0000   9.0764491424e+01   6.5212854987e+01    0.2561015    0.2076195   2.26 0.0009756679    1.212    0.175
       215  -9.9504     37.7990     42.1767   9.4455299382e+01   6.4141334730e+01    0.3625598    0.2880734 -82.83  0.001835444    2.108    0.526
       216 -10.2127     35.9086     37.9967   9.3732648439e+01   6.5123768565e+01    0.4526772    0.2125256 -38.41 0.0003562785    1.798    0.444
       217  -9.3496    152.9406     41.3327   5.8042426411e+01   4.1963731025e+01    0.5296816    0.3402863  32.47  0.001978464    1.840    0.457
       218  -9.0208    104.9622     41.2385   6.9637755288e+01   5.3346057528e+01    0.3974028     0.246179 -43.08  0.001308373    1.760    0.432
       219  -8.3244    106.1864     36.3424   6.7397016818e+01   5.3808769126e+01    0.2590304    0.1994772  22.80 0.0007464756    1.312    0.238
       220  -8.6909    139.4822     39.8447   6.0361658534e+01   4.5540784163e+01    0.3494342     0.247005 -33.56   0.00143928    1.451    0.311
       221  -9.3694    100.9565     32.4810   6.7373194696e+01   5.5478359807e+01    0.5541218    0.2288344 -32.90  0.001696058    2.394    0.582
       222  -8.2361     96.5570     33.4742   6.9076416495e+01   5.6259302737e+01    0.2703793    0.1716672   3.44 0.0006886618    2.040    0.510
       223  -9.2421     86.9557     39.5274   7.4544965670e+01   5.7253181772e+01    0.4043278    0.2386637  22.89  0.001112253    2.074    0.518
       224  -9.8082     91.8920     37.4933   7.2135757526e+01   5.6610321637e+01    0.5456074    0.2772038  34.43  0.001564542    2.126    0.530
       225  -7.4010    160.4899     39.0490   5.5842863253e+01   4.0356809795e+01    0.2235457    0.1460309 -29.48 0.0007103604    1.591    0.372
       226  -8.0831     80.9457     38.7337   7.6250918181e+01   5.8495763055e+01    0.2411031    0.1699856 -44.11 0.0007068547    1.564    0.361
       227  -8.7467     53.3358     39.0236   8.6747742982e+01   6.2836648793e+01    0.1933211    0.1861774  80.61  0.001267698    1.502    0.334
       228  -8.9001    144.1363     36.5769   5.8236597985e+01   4.4833866676e+01    0.2786725    0.2025852 -55.21 0.0005729665    1.600    0.375
       229  -8.4900    153.1951     35.0768   5.5920084746e+01   4.2749024200e+01    0.2291967    0.1943883  31.14 0.0008129017    1.237    0.192
       230  -8.6714    118.9569     34.6154   6.3316851357e+01   5.1183229368e+01    0.2730498    0.2030646 -22.45 0.0006255352    1.379    0.275
       231  -7.2202    225.2700    190.6639   8.2149320363e+01  -5.9489255099e-01    0.1163563    0.1066806 -65.19  0.000264759    1.596    0.374
       232 -10.3490    183.2473    186.4075   8.9500652448e+01   7.7144307501e+00    0.2440401    0.2321902  20.11 0.0002481349    1.070    0.066
       233  -8.3456    135.7769    186.6611   9.9690669386e+01   1.6551799576e+01    0.2089345    0.1838848 -43.43 0.0005585797    1.264    0.209
       234  -7.9204    242.0714    185.8945   7.8206494510e+01  -2.7153957886e+00    0.1769104    0.1608581  -2.14 0.0002822402    1.196    0.164
       235  -9.1864     68.4472    182.2942   1.1413082189e+02   2.8372188039e+01     0.216746    0.1964125  86.05 0.0003719816    1.136    0.120
       236 -10.1119     46.2804     29.6584   8.5852914896e+01   6.5369504938e+01    0.4488885    0.2637866 -48.90  0.001230419    1.948    0.487
       237  -8.7555     42.2986     28.2896   8.7004478274e+01   6.6097996170e+01    0.2141447    0.1102485 -22.46            0    2.171    0.539
       238  -9.0050    110.3026     33.0840   6.4992917435e+01   5.3359950928e+01    0.3372687    0.2276931 -47.66 0.0008451473    1.779    0.438
       239  -8.8051    204.0768    170.2919   8.2082764909e+01   6.5779308109e+00    0.2249466    0.1950925 -33.18 0.0002945351    1.190    0.159
       240  -7.9634    230.5006    168.4605   7.6709693431e+01   1.9342759235e+00    0.2527733    0.1174161 -45.44   0.00103574    2.539    0.606
       241  -9.2092     91.3157     26.2725   6.7708918330e+01   5.8320628423e+01    0.3794785    0.2221799 -44.62  0.001262163    2.099    0.524
       242  -8.5012     92.4408     20.8429   6.5064761447e+01   5.8778544128e+01    0.3560764    0.1996827  22.31  0.001097751    2.164    0.538
       243  -8.3539    156.4382     27.2210   5.2728156154e+01   4.2909742752e+01     0.204288    0.1262953 -42.19 0.0009431251    1.705    0.414
       244  -7.6871    190.1695    168.4236   8.4493315997e+01   9.6314964753e+00    0.2020794    0.1342445  53.74 0.0009380989    1.703    0.413
       245  -8.1087    109.8345     26.4255   6.2505766287e+01   5.4337163376e+01    0.2065521    0.1159988  42.85 0.0009482327    1.673    0.402
       246  -8.6029    150.1336     24.8346   5.3064927941e+01   4.4796984399e+01     0.200956    0.1613441  31.04 0.0009458696    1.319    0.242
       247  -8.7575     68.9694    166.8105   1.1204470949e+02   3.1821797249e+01    0.2070389    0.1675685 -81.83 0.0002468426    1.104    0.094
       248  -7.4750    250.5201    166.5086   7.2821971952e+01  -1.2712644460e+00    0.1322263     0.113315 -10.98 0.0008097305    1.053    0.050
       249  -7.1235    136.6835    159.2691   9.4460902612e+01   2.2172220728e+01      0.14795    0.1138431  74.36 0.0003095726    1.556    0.357
       250  -8.8304    144.2837     26.3164   5.4671963647e+01   4.6098586779e+01    0.4035351    0.2089413 -24.57  0.001733999    2.084    0.520
       251  -9.5847    118.8905     21.4376   5.8307175912e+01   5.2853095472e+01    0.2811512    0.2773455  -2.99 0.0006382553    1.122    0.109
       252  -7.4258    225.7150    149.7038   7.3516492949e+01   5.9249534308e+00    0.1421048    0.1043467   2.17 0.0002557957    1.545    0.353
       253  -8.3488    111.7411     21.7097   6.0146961021e+01   5.4475492565e+01    0.3200904    0.1653205 -26.38  0.001445394    1.994    0.499
       254  -8.7177    132.9199     17.4680   5.3774328506e+01   4.9917699609e+01    0.2421084    0.2235983 -59.91 0.0006336102    1.216    0.177
       255  -8.5279    133.7423    146.5273   9.2530885398e+01   2.5575978576e+01    0.5037731    0.1316107 -55.11  0.001196253    5.661    0.823
       256  -8.1164    166.7849     16.9555   4.7759908060e+01   4.1420273911e+01    0.1728712    0.1154697 -23.92 0.0003893253    1.639    0.390
       257  -7.6774    155.3034     17.6917   4.9787472425e+01   4.4279335790e+01    0.1424336    0.1031272 -66.56 0.0003080298    1.605    0.377
       258  -7.7012    189.2914     15.5551   4.4324185867e+01   3.5816667822e+01     0.226348    0.1669511  14.27  0.001010301    1.830    0.453
       259  -9.3548    237.4366    145.5905   7.0531176493e+01   4.3597291958e+00    0.2687439    0.1941718  14.74  0.001383636    1.562    0.360
       260  -8.6166    112.5929     15.6289   5.7517674953e+01   5.4955285131e+01    0.2388963      0.20636 -44.58 0.0008068957    1.351    0.260
       261  -7.1827    223.4136    146.4370   7.3201965870e+01   6.9346036782e+00    0.1427504    0.1286963 -12.49 6.123624e-05    1.007    0.007
       262  -9.1719     66.8024    144.2179   1.0926318762e+02   3.7468579272e+01    0.5065767     0.270254  61.76  0.002185941    2.360    0.576
       263  -7.1150     95.6350    136.3018   1.0017347742e+02   3.5014479823e+01    0.1546178     0.109779  74.90 0.0003259881    1.733    0.423
       264  -8.5176    112.2342    133.8507   9.5244028130e+01   3.2651877103e+01    0.3448515    0.2367699  89.48  0.001089989    2.087    0.521
       265  -8.7538    242.7072    133.8578   6.7005515993e+01   5.2791034670e+00     0.237893     0.167006 -17.22  0.001213545    1.446    0.308
       266 -10.2240    139.3813    104.4518   8.0803496639e+01   3.3752713763e+01    0.9083155    0.4475237 -51.32  0.002333518    2.200    0.545
       267 -10.9696    123.4799     90.9674   8.1160998763e+01   4.0127328125e+01     1.272854    0.8480148 -35.26  0.003245167    1.530    0.346
       268  -9.9015    134.4698    131.8356   8.9048603674e+01   2.8738769402e+01    0.6636291     0.518355  65.16  0.003062555    1.447    0.309
       269  -9.7652    127.7890    102.7446   8.3357273576e+01   3.6659944418e+01     0.481075     0.384008 -53.34  0.001326014    1.262    0.208
       270 -10.3371    117.5810    123.8522   9.1536962799e+01   3.3967648053e+01     1.097657    0.6161422 -54.93  0.002355983    1.800    0.444
       271 -11.0900    121.0612    109.4815   8.6991953081e+01   3.6568493527e+01     2.511373     1.079816 -60.42  0.007241379    3.932    0.746
       272 -10.5342    132.1498    120.1414   8.6797832892e+01   3.1860186532e+01     1.039848    0.6664113  82.54  0.003656497    3.026    0.670
       273 -10.2443    140.7063    117.5168   8.3949548248e+01   3.0613595956e+01    0.8950158    0.4302766 -47.09  0.001677098    2.062    0.515
       274 -10.9918    133.5631    109.4382   8.3655809740e+01   3.3945211194e+01     1.003561    0.5400755 -48.34  0.002653769    1.846    0.458
       275 -10.7990    108.4976     99.6361   8.7856167612e+01   4.1299632498e+01     1.205228    0.7799582 -63.90  0.003828961    1.874    0.466
       276  -7.4594     86.0020    134.0000   1.0231521389e+02   3.7136684899e+01    0.2068532     0.159716  65.87 0.0005716762    1.403    0.287
       277  -8.5790     82.3180    130.8295   1.0270160284e+02   3.8475942680e+01    0.3823106    0.2255623 -83.98  0.001546131    2.428    0.588
       278  -7.9420    142.8084    131.9890   8.7011371562e+01   2.6960041254e+01     0.270645    0.1877846 -81.01  0.001085759    2.192    0.544
       279 -10.8032     69.7680    126.7973   1.0542329763e+02   4.1287605405e+01    0.7710248    0.5638554 -36.11   0.00166048    1.607    0.378
       280  -9.7443     98.4835    128.5508   9.7781850136e+01   3.6382314291e+01    0.6106359    0.3745703  73.22  0.002095685    2.621    0.619
