#   1 NUMBER                 Running object number                                     
#   2 MAG_AUTO               Kron-like elliptical aperture magnitude                    [mag]
#   3 X_IMAGE                Object position along x                                    [pixel]
#   4 Y_IMAGE                Object position along y                                    [pixel]
#   5 X_WORLD                Barycenter position along world x axis                     [deg]
#   6 Y_WORLD                Barycenter position along world y axis                     [deg]
#   7 A_WORLD                Profile RMS along major axis (world units)                 [deg]
#   8 B_WORLD                Profile RMS along minor axis (world units)                 [deg]
#   9 THETA_WORLD            Position angle (CCW/world-x)                               [deg]
#  10 FWHM_WORLD             FWHM assuming a gaussian core                              [deg]
#  11 ELONGATION             A_IMAGE/B_IMAGE                                           
#  12 ELLIPTICITY            1 - B_IMAGE/A_IMAGE                                       
         1 -10.1304     94.3043     39.7757   9.1806063178e+01   5.5129806567e+01    0.4021041    0.2129394  30.22  0.001838747    2.124    0.529
         2  -9.1521    201.8915     11.8248   6.2856708157e+01   3.3576437619e+01    0.1986171     0.157396  58.98  0.000816129    1.304    0.233
         3  -8.1824    211.3300      9.2799   6.1262906699e+01   3.1606721250e+01    0.1233864   0.08871477  50.82 0.0007000192    1.602    0.376
         4  -8.7514    229.4983      8.5904   5.9385768969e+01   2.7469238255e+01    0.1259777    0.1008397 -85.20 9.213999e-05    1.027    0.026
         5  -9.0588    219.5588    239.7358   1.1100971761e+02  -8.4155848616e+00    0.1642826    0.1201069 -34.72 0.0006456766    1.523    0.343
         6 -11.2649    209.1165    192.6759   1.0445260568e+02   9.2143551968e-01    0.7491278    0.4769187 -50.34  0.003622246    1.806    0.446
         7 -11.6319    226.7049    219.6012   1.0617981451e+02  -6.6475886580e+00     1.050405    0.7746578 -80.84  0.005015797    3.113    0.679
         8 -10.7784    232.2856    237.8510   1.0836705788e+02  -1.0167090930e+01    0.5672734    0.4521222  70.43  0.003170318    2.251    0.556
         9 -12.2719    241.1943    220.1625   1.0363592100e+02  -9.0852485303e+00     1.651617    0.8924378 -43.59  0.008470121    2.153    0.535
        10 -10.5561    232.6266    214.0297   1.0406511997e+02  -6.7879383743e+00    0.4960335    0.3333873 -25.38  0.001985374    1.499    0.333
        11 -11.4078    248.6350    215.3682   1.0142991671e+02  -9.5632492354e+00    0.6816778      0.44153 -46.32  0.003187462    1.938    0.484
        12 -12.7178    224.3191    196.4820   1.0227214554e+02  -2.5454380238e+00     1.716267     1.197922 -51.94  0.008151296    1.758    0.431
        13 -12.6860    236.8147    194.2065   9.9508294799e+01  -4.3782663886e+00     1.810554    0.7010067 -37.07  0.007433904    2.535    0.606
        14 -12.6858    246.3654    189.6447   9.6892703340e+01  -5.2805739131e+00     1.518822    0.6509494 -47.71  0.005994794    2.935    0.659
        15 -11.0230    233.9054    247.3751   1.0967516235e+02  -1.1675630077e+01    0.4467941    0.3846577  30.49   0.00228272    1.262    0.207
        16 -12.1992    248.7483    241.2615   1.0602294232e+02  -1.3084672361e+01     1.020933    0.3284393 -37.64  0.004510588    3.288    0.696
        17 -11.7669    243.1915    247.4267   1.0803821382e+02  -1.3055144931e+01    0.4787623    0.3739442   2.18  0.001976039    1.116    0.104
        18 -11.4341    241.4570    240.7539   1.0721977070e+02  -1.1948823714e+01    0.4551736    0.3200466 -18.47  0.001808461    1.403    0.287
        19  -9.5787    140.6249    249.6862   1.2744916041e+02   3.4090023795e+00    0.2366126    0.1857687  14.36  0.001405905    1.762    0.432
        20  -9.7083    191.4242    246.6385   1.1737381640e+02  -4.7743089321e+00     0.308701    0.2188532 -25.77  0.001831876    1.698    0.411
        21  -9.4211    112.8769    245.6776   1.3220186091e+02   8.7474986625e+00    0.2642778    0.1559598 -52.52  0.001449138    2.061    0.515
        22  -9.0395    210.1408    245.2643   1.1365744386e+02  -7.6709434482e+00    0.2018387    0.1335541  21.26 0.0009722355    1.485    0.327
        23 -10.2606    146.4409    242.1525   1.2533524423e+02   3.6961823579e+00     0.410301    0.2019097 -49.53  0.002002665    2.403    0.584
        24  -9.6875    131.8060    244.9929   1.2852614935e+02   5.7138995680e+00    0.1884883    0.1514641 -11.73  0.000826059    2.009    0.502
        25  -9.6728    119.7655    245.0331   1.3082411141e+02   7.7289072114e+00    0.1521233    0.1042757 -64.96 0.0008862884    1.652    0.395
        26  -9.0651    169.2352    242.5038   1.2098005851e+02  -3.3096910299e-01    0.2143714    0.1850018 -47.53  0.001379617    1.374    0.272
        27  -9.2494    201.4738    241.4773   1.1466743822e+02  -5.6959788660e+00    0.2238077    0.1243778 -39.71  0.001178036    2.058    0.514
        28  -8.7328    214.0023    241.2883   1.1229450965e+02  -7.7363369616e+00    0.1674586    0.1429889  15.24  0.000570795    1.051    0.049
        29  -9.8760    159.7003    239.1812   1.2233936579e+02   1.8871558962e+00    0.4155763    0.2074294 -59.17  0.001898592    2.749    0.636
        30  -9.4310    195.3498    238.3680   1.1532734535e+02  -4.1930495976e+00    0.2717671    0.1493846 -43.16  0.001400359    2.104    0.525
        31  -9.9617    194.8757    231.8522   1.1435427980e+02  -3.0978325074e+00    0.4253173    0.2818635 -49.61  0.002332406    1.838    0.456
        32  -9.4065    182.8705    238.3713   1.1772115314e+02  -2.0407268013e+00    0.2303772    0.1906972 -24.60   0.00107953    1.400    0.286
        33  -8.9920    189.7484    237.4199   1.1624696428e+02  -3.0836863615e+00    0.1997406    0.1564602 -55.73 0.0005882233    1.626    0.385
        34 -10.2169    204.1706    235.3457   1.1315598665e+02  -5.2345771017e+00    0.3731508    0.3017465 -60.50  0.002266242    1.721    0.419
        35  -9.5300     49.7686    235.9835   1.4282849761e+02   1.9954428687e+01    0.1980782    0.1416787  59.81 0.0006528983    1.185    0.156
        36 -10.3934    173.4655    232.3912   1.1861419249e+02   5.9488040088e-01    0.4709227     0.231706 -40.89  0.002193687    2.419    0.587
        37  -9.1021    133.1680    231.8442   1.2652186573e+02   7.8601291482e+00    0.1743346    0.1593106  19.91  0.001094315    1.348    0.258
        38  -9.9245    186.1069    229.8919   1.1573371041e+02  -1.2399414767e+00    0.3470006    0.2342827 -60.55  0.001582184    2.052    0.513
        39  -9.7048    223.1529    227.1650   1.0818977780e+02  -7.1894168892e+00    0.2443056    0.2028444 -41.35  0.001121579    1.436    0.304
        40  -9.7487    161.8131    225.7844   1.1989168915e+02   3.8426997255e+00    0.2683212    0.1932075 -56.94  0.001271155    1.621    0.383
        41  -9.7042    149.5350    226.0532   1.2240651441e+02   6.0218375590e+00    0.3249944    0.2253749  89.50  0.001625777    2.061    0.515
        42  -9.3697    207.0224    225.9702   1.1102306836e+02  -4.2812194945e+00    0.2035093    0.1461665   4.97 0.0006402519    1.620    0.383
        43 -10.2968    199.6511    224.7047   1.1222386185e+02  -2.7934088018e+00    0.3424459    0.2555276  24.37  0.001821047    1.287    0.223
        44 -10.1025    216.6246    223.6342   1.0878924466e+02  -5.5650888849e+00    0.3416437    0.2437218 -47.61  0.001395551    1.710    0.415
        45  -8.7965    213.1550    225.4167   1.0975902422e+02  -5.2484280993e+00    0.1934485    0.1161002  39.69 0.0006976533    1.512    0.339
        46  -9.9382    181.1182    224.6043   1.1584301550e+02   5.3908795142e-01      0.34836    0.2098266  57.04  0.001667263    1.964    0.491
        47  -9.4723    128.0977    224.7399   1.2655255248e+02   1.0099464351e+01    0.2435585    0.1536295 -46.03  0.001246723    1.936    0.484
        48 -10.0383    192.2753    220.4048   1.1292299766e+02  -7.6890205700e-01     0.293395     0.279877 -34.00  0.001302922    1.183    0.155
        49  -9.5469    157.5298    231.0504   1.2155955720e+02   3.6792690271e+00    0.2701813    0.2404199  79.32 0.0009458334    1.232    0.188
        50  -9.0075    113.5437    221.8104   1.2910376650e+02   1.3198621553e+01      0.24309    0.1245881 -54.52  0.001151647    2.143    0.533
        51 -10.5906    210.8388    218.3311   1.0894506240e+02  -3.7359447983e+00    0.4025144    0.2945797 -20.10  0.001537598    1.489    0.328
        52  -9.2051    178.8560    216.3949   1.1490875834e+02   2.3849358109e+00    0.2640907    0.1811987 -23.19  0.001317086    1.916    0.478
        53  -9.3866    168.7370    215.5652   1.1682366206e+02   4.4203094066e+00    0.3068993    0.1846124 -50.92  0.001495896    1.878    0.467
        54 -10.0518    185.6959    212.9220   1.1292418383e+02   1.7298782071e+00    0.3866605    0.2583418 -43.29  0.001386653    1.639    0.390
        55  -8.9713    154.5205    214.6693   1.1960129295e+02   7.2449651462e+00    0.3277279    0.2067007  88.01  0.001335421    2.970    0.663
        56 -10.2089    131.7942    213.0547   1.2408530356e+02   1.1752032543e+01    0.4162416    0.2450307 -60.38  0.002013872    1.877    0.467
        57 -11.0902    205.0084    206.8087   1.0796936812e+02  -7.8158996141e-01    0.8938264    0.3655356 -35.09    0.0035029    2.854    0.650
        58 -11.3268    197.2902    205.7772   1.0930447793e+02   8.2752092829e-01    0.9242148    0.5693027 -71.27  0.003527358    3.667    0.727
        59  -9.9314    203.0146    197.8930   1.0667445092e+02   1.1475578875e+00    0.4055429      0.27097 -54.47  0.001974239    1.837    0.456
        60 -11.4395    215.3304    209.2896   1.0643002035e+02  -3.0628141353e+00    0.5826057    0.5028508 -35.67  0.002462753    1.250    0.200
        61 -10.0198    211.2138    201.4394   1.0574312178e+02  -1.0016988122e+00    0.2956945    0.2687387  -6.58 0.0009475751    1.072    0.067
        62  -9.1460    176.7099    211.6744   1.1452665982e+02   3.6374320029e+00    0.2108775    0.1673775  44.61 0.0003327073    1.155    0.135
        63  -9.8416    174.4769    209.0190   1.1451840104e+02   4.5486877539e+00    0.4483312     0.138304 -44.32  0.001536939    3.581    0.721
        64  -9.9690    191.8170    208.6980   1.1093603259e+02   1.3353346966e+00    0.3308233    0.2170894 -39.58  0.001203364    1.643    0.391
        65  -8.8235    161.5002    209.8406   1.1734753902e+02   6.8568612732e+00    0.2616394    0.1594144  23.75  0.001129825    2.258    0.557
        66  -9.1057    147.5369    208.9682   1.2012822034e+02   9.6635199813e+00    0.4279642    0.1383515 -50.46  0.001508859    3.365    0.703
        67 -10.4354    125.2433    206.4501   1.2446111688e+02   1.4294245339e+01    0.4503642    0.2425593  55.95  0.002008363    1.892    0.471
        68  -9.7102    163.7710    202.5395   1.1560303583e+02   7.8365094561e+00    0.3634203    0.2354172 -63.05  0.001704035    1.925    0.481
        69  -9.7422    139.5544    202.7854   1.2080819589e+02   1.2416080008e+01    0.2608708    0.1356584 -47.55  0.001132866    2.125    0.529
        70  -9.3521    184.2768    201.5468   1.1115259567e+02   4.0634990687e+00    0.2440036    0.2085313  10.76 0.0006393306    1.266    0.210
        71  -9.7778    176.9228    198.3303   1.1207737295e+02   6.0968670332e+00    0.3571339    0.2529853 -82.45  0.001616831    2.245    0.555
        72  -9.6475    148.5423    196.7751   1.1784202778e+02   1.1944168619e+01    0.3504084    0.1438895 -53.48   0.00131883    2.681    0.627
        73  -9.2882    140.8336    197.9150   1.1971330752e+02   1.3186206873e+01    0.2104201    0.1994867   1.99 0.0006496583    1.256    0.204
        74  -9.4757    185.3592    193.1917   1.0935084863e+02   5.4265093928e+00    0.2889489    0.2568426 -37.91  0.001627443    1.183    0.154
        75  -8.5159     60.6748    194.3605   1.3662928112e+02   2.7299658895e+01    0.1421224   0.08316379  73.91 0.0007042473    1.784    0.439
        76  -9.0484    191.3983    186.7908   1.0685119532e+02   5.4542330360e+00    0.2824953    0.1386286 -47.77  0.001150491    2.192    0.544
        77 -11.1186    231.4042    186.5164   9.8969857661e+01  -2.1431595006e+00    0.6265944    0.4301417 -26.66  0.002426942    1.455    0.313
        78  -9.5580    147.4358    179.6886   1.1495253294e+02   1.5786982698e+01    0.2755895    0.1460779 -55.57 0.0006652081    2.035    0.509
        79 -11.6278    246.6588    203.8649   9.9613654260e+01  -7.5486063597e+00    0.7081526    0.5411244  55.38  0.004105933    1.783    0.439
        80  -8.7189     25.5335    178.5412   1.4233698934e+02   3.5032251120e+01    0.1219579   0.09553622 -85.10 0.0008077823    1.050    0.047
        81  -8.7131    211.5349    176.4761   1.0069601664e+02   3.4005293081e+00    0.1414883    0.1356215  -0.71 0.0008090853    1.020    0.019
        82 -11.3519    249.9569    180.4789   9.4426390818e+01  -4.4112355786e+00    0.9461982    0.2195265 -38.97  0.003039114    4.000    0.750
        83  -8.2479      9.4832    166.4676   1.4457362404e+02   3.9229571663e+01     0.118534   0.08994865 -80.88 0.0002790811    1.060    0.057
        84  -8.8141    184.4050    164.7676   1.0375542031e+02   1.1265858127e+01    0.2096804    0.1433485 -33.20  0.000580852    1.599    0.375
        85  -8.5665    212.6502    162.6873   9.7549262033e+01   5.7685248149e+00    0.1519674    0.1136082   5.49 3.772662e-05    1.721    0.419
        86  -8.8197    200.3347    161.7054   9.9781856799e+01   8.5131450714e+00    0.1482316    0.1196151 -89.71 0.0005741657    1.643    0.391
        87  -8.9727    250.3712    159.7311   9.0069125027e+01  -1.0109161835e+00    0.1979933    0.1177914 -28.99 0.0009441948    1.658    0.397
        88  -9.9841    243.8370    156.0247   9.0394128501e+01   8.4085702712e-01    0.3058439    0.2344874  73.54  0.001175179    1.847    0.459
        89  -8.8974    196.5169    156.0099   9.9306026478e+01   1.0457558297e+01    0.2398252    0.1468177 -42.70 0.0009585561    1.619    0.382
        90 -10.0653    229.8022    153.2950   9.2278762357e+01   4.0552658513e+00    0.2987558    0.2353664  26.72  0.001034986    1.403    0.287
        91  -8.3593     74.7001    154.3562   1.2773013663e+02   3.4664144448e+01    0.1471723   0.09991199  80.88 0.0007036827    1.706    0.414
        92  -8.5318    118.3301    152.7072   1.1647611009e+02   2.7664353724e+01    0.1557973    0.1149355  78.86 0.0007021985    1.629    0.386
        93 -11.3688    241.0359    149.4789   8.9466031310e+01   2.5358055281e+00    0.8295141    0.3204236  44.78  0.003076272    2.801    0.643
        94 -10.4224    242.0976    138.5919   8.6906971626e+01   4.2792205413e+00     1.216171    0.6526338 -68.48   0.00343783    5.866    0.830
        95  -8.6858    244.7080    144.6658   8.7798003278e+01   2.6822093860e+00    0.2236355    0.2013496 -82.39  0.000769708    1.324    0.245
        96  -9.8432    248.7462    143.5699   8.6890751243e+01   2.0997735287e+00    0.3122744    0.2554697 -44.00   0.00163282    1.149    0.129
        97  -8.7000    214.2904    149.6649   9.4363182444e+01   7.9224502799e+00    0.1482482    0.1164334 -73.61 0.0004254785    1.635    0.388
        98  -9.7616    224.9475    146.3973   9.1639118379e+01   6.3205580065e+00    0.2938477    0.2068449 -32.75 0.0009484732    1.396    0.284
        99  -9.6778    235.1479    146.1368   8.9757020178e+01   4.2973692853e+00    0.2225977    0.1905042 -14.30 0.0008410837    1.219    0.179
       100  -8.2849    162.6615    136.3312   1.0211662292e+02   2.2088618981e+01    0.1652968    0.1247813 -88.38 0.0007051894    1.740    0.425
       101  -9.0655    215.8367    135.6163   9.0878441595e+01   1.0300516073e+01    0.2052279    0.1428473  63.94 0.0006900948    1.697    0.411
       102  -9.4274     96.0290    134.8437   1.1846344842e+02   3.5945641819e+01    0.2458962    0.1608373  66.96   0.00107379    1.986    0.496
       103  -8.6151    226.2411    133.9870   8.8610244482e+01   8.3789829693e+00    0.1978193    0.1174021 -40.21 0.0008747882    1.579    0.367
       104 -10.6289    248.8347    130.7601   8.4087910619e+01   4.3438070738e+00    0.4490989    0.2340617 -49.86  0.001961531    1.953    0.488
       105  -9.7767    236.0061    130.3288   8.6092151681e+01   7.0121861819e+00    0.2744256    0.2238718 -79.86 0.0006786446    1.488    0.328
       106 -10.2739    231.3320    129.9638   8.6805817530e+01   8.0541993610e+00    0.3551644    0.3040664 -32.34  0.001118683    1.132    0.116
       107  -9.0053    186.7180    128.0962   9.4851966479e+01   1.8343195879e+01    0.2834421    0.2125961 -25.78 0.0008722963    1.538    0.350
       108 -10.0115    201.0965    125.6074   9.1342376328e+01   1.5545429417e+01    0.4105499    0.2632492 -35.46  0.001486058    1.597    0.374
       109  -8.8974    218.4099    127.1924   8.8452796604e+01   1.1354426983e+01    0.2186716    0.1320002 -49.99  0.000942027    1.666    0.400
       110 -10.2703    213.3633    121.5038   8.8037142869e+01   1.3565464816e+01    0.5332131    0.2290877 -34.76  0.001898255    2.511    0.602
       111  -9.7467    232.1760    121.0194   8.4624333147e+01   9.5249325067e+00    0.2369892    0.2131764  54.75 0.0005312603    1.198    0.165
       112  -8.6103    171.5301    120.9853   9.6362035593e+01   2.3343919950e+01    0.2206538    0.1416578 -17.87  0.000809068    2.492    0.599
       113  -9.5962    192.8172    118.7338   9.1313218084e+01   1.8827379668e+01    0.4410703    0.2804028 -76.99  0.001490544    2.629    0.620
       114  -8.3931    165.7767    119.0663   9.7163964232e+01   2.5086183383e+01    0.2022285    0.1283006 -45.38 0.0004499833    1.562    0.360
       115  -8.6500    226.5940    116.7872   8.4590140135e+01   1.1514585813e+01    0.2065948    0.1282551 -49.59 0.0005029765    1.566    0.361
       116  -9.7048    109.5059    115.8909   1.1043499066e+02   3.7911816050e+01     0.253423    0.2130004  75.54  0.001116651    1.363    0.266
       117  -8.3710    178.4594    115.5237   9.3483159088e+01   2.2849719771e+01    0.1544008    0.1530016 -51.71 1.111049e-05    1.050    0.047
       118  -9.9597    209.8776    113.7343   8.6817668536e+01   1.5847441572e+01    0.3748592    0.2667727  37.49  0.001350164    1.636    0.389
       119  -8.9696    152.8574    113.6149   9.8757578805e+01   2.9225222343e+01    0.2246218    0.1479855  60.49 0.0006916791    1.687    0.407
       120  -8.7020    225.6444    111.8327   8.3594888729e+01   1.2639689868e+01     0.219116     0.123912 -48.62 0.0009384437    1.710    0.415
       121  -9.4981     26.0724    111.1556   1.3338215449e+02   5.0424187207e+01    0.1954308    0.1412179 -44.10  0.001213731    1.329    0.248
       122  -8.7450    201.8459    110.1542   8.7438531108e+01   1.8399774452e+01    0.2027055     0.184478   8.91 0.0005869244    1.292    0.226
       123  -9.2717    122.3219    109.6793   1.0539968119e+02   3.6754993491e+01    0.1563137    0.1215031 -89.37  0.000704499    1.673    0.402
       124  -9.7929    236.5861    107.4277   8.0795804054e+01   1.1041836636e+01     0.263082    0.2524699   9.47  0.000900953    1.207    0.172
       125  -8.7195    197.4578    106.9862   8.7487475461e+01   2.0044999896e+01    0.2321181    0.1489882 -38.27 0.0008483544    1.554    0.357
       126  -8.9114    205.4985    105.9172   8.5715206558e+01   1.8353264440e+01    0.2363317    0.1453577 -41.10  0.001025972    1.569    0.363
       127  -9.8334    228.6171    104.2983   8.1341090206e+01   1.3353480148e+01    0.2886822    0.2382913  83.87 0.0005915649    1.322    0.244
       128  -9.1027    214.1658    104.6104   8.3844967314e+01   1.6579288476e+01    0.2260607    0.1988473 -18.46 0.0005505857    1.301    0.231
       129 -10.5470    246.9789    102.7844   7.8172892956e+01   9.6454512059e+00    0.3694963     0.268476 -65.49  0.001330425    1.469    0.319
       130  -9.3677    241.6264    112.2766   8.1110643644e+01   9.1012045603e+00    0.2400731    0.1763969  74.73 0.0006035884    1.629    0.386
       131  -9.9298    206.2679     98.5355   8.3753308588e+01   1.9555625004e+01    0.4888809    0.3341999  44.22  0.002257707    1.615    0.381
       132  -8.9320    235.2149     97.6144   7.8753327260e+01   1.3081381900e+01    0.2694966    0.1904664  37.42  0.001310956    1.806    0.446
       133  -9.8639    234.0350     94.5079   7.8215090240e+01   1.3886892939e+01    0.3725619    0.1918621  62.54   0.00158425    2.160    0.537
       134  -9.2895    244.7513     93.9448   7.6514182269e+01   1.1642873872e+01    0.2018953    0.1641286 -47.34 0.0004865348    1.108    0.098
       135  -8.3066    150.6566     91.6653   9.3370947080e+01   3.4225588606e+01    0.1604793     0.123464  11.52 0.0007050219    1.763    0.433
       136  -8.3388    157.4338     90.5436   9.1497690718e+01   3.2841591125e+01    0.1514215    0.1498788  75.69 0.0001346663    1.027    0.026
       137  -8.9504    244.9064     88.2340   7.5210609215e+01   1.2580165182e+01    0.3304912     0.181155 -28.58  0.001422893    2.194    0.544
       138  -8.8145    250.4807     88.4723   7.4502883860e+01   1.1348112479e+01     0.137805    0.1226452 -55.61 0.0008092996    1.046    0.044
       139  -8.9610    227.4700     88.4871   7.7808050182e+01   1.6415386686e+01     0.144266    0.1331724 -62.37 0.0001518997    1.036    0.035
       140  -9.4155    236.0506     86.6877   7.6112748581e+01   1.4787105412e+01    0.1916992    0.1779869 -78.12 0.0004278279    1.068    0.064
       141  -9.7795    218.9778     86.3423   7.8621235422e+01   1.8752749221e+01    0.2803214    0.2170356  36.39  0.001402504    1.607    0.378
       142  -9.4179    171.5516     83.6892   8.6555861625e+01   3.0715064311e+01    0.3584941    0.2260234 -84.23  0.001329325    2.658    0.624
       143  -9.4781    244.9854     80.9819   7.3575866892e+01   1.3773729400e+01    0.2202993     0.186339 -63.60  0.000579953    1.053    0.050
       144  -8.8542    186.0000     81.0441   8.2993716625e+01   2.7643922373e+01    0.2386751   0.08555538 -37.62 0.0004182486    2.811    0.644
       145  -9.2527     61.3130     79.3213   1.1521610746e+02   5.3603772616e+01    0.1369366   0.09263453 -22.20 0.0007038916    1.654    0.395
       146  -9.0655    167.5994     77.8068   8.5752618569e+01   3.2740255913e+01    0.2189867    0.1374857 -49.51 0.0007505312    1.668    0.400
       147  -9.6619    249.8140     76.5131   7.1956042973e+01   1.3458921593e+01    0.2634891    0.1758237 -43.04  0.001385031    1.355    0.262
       148  -9.3966    240.2182     76.7336   7.3259434516e+01   1.5521815810e+01     0.288066    0.1916213 -30.05  0.001314726    1.687    0.407
       149  -8.6167    189.0000     75.9831   8.1102120808e+01   2.7788919031e+01    0.2517925   0.08465543 -36.95 0.0008118194    3.008    0.668
       150  -9.0120    157.6067     75.8037   8.7314226711e+01   3.5524509551e+01    0.2229001    0.1368965 -48.93 0.0009546512    1.728    0.421
       151  -9.3883    139.4763     74.4521   9.1082001107e+01   4.0049335989e+01    0.2843733    0.1309633 -48.86  0.001039273    2.495    0.599
       152  -8.5975    208.3828     73.7893   7.7232794357e+01   2.3421698690e+01     0.199662    0.1405411 -26.49 0.0006866732    1.681    0.405
       153  -9.1924     42.3178     73.6796   1.2006998283e+02   5.6974582923e+01    0.1153388   0.09727027  87.28 0.0003899884    1.662    0.398
       154 -10.9549    230.1778     71.3540   7.3395743532e+01   1.8671784863e+01    0.3916118    0.2154976 -42.37   0.00170743    1.684    0.406
       155  -9.4945    239.5827     68.1562   7.1405408440e+01   1.7047020720e+01    0.2258186     0.188526 -60.76 0.0005355931    1.056    0.053
       156  -9.0333    215.2952     68.5341   7.4867445490e+01   2.2624715126e+01     0.385914    0.1005034 -41.51  0.001220847    3.417    0.707
       157  -8.9935    137.3113     80.3228   9.3340605349e+01   3.9474831255e+01    0.1532128    0.1189797  10.49 0.0007038442    1.653    0.395
       158  -9.4077    234.8812     66.6706   7.1679985463e+01   1.8345011145e+01    0.2770514    0.1857603 -32.02  0.001014491    1.634    0.388
       159  -8.6920    219.6536     68.7413   7.4274120474e+01   2.1553794264e+01    0.1364099    0.1099985  35.31 0.0001891418    1.597    0.374
       160 -10.7544    245.1750     65.5876   7.0128657324e+01   1.6207733524e+01    0.3998861     0.255954 -67.58 0.0006225322    1.614    0.380
       161  -8.4264    176.5235     67.5045   8.1134176518e+01   3.2304373759e+01    0.1483483    0.1410602  77.74 0.0001467546    1.024    0.023
       162  -9.1852    121.4188     64.2410   9.2493916519e+01   4.5856771004e+01    0.2052276    0.1333448 -47.24 0.0009553161    1.679    0.405
       163  -9.4562    214.2058     61.7406   7.3371929139e+01   2.3967811348e+01    0.2465786    0.1776738 -53.46 0.0007291081    1.324    0.245
       164  -8.9095    218.6396     61.6946   7.2726089751e+01   2.2914479358e+01    0.1395775     0.109898  31.82 0.0007039252    1.730    0.422
       165  -8.6149    205.4772     61.5387   7.4623768669e+01   2.6113395882e+01    0.1442559    0.1320166 -84.82 0.0002125138    1.020    0.019
       166  -9.3135    202.4507     61.4965   7.5081186533e+01   2.6859889442e+01     0.261355    0.1374283  63.17 0.0001121801    1.856    0.461
       167  -8.6937    174.2020     59.3959   7.9330995709e+01   3.4181451142e+01    0.2060592    0.1356988  73.16 0.0008729114    1.628    0.386
       168  -9.4341    225.3327     57.3415   7.0779771946e+01   2.2003198988e+01     0.135119    0.1096376  27.64 0.0004202345    1.752    0.429
       169  -8.9141    245.6660     55.6732   6.7893657680e+01   1.7616117822e+01    0.1247347    0.1062649  27.15 0.0007051579    1.717    0.418
       170  -9.5329    140.1894     54.3912   8.4837721771e+01   4.3202607578e+01    0.2678961    0.1153921 -30.84  0.001010975    2.595    0.615
       171  -9.3647    191.0560     53.7699   7.4896022884e+01   3.0854651814e+01     0.240534    0.1544527  38.29  0.001082429    1.978    0.494
       172 -10.7163    234.5388     53.0345   6.8623915427e+01   2.0515445671e+01    0.2829022    0.2037349  11.90  0.001317955    2.673    0.626
       173  -8.6561    195.2746     49.6893   7.3171077764e+01   3.0412041428e+01    0.1452036    0.1012549 -69.61 0.0003131735    1.554    0.357
       174  -9.6042    232.8353     46.4700   6.7347057553e+01   2.1864534057e+01     0.234676    0.1702407  -7.19   0.00116232    2.305    0.566
       175  -9.1782    220.8648     44.8652   6.8431514522e+01   2.4892211504e+01    0.2014709    0.1817658  56.41  0.000633075    1.288    0.224
       176  -8.6192    189.7646     44.4219   7.2646290897e+01   3.2525374882e+01     0.201737    0.1193111  53.56 0.0005139742    1.650    0.394
       177  -8.6756    132.0000     43.9567   8.3427828243e+01   4.6611687952e+01    0.2184751   0.08011632 -31.97 0.0007980742    2.912    0.657
       178  -9.0278      5.0130     41.9898   1.2518413098e+02   6.5945262035e+01    0.1512708    0.1326848  85.44  0.001144703    1.783    0.439
       179  -9.6712    105.3493     40.4973   8.8942897276e+01   5.2859322411e+01    0.2281749    0.1236605 -31.44  0.001080655    1.908    0.476
       180  -8.7308     48.6754     41.3150   1.0765558893e+02   6.2103099325e+01    0.1046506   0.09832396 -79.53   0.00038911    1.666    0.400
       181  -9.0633    173.9077     40.3248   7.4086885224e+01   3.7017386715e+01    0.2085787    0.1734379  64.80  0.001160346    1.103    0.094
       182  -9.1149    165.5189    249.0391   1.2263649523e+02  -7.3777305319e-01    0.1687836    0.1276407 -47.76 0.0009189877    1.594    0.373
       183  -9.4494    229.5569     36.9620   6.5584891785e+01   2.3948234641e+01    0.2390131    0.1691376  58.18 0.0006039846    1.511    0.338
       184  -9.9424    218.1328     34.3122   6.6296340571e+01   2.6986273172e+01    0.2486392    0.1782452 -50.18 0.0005834174    1.336    0.252
       185  -9.4288    242.6358     37.6601   6.4326842620e+01   2.0873284257e+01    0.1706056    0.1479435  42.14 0.0002953133    1.576    0.366
       186  -9.0859    232.6100     32.2226   6.4197121009e+01   2.3877059941e+01    0.1674389    0.1255881 -27.39 0.0009453387    1.658    0.397
       187  -9.7268    163.7622     30.9402   7.3153755447e+01   4.0713923871e+01    0.4178165    0.1890007 -43.27  0.001769108    2.392    0.582
       188  -8.5510    194.2879     29.6757   6.8185476964e+01   3.3352748058e+01    0.1413733    0.0939115 -69.27 0.0004081152    1.607    0.378
       189  -8.2356    141.5697     30.0000   7.6956896746e+01   4.6173560094e+01    0.3066105   0.07116026  59.70 0.0009031608    3.889    0.743
       190  -9.2226    220.1976     23.8448   6.3651646987e+01   2.7832880737e+01    0.1722768       0.1398  63.44 0.0004443575    1.298    0.229
       191 -10.4424    248.6017     37.7889   6.3746311797e+01   1.9533908793e+01    0.2683011    0.2170593 -64.58 0.0008048185    1.060    0.057
       192  -8.7052    249.6141     22.1976   6.0429508116e+01   2.1362080661e+01    0.1591364    0.1169037 -30.18 0.0009485009    1.690    0.408
       193  -9.0415    141.0000     21.0232   7.4267522070e+01   4.7314588737e+01    0.1978992   0.07719637 -26.50 0.0007954896    2.895    0.655
       194  -9.0666    206.1730     20.2189   6.4373107329e+01   3.1605010523e+01    0.1895166    0.1648382  68.52 0.0004633095    1.184    0.155
       195 -10.1574    240.7750     18.4389   6.0444217494e+01   2.3775737319e+01    0.2149033    0.1563756 -50.43 0.0005576456    1.294    0.227
       196  -9.3128    226.9355     17.7183   6.1591908828e+01   2.7003601185e+01      0.18071    0.1397644  87.96 0.0005818093    1.103    0.094
       197  -8.8927    121.3120     16.3178   7.6706715639e+01   5.2296972155e+01    0.1366989    0.0862673  31.65 0.0006101753    1.644    0.392
       198  -8.7410    106.9895     15.3967   7.9640657460e+01   5.5475716522e+01    0.2245958    0.1084611  54.29  0.001085488    1.830    0.454
       199  -8.9683     43.6638     15.3187   9.9433359010e+01   6.6389836851e+01   0.09524231   0.09234463 -39.93 0.0003805403    1.702    0.413
       200 -10.6163    216.0735    233.7977   1.1065583938e+02  -6.9961596747e+00    0.4607938    0.3714437 -77.85  0.002503334    2.164    0.538
       201 -10.4398    224.5948    245.4398   1.1103329207e+02  -9.9957649503e+00    0.4231628    0.3201953 -58.20   0.00227486    2.145    0.534
