#   1 NUMBER                 Running object number                                     
#   2 MAG_AUTO               Kron-like elliptical aperture magnitude                    [mag]
#   3 X_IMAGE                Object position along x                                    [pixel]
#   4 Y_IMAGE                Object position along y                                    [pixel]
#   5 X_WORLD                Barycenter position along world x axis                     [deg]
#   6 Y_WORLD                Barycenter position along world y axis                     [deg]
#   7 A_WORLD                Profile RMS along major axis (world units)                 [deg]
#   8 B_WORLD                Profile RMS along minor axis (world units)                 [deg]
#   9 THETA_WORLD            Position angle (CCW/world-x)                               [deg]
#  10 FWHM_WORLD             FWHM assuming a gaussian core                              [deg]
#  11 ELONGATION             A_IMAGE/B_IMAGE                                           
#  12 ELLIPTICITY            1 - B_IMAGE/A_IMAGE                                       
         1 -12.0212    218.9475     14.9367   4.2798509599e+01   2.8440304702e+01    0.7901794     0.689588 -73.61  0.002904513    1.012    0.012
         2 -10.7072    211.5606     23.4655   4.5794045766e+01   2.9276030238e+01    0.5038825    0.3491972  34.85  0.001031668    1.886    0.470
         3 -12.0440    203.8142     31.3046   4.8846921201e+01   3.0259145776e+01    0.9577197    0.8202059 -67.01  0.004611515    1.115    0.103
         4  -9.7682      8.1563      5.8329   9.6435741359e+01   7.2975810041e+01    0.1639515   0.09886694 -24.51  0.001089458    1.340    0.253
         5 -10.3323     65.5191    241.3026   1.2158367151e+02   1.7525109152e+01    0.3390275    0.2211576 -63.58  0.001237879    1.835    0.455
         6  -9.7427    109.3560    249.2201   1.1454736884e+02   1.0060682325e+01    0.2592566    0.1804942  45.68  0.001454055    1.176    0.150
         7 -10.2905    101.1342    250.1550   1.1608843212e+02   1.1118741053e+01    0.4641528    0.1386021  39.70 0.0007621665    2.841    0.648
         8 -10.8255    114.7994    247.8589   1.1344213604e+02   9.4620996104e+00    0.2963868    0.2705281  60.77  0.002043841    1.224    0.183
         9 -10.0795     84.5867    248.8159   1.1886353083e+02   1.3685675405e+01    0.3104454    0.1997304  37.39  0.002019117    1.602    0.376
        10  -9.9102     76.1075    250.2421   1.2043645130e+02   1.4606871409e+01    0.4459131    0.1328231  35.75  0.001805279    3.991    0.749
        11  -8.7492     53.0773    250.5858   1.2432336018e+02   1.7512826595e+01    0.1556344    0.0797588  46.63 0.0003684942    1.538    0.350
        12 -13.6126     48.0688    199.8698   1.2151714204e+02   2.7587277082e+01     2.790175     1.004148  64.13   0.01113802    3.576    0.720
        13  -9.5656     48.9764    223.8156   1.2322295197e+02   2.2774499739e+01     0.263761     0.205978  76.65  0.001948335    1.095    0.087
        14 -12.6829     40.0863    209.6695   1.2382490214e+02   2.6552030346e+01     1.177812    0.8253154 -38.06   0.00545492    2.689    0.628
        15 -14.5967      6.5163    161.7995   1.2704425317e+02   3.9882015336e+01     11.96772     1.322885 -77.38    0.0288215    9.530    0.895
        16 -13.0501      9.3265    207.1753   1.2926647788e+02   3.0246699276e+01    0.9011341    0.8625216  33.72  0.005323852    1.658    0.397
        17 -10.0915     47.8137    216.8150   1.2291913021e+02   2.4247313609e+01    0.2902013    0.1784057  71.70  0.001108879    1.357    0.263
        18 -10.0609     32.7966    205.0246   1.2485815556e+02   2.8292368033e+01    0.3378252    0.1250794 -77.09  0.001692839    2.459    0.593
        19  -9.1994     70.0209    241.5442   1.2081858316e+02   1.6891833418e+01    0.1653083    0.1163473  58.12 0.0004870239    1.078    0.072
        20  -9.6701    141.3941    240.8530   1.0782252994e+02   6.4181164045e+00    0.1785664    0.1297445  50.64  0.001150261    1.146    0.128
        21  -9.1315     53.2446    238.5340   1.2350560170e+02   1.9568581703e+01     0.186073    0.1292752  89.09 0.0007369145    1.314    0.239
        22  -8.1776    193.6182    194.7071   9.0751654400e+01   4.7418160306e+00    0.1424842   0.09675969  13.89 0.0001183724    1.753    0.430
        23 -10.0356     92.1731    234.6112   1.1625141556e+02   1.5023417553e+01    0.2264264    0.1762938  84.21  0.001570883    1.256    0.204
        24  -7.7843     96.6192    189.8215   1.1033039531e+02   2.2954284682e+01    0.1813579    0.1168553 -80.61 0.0006041555    1.709    0.415
        25  -8.1877     73.3764    187.9710   1.1511580415e+02   2.6800484892e+01    0.1777169     0.142969  83.54 0.0005142593    1.085    0.078
        26 -10.0693     65.3416    181.6331   1.1613144369e+02   2.9263027138e+01    0.3308818     0.238497 -50.15   0.00139788    1.711    0.416
        27 -10.1995     70.3183    175.9545   1.1436000669e+02   2.9836294408e+01    0.3011113    0.2407613 -45.34 0.0008289446    1.604    0.377
        28  -8.4301    195.5420    168.9698   8.5391936253e+01   8.7302637827e+00    0.2106751    0.1386902 -36.32 0.0006167085    1.575    0.365
        29  -9.8039     79.4129    165.8505   1.1093261700e+02   3.0809827922e+01    0.2599836    0.2489594 -74.73 0.0006759947    1.212    0.175
        30 -10.7710     85.7241    160.1047   1.0857712006e+02   3.1174450874e+01    0.7241721    0.3748434 -47.96  0.002040538    2.198    0.545
        31 -11.6077     66.9593    162.2409   1.1337922222e+02   3.3381364031e+01    0.4381561    0.2876959 -46.72  0.001234186    1.838    0.456
        32 -10.6265     72.8291    154.1345   1.1081798630e+02   3.4445452039e+01    0.5255907    0.2916698  60.23  0.002450275    2.011    0.503
        33 -14.3258      7.7556    242.1939   1.3113000297e+02   2.3967510838e+01      2.08078     1.501054  61.75   0.01746818    1.200    0.167
        34  -8.4140     26.2977    149.3117   1.2151946607e+02   4.0973246176e+01    0.1167859   0.08137403 -52.33 0.0004745577    1.600    0.375
        35 -11.4196     68.5007    144.0901   1.1037346118e+02   3.7397535286e+01    0.7423602    0.4532176  69.36  0.003264041    1.935    0.483
        36  -9.2796     99.7436    144.4588   1.0242145242e+02   3.2530463759e+01    0.2809117    0.2263536 -47.11 0.0009690604    1.320    0.242
        37 -10.5298     87.9037    142.8941   1.0517277892e+02   3.4833718260e+01    0.3453937    0.2852838  22.58 0.0006143871    1.494    0.331
        38 -10.6780     59.1696    133.9891   1.1121928501e+02   4.1010591500e+01    0.6348819    0.2632887 -75.71  0.002353252    3.047    0.672
        39  -8.2774    110.2976    132.3476   9.7258407747e+01   3.3478306027e+01    0.1489785    0.1174644 -20.62 0.0004742889    1.679    0.405
        40  -7.9881    105.4716    130.4980   9.8134166763e+01   3.4784350459e+01    0.1474329      0.13899 -80.35 0.0008100023    1.004    0.004
        41  -9.2242     97.6180    128.4597   9.9803637237e+01   3.6637760283e+01    0.2755497    0.2435895 -20.88  0.001041666    1.362    0.266
        42  -9.6638     49.9728    233.9792   1.2376021457e+02   2.0783235784e+01    0.1700331    0.1243623  67.51 0.0003410676    1.006    0.006
        43  -8.9152    116.4921    125.4898   9.4109558872e+01   3.3893291400e+01    0.1490535    0.1453287 -52.80 -9.682307e-05    1.059    0.056
        44  -7.5447     77.2714    235.3263   1.1902873868e+02   1.7001860500e+01   0.09313208   0.09124193 -34.74 0.0003720562    1.579    0.367
        45  -7.8457    107.3841    120.2105   9.5332374681e+01   3.6828593989e+01    0.1922693     0.138451 -62.03 0.0002917235    1.409    0.290
        46  -9.0544    168.2141    223.1902   1.0039429801e+02   4.7130817535e+00    0.2105185    0.1321394   6.63 0.0009582284    2.857    0.650
        47  -9.0946    237.7779    112.2883   6.4778966358e+01   9.7964956785e+00    0.2300072    0.1110463 -25.08 0.0008098644    2.360    0.576
        48  -7.5602    205.5099    110.4560   6.9920056208e+01   1.7231891928e+01    0.1506754     0.144929 -19.03 0.0008089315    1.011    0.011
        49  -7.7211    163.6534    231.3098   1.0242411150e+02   4.2372590686e+00    0.1244975   0.08736023  62.61 0.0007044963    1.706    0.414
        50  -8.3220    135.0000    102.0066   8.3315340301e+01   3.5304067186e+01    0.2623518   0.08796225 -43.84 0.0008019651    2.939    0.660
        51  -8.8040    134.6497    230.3072   1.0780001077e+02   9.1867308674e+00    0.1288718    0.0826604  63.62 0.0007043004    1.709    0.415
        52 -10.0254    124.6265    228.1994   1.0945887987e+02   1.1161578937e+01    0.3062118    0.1443727 -52.21   0.00154368    2.543    0.607
        53 -10.0945     97.3073    225.8643   1.1442140072e+02   1.5820982418e+01    0.4946494    0.2584322  73.22  0.002374463    2.579    0.612
        54 -10.3019     13.0281     59.9358   1.1196534140e+02   6.2388453953e+01    0.3197702    0.1392807 -66.65   0.00159483    2.019    0.505
        55  -8.8964    143.7337     48.7083   6.4647568588e+01   4.3254107791e+01    0.2689499    0.2286736 -76.29 0.0005624046    1.380    0.275
        56 -10.7954    126.9093    245.9995   1.1106449871e+02   7.9031168571e+00    0.3111238    0.2067947  57.32  0.001978483    1.337    0.252
        57  -9.9154     95.9980    245.7226   1.1659235178e+02   1.2582784315e+01    0.3247556    0.1520773  50.86  0.001817874    1.675    0.403
        58 -11.7000    195.8828     37.3802   5.1623668921e+01   3.1492393786e+01    0.7920961    0.4916168  61.07  0.002511688    1.550    0.355
        59  -9.4128     58.8493    243.9468   1.2291938461e+02   1.7923003893e+01    0.2631496     0.110439  79.90  0.001246919    3.220    0.689
        60  -9.4670      8.6006     30.7367   1.0594978629e+02   6.8576770427e+01    0.1558331   0.09375615 -61.09 0.0009506403    1.603    0.376
        61 -11.5409    105.7945    229.0764   1.1314898184e+02   1.3964552462e+01    0.8442667    0.2475237  41.19  0.003490977    2.811    0.644
        62 -10.3012     45.4885    220.6357   1.2362403650e+02   2.3794441852e+01    0.2543035    0.1777367  83.32  0.001779497    1.190    0.160
