#   1 NUMBER                 Running object number                                     
#   2 MAG_AUTO               Kron-like elliptical aperture magnitude                    [mag]
#   3 X_IMAGE                Object position along x                                    [pixel]
#   4 Y_IMAGE                Object position along y                                    [pixel]
#   5 X_WORLD                Barycenter position along world x axis                     [deg]
#   6 Y_WORLD                Barycenter position along world y axis                     [deg]
#   7 A_WORLD                Profile RMS along major axis (world units)                 [deg]
#   8 B_WORLD                Profile RMS along minor axis (world units)                 [deg]
#   9 THETA_WORLD            Position angle (CCW/world-x)                               [deg]
#  10 FWHM_WORLD             FWHM assuming a gaussian core                              [deg]
#  11 ELONGATION             A_IMAGE/B_IMAGE                                           
#  12 ELLIPTICITY            1 - B_IMAGE/A_IMAGE                                       
         1 -11.2617    221.1994     15.6173   1.8412684307e+01   2.8440736435e+01    0.2393021    0.1779662 -49.51  0.000246767    1.098    0.089
         2 -12.1869    236.1674      6.9218   1.5605234892e+01   2.6299417560e+01    0.8380724    0.5497507  22.62  0.004853639    2.489    0.598
         3 -11.9729    236.4924     30.3321   2.0924180179e+01   2.3954893498e+01    0.5024767    0.3085005 -19.35  0.002951804    1.661    0.398
         4 -12.2150    227.5455     17.1861   1.8417395517e+01   2.7012479212e+01    0.6321667    0.4626588  32.88  0.003932778    1.930    0.482
         5 -12.2113    240.1416     20.0866   1.8378087726e+01   2.4304113500e+01    0.4893236    0.4045903  40.10  0.001695725    1.627    0.385
         6 -12.8248    247.2131     13.4935   1.6561514216e+01   2.3633887795e+01     1.338359    0.4644406 -23.45  0.006263532    2.697    0.629
         7 -11.5453    238.3684     14.3344   1.7175430046e+01   2.5192238011e+01    0.3971392    0.3332446  67.03  0.002893112    1.465    0.317
         8 -12.0504    132.3195     29.5777   3.1931083846e+01   4.8071169254e+01    0.3682457    0.3036629 -50.16 0.0001297984    1.205    0.170
         9 -12.0541    111.2669     18.9952   3.1647427966e+01   5.4858262538e+01    0.6738383    0.4054317  -6.49   0.00292975    2.172    0.540
        10 -12.4144     55.0692     19.7642   4.9789803722e+01   6.8538004267e+01     0.395399    0.2750413  25.63 0.0005118057    1.583    0.368
        11 -10.0325     81.3302     17.4981   3.8367134882e+01   6.2755966970e+01    0.4581471    0.2177169 -36.20  0.001907208    2.157    0.536
        12 -10.7174     83.6146     13.2584   3.5468993250e+01   6.2681493863e+01    0.3036319     0.247434 -34.31 0.0006833724    1.299    0.230
        13 -11.1272    101.0600     16.0012   3.2467359807e+01   5.7875430422e+01    0.5400673    0.3994887  39.39  0.001978129    1.409    0.290
        14 -11.3559     76.2767      8.5382   3.5009823350e+01   6.5039695952e+01     0.855711    0.5542467  -8.40  0.004144744    1.800    0.444
        15 -10.2589     39.5890      9.1990   5.1177843758e+01   7.3259459366e+01    0.2904501    0.2656908 -57.06 0.0006472757    1.362    0.266
        16 -10.3531     63.1929     10.1000   4.0368764798e+01   6.8040748109e+01    0.2792604    0.2393555 -88.56 0.0008532021    1.400    0.286
        17 -10.0588     46.9787      5.5051   4.4422350354e+01   7.2244866660e+01    0.3417991    0.2057481  50.16  0.001141418    1.555    0.357
        18  -9.8267     49.0583      2.8666   4.1497578979e+01   7.2104009529e+01    0.3317471    0.2642395  82.02  0.001301415    1.610    0.379
        19 -11.2686     56.1059     12.2508   4.4667625046e+01   6.9389058023e+01     1.173896    0.5252269  65.27  0.004224432    3.273    0.695
        20 -11.2686     43.5174     12.4221   5.1139282526e+01   7.2014146274e+01    0.2687175    0.2362252  30.74 7.953285e-05    1.076    0.071
        21 -11.1676     45.9689      9.2477   4.7604054160e+01   7.1970643986e+01       0.2495    0.2118103  22.79 0.0002841979    1.107    0.096
        22 -11.2704    123.2284     11.2100   2.6301791902e+01   5.2492142491e+01    0.5041182    0.3093084  68.03  0.001714441    1.505    0.336
        23 -10.5659      9.4645     14.9851   7.8871581860e+01   7.6607278476e+01    0.3303031    0.2884338 -81.45  0.001775579    1.431    0.301
        24  -9.8001      8.5043      9.0468   7.6322853970e+01   7.7929662123e+01    0.2546706    0.1563317 -36.15  0.001063661    1.495    0.331
        25  -9.8779    176.4122     12.2430   2.0656962792e+01   3.8758638037e+01    0.2498264    0.1849622 -89.30  0.000274627    1.308    0.235
        26 -12.5793    187.0074     13.7275   2.0233159804e+01   3.6102361301e+01    0.5471439    0.2989313 -15.97 0.0004236235    2.083    0.520
        27  -9.6316    155.5034     14.9447   2.3512717894e+01   4.3687916063e+01    0.3049778    0.2260327   8.40  0.000616594    1.734    0.423
        28 -10.7123    152.6723      3.8569   2.0083830322e+01   4.5432156025e+01    0.5450431    0.3063042  56.40  0.002635059    1.818    0.450
        29  -9.9891    157.5170     11.0152   2.2002529981e+01   4.3555818096e+01    0.2970949     0.185906 -54.52 0.0009860089    1.529    0.346
        30 -10.5042    149.6859     11.9349   2.3136974041e+01   4.5472062742e+01    0.2719426    0.2148301  67.49 0.0005536536    1.242    0.195
        31 -10.8045    153.4673      9.3041   2.1841330231e+01   4.4747039345e+01    0.2708605    0.2334588 -87.90 0.0005813577    1.080    0.074
        32 -11.1347     24.0621     13.4539   6.5077253288e+01   7.5201674976e+01    0.3871351    0.2679761  16.03  0.001044605    1.514    0.339
        33 -10.0085    131.5333     13.7215   2.6068111128e+01   5.0045133829e+01    0.2803156    0.2048122 -78.83 0.0007911206    1.395    0.283
        34 -11.2751     31.0580     11.2940   5.8287398301e+01   7.4484449918e+01    0.6130757    0.3464482 -22.50  0.002168126    2.176    0.540
        35 -10.2607     35.3442      3.8514   4.9766949813e+01   7.4835075131e+01    0.2903291    0.2518372 -42.44  0.001076989    1.350    0.259
        36 -10.9401     40.5679      2.6604   4.5698840691e+01   7.3946201012e+01    0.3870368    0.2434589  64.01  0.001427944    1.974    0.493
        37 -10.0276    143.8281     11.9244   2.3806075193e+01   4.6991364989e+01    0.4441931     0.206281 -56.96  0.001795042    2.386    0.581
        38 -11.1581    217.6800      4.3628   1.5867688286e+01   3.0213867298e+01    0.6482685    0.4022129  16.40  0.003392781    2.668    0.625
        39 -11.3178    208.6128     10.3748   1.7858862554e+01   3.1578322277e+01       0.3486    0.2773349  46.63  0.002223249    1.581    0.367
        40 -11.1411    211.3632      4.6247   1.6251454451e+01   3.1516739851e+01    0.5002882    0.2700346  73.90  0.002764302    1.946    0.486
        41 -10.4811    204.3815      3.7295   1.6394702305e+01   3.3101980293e+01    0.3323399    0.2487474  37.73  0.001339027    1.777    0.437
        42 -11.2581    199.3128      3.2608   1.6552247351e+01   3.4262069548e+01    0.6699268    0.2528028 -89.91  0.002844184    2.938    0.660
        43 -11.9469    182.5963     11.8762   2.0048500459e+01   3.7316197994e+01    0.3939508    0.2720565 -27.01  0.001373485    1.425    0.298
        44 -10.0108     90.8455     10.5788   3.2208122061e+01   6.1114107710e+01       0.4601    0.1725186  63.27  0.001696202    2.368    0.578
        45 -11.4196     89.7340      3.5822   2.8884426572e+01   6.2065318476e+01    0.6245718    0.3930122 -65.34  0.002909887    1.944    0.486
        46  -9.7789    134.8701      9.8520   2.4152194404e+01   4.9535044530e+01    0.1991054    0.1750257  54.41 0.0002887312    1.182    0.154
        47  -9.4293     18.1702      8.8719   6.6875775198e+01   7.6860224012e+01    0.2634579    0.1781694 -58.24  0.001403193    1.856    0.461
        48 -12.3264    127.6938      4.5299   2.3019245787e+01   5.1906344832e+01    0.4546719    0.3201183 -65.11   0.00235623    1.436    0.304
        49 -10.8241    167.9722      5.7490   1.9379570835e+01   4.1417416254e+01    0.4945043    0.3552039   2.96  0.002010057    1.784    0.439
        50 -10.0336    115.8716      8.0481   2.6133785097e+01   5.4746662226e+01    0.2073804     0.186431 -83.89 0.0004870952    1.070    0.065
        51 -10.6293    103.2742      7.9518   2.8277144272e+01   5.8107016746e+01     0.311205    0.1956649  71.52  0.001029893    1.490    0.329
        52  -9.9301     24.0167      7.4339   6.0799997169e+01   7.6271555032e+01    0.4457642    0.2078961  23.14 0.0008209979    3.028    0.670
        53 -10.6175    225.0979      6.8444   1.6101756345e+01   2.8476405538e+01    0.1966386    0.1250353 -52.34  0.001030704    1.285    0.222
        54  -9.3540    178.7803      5.9589   1.8616201177e+01   3.8770303500e+01    0.1872293     0.125994 -50.51 0.0003686899    1.315    0.239
        55 -10.1767    175.9279      3.0730   1.7969002998e+01   3.9708520160e+01    0.2196567    0.1809814 -18.27 0.0005466939    1.338    0.252
        56 -11.8581      4.2569      3.7182   7.7411966939e+01   7.9388471123e+01    0.5030134    0.2961527   0.65  0.001557533    1.850    0.459
        57 -10.4729    105.7573      2.3149   2.5236504821e+01   5.7937162532e+01     0.525068    0.2708609  88.16  0.002205988    2.153    0.536
        58  -9.2923     18.0000      3.9666   6.3278225130e+01   7.7754309586e+01    0.2873848     0.193335  12.26  0.001142121    1.594    0.373
        59  -9.6869     15.4802      1.5112   6.3626141270e+01   7.8525231606e+01    0.2005453    0.1817793  -0.57 0.0009579989    1.102    0.093
        60  -9.8561    229.9363      2.2752   1.4814074181e+01   2.7923929132e+01    0.1572966    0.1289525 -57.10 0.0003511203    1.075    0.070
        61 -10.9993    133.9501      1.9992   2.1304731804e+01   5.0458967353e+01    0.6729611    0.2857342  69.63  0.002825896    2.098    0.523
        62  -9.9316    115.9698      1.0000   2.3119425658e+01   5.5316929310e+01    0.4778189   0.07357758  73.81  0.001158258    5.954    0.832
        63  -9.6627     29.0593      1.6264   5.2218491114e+01   7.6319526434e+01    0.2971481    0.1736541  59.93  0.001317802    2.510    0.602
        64 -10.4683     21.3069    104.8382   9.4645479756e+01   5.3158531625e+01    0.3111345    0.2159814 -83.06 0.0006920653    1.366    0.268
        65 -11.7232    120.9096    107.8919   6.0067725477e+01   3.7015428730e+01    0.4641708    0.2496471  40.50 0.0008234662    1.865    0.464
        66 -11.7889     45.6779    103.3961   8.4536060484e+01   5.1076030738e+01    0.6881246    0.3016692 -71.05  0.002588152    2.428    0.588
        67  -9.6302    131.3150    104.4573   5.6428889445e+01   3.5556007523e+01    0.3723017    0.2321778 -22.88  0.001514974    2.158    0.537
        68 -11.9617     81.1033    103.1878   7.1169399209e+01   4.5793536936e+01    0.3473286    0.2915633  77.40 0.0002659759    1.352    0.261
        69  -8.4882     95.3046    105.2849   6.6960747254e+01   4.2688795154e+01    0.1507911    0.1212995  -7.35 0.0003403702    1.561    0.359
        70  -9.9784     28.2654    109.6633   9.2485417423e+01   5.1281686445e+01    0.2670416    0.2470255  -8.99 0.0006965637    1.215    0.177
        71  -9.7468    114.1961    104.1714   6.0957840667e+01   3.9189928570e+01    0.2241184    0.2068184  -1.96 0.0004727254    1.156    0.135
        72 -10.3702    106.9345    103.2622   6.2834054700e+01   4.0866997340e+01    0.3597415     0.242668  33.81  0.001607851    1.553    0.356
        73 -10.0981     84.1207    113.0424   7.2499160073e+01   4.2880644949e+01    0.2152086    0.2118022  54.56 0.0003110137    1.008    0.008
        74  -9.7009    127.1314    101.9753   5.6839704723e+01   3.6946048647e+01    0.2143501    0.2122536   6.26 0.0003497572    1.010    0.010
        75  -9.7420     71.6548    112.9074   7.6729130224e+01   4.4975979181e+01    0.2057365    0.1858356 -68.19 0.0003232717    1.113    0.102
        76  -8.9064    143.4886    100.4711   5.2409093822e+01   3.3737192668e+01    0.1482053    0.1422194  -4.63 -5.037213e-06    1.036    0.034
        77  -9.7893     67.0033    100.0077   7.5499411246e+01   4.8944350025e+01    0.2396095    0.1841484 -15.66  0.001122975    1.656    0.396
        78 -10.1062    116.9416     96.7979   5.8166630615e+01   4.0189354380e+01    0.4207594    0.2436468 -55.71  0.001079457    2.001    0.500
        79 -10.6940    101.1410     97.8992   6.3150172342e+01   4.3232240059e+01    0.4469763    0.2528104  44.66  0.001843222    1.757    0.431
        80  -9.4031     86.8422     97.2011   6.7636535790e+01   4.6181090573e+01    0.2750356    0.2084665 -65.59  0.001293058    1.446    0.309
        81  -9.1067     63.0727     98.4883   7.6636529871e+01   4.9940984393e+01    0.2229992     0.147433  32.59 0.0006200549    1.529    0.346
        82  -9.6171     26.9308     96.9937   9.1193079501e+01   5.4765499401e+01    0.2098494    0.1901855  77.64 0.0004327199    1.077    0.071
        83 -10.8245    107.8400     95.9703   6.0566184847e+01   4.2285481237e+01    0.3453259    0.2208678  43.33 0.0003211118    1.552    0.356
        84  -9.3164     80.5925     94.4895   6.9090251057e+01   4.7981015058e+01    0.3230621    0.1506655  36.89  0.000925204    2.155    0.536
        85  -9.4412     71.9308    107.0412   7.5332009693e+01   4.6395707183e+01    0.2333893    0.1783575 -23.14 0.0004023991    1.622    0.383
        86  -9.8199     16.8721     92.2202   9.4892495316e+01   5.6851140941e+01    0.2505803    0.1717305  88.41  0.001276432    1.441    0.306
        87  -8.9219    137.5045     92.4088   5.1593004583e+01   3.6582306841e+01    0.1463432    0.1459143  65.36 6.581685e-05    1.029    0.028
        88  -9.1071    113.2200     91.6032   5.7737160879e+01   4.2081236815e+01    0.2123096    0.1443627  34.64 0.0004151156    1.582    0.368
        89  -9.8253     94.7130     90.9841   6.3254458338e+01   4.6086045633e+01    0.2234434    0.2044713 -50.72 0.0005983279    1.100    0.091
        90 -12.5920     34.7562     89.3295   8.6414539838e+01   5.6026594176e+01    0.6429182    0.3652827  87.68  0.001909698    2.257    0.557
        91 -10.0235     33.7750     83.9406   8.5760524283e+01   5.7547417878e+01    0.3167902    0.1956391 -73.08 0.0008730605    1.615    0.381
        92 -10.0024    127.0551     89.3386   5.3303653732e+01   3.9505334864e+01    0.3151038    0.2197654 -45.77  0.001126804    1.440    0.306
        93  -8.7905     26.4560     90.5612   9.0354567826e+01   5.6517243020e+01    0.1400118     0.130693 -67.98 0.0002962334    1.028    0.028
        94  -9.3615     64.6912     89.0562   7.3632025824e+01   5.2050593341e+01     0.210274    0.1839374 -60.16 0.0002817767    1.133    0.117
        95 -10.5258     54.6859     88.8592   7.7667987054e+01   5.3637526619e+01    0.3355401     0.251985  22.83 0.0008469119    1.430    0.301
        96 -11.7306     12.8952     88.0801   9.6140808484e+01   5.8222250035e+01    0.2365794    0.2221582  79.38            0    1.061    0.058
        97 -12.3562    105.5243     81.0165   5.6803436758e+01   4.5981040534e+01    0.7422286     0.569285 -16.75  0.001255574    1.629    0.386
        98 -10.6042     84.1701     86.6745   6.5600266220e+01   4.9153495656e+01    0.2707525    0.2534915 -50.03 0.0003087096    1.070    0.065
        99  -9.0601    156.7580     86.4361   4.5668068165e+01   3.3365589403e+01    0.1931409     0.136861  39.77 0.0004868145    1.518    0.341
       100 -10.1706     75.2793     83.4096   6.7905990859e+01   5.1591663104e+01     0.433688    0.3408613 -80.08  0.002066585    1.534    0.348
       101 -10.4344     79.9327     80.9905   6.5422223165e+01   5.1284845529e+01    0.2640788    0.2420753 -10.59 0.0002942234    1.184    0.155
       102  -9.8935    187.8864     82.9621   3.9203716373e+01   2.7150305103e+01    0.1992235    0.1799836 -35.41 0.0002624796    1.018    0.018
       103  -9.8341    120.9007     82.3412   5.2822491141e+01   4.2273102003e+01    0.2704745    0.2219874 -31.30  0.000384519    1.265    0.210
       104 -11.1106     53.9076     80.9917   7.5949341183e+01   5.5739617328e+01    0.3178838    0.2367871 -58.94 0.0003378703    1.311    0.237
       105 -11.5093     45.8245     73.2411   7.7464520186e+01   5.8836697483e+01    0.6720507    0.4731768 -82.58  0.003148369    1.721    0.419
       106 -10.4105     56.0821     74.0745   7.3000558997e+01   5.7120222200e+01     0.627122    0.2804484 -38.81  0.002180151    2.846    0.649
       107 -10.3941     62.1751     70.8586   6.9315031889e+01   5.6891883691e+01    0.5190223    0.3030227  45.41  0.002178666    1.794    0.442
       108  -9.9486    120.0962     87.5051   5.4604926875e+01   4.1421722108e+01    0.3452392     0.261462  71.86  0.001149789    1.628    0.386
       109  -9.8093     86.9180     80.3617   6.2698959848e+01   5.0053289297e+01    0.3077475    0.2101491 -45.28  0.001388046    1.471    0.320
       110  -9.0663     90.6124     80.3004   6.1395368765e+01   4.9314038347e+01    0.2364838    0.1852654  85.43  0.000705215    1.671    0.401
       111  -9.4354     22.8930     79.6414   9.0078324855e+01   5.9719176790e+01    0.2581407    0.1646395 -56.96 0.0007285189    1.437    0.304
       112  -9.2350    150.7452     79.0075   4.4767235613e+01   3.6012093263e+01    0.2067879    0.1829343 -33.28  0.000311584    1.106    0.096
       113  -9.0610    187.1821     76.1915   3.7539774418e+01   2.8307090360e+01     0.180282    0.1491044 -60.23 0.0002528814    1.283    0.221
       114  -9.4154     61.0551     76.0638   7.1435327954e+01   5.5834604402e+01    0.2209525    0.1737571  67.68            0    1.516    0.340
       115 -11.9590      7.7998     74.0921   9.6724412947e+01   6.2223282296e+01    0.3800585    0.2731473 -15.16 0.0008277739    1.567    0.362
       116 -10.3254    151.9129     73.4643   4.2888693556e+01   3.6679285274e+01    0.3259746    0.2199418 -35.74 -1.764593e-05    1.436    0.304
       117 -11.0642    137.2866     71.4905   4.5385362458e+01   4.0474044627e+01    0.5062244    0.4310262  49.47  0.002636307    1.191    0.160
       118  -9.4744    142.7307     71.0090   4.4038660315e+01   3.9261697121e+01    0.2635167    0.2285011  67.57 0.0004558477    1.201    0.167
       119  -9.7046     83.5285     73.4305   6.1663335532e+01   5.2283764396e+01    0.4512713    0.2303379  38.98  0.001512778    2.011    0.503
       120  -9.7224     81.8501     70.1638   6.1171011420e+01   5.3343283826e+01    0.2244273    0.2033193  81.80 0.0003254534    1.224    0.183
       121  -9.4209     23.8576     72.8708   8.8250114658e+01   6.1412351755e+01    0.2014716    0.1718854 -46.35  0.001132282    1.133    0.117
       122  -8.8662    182.8717     72.3259   3.7158421534e+01   2.9810017900e+01    0.1777696    0.1222163  47.08            0    1.592    0.372
       123 -10.9819     30.6483     71.1391   8.4379969234e+01   6.1206701173e+01    0.2319283    0.2240028 -12.72 0.0002434523    1.079    0.073
       124 -10.6710     17.3249     70.7110   9.1209154232e+01   6.2507893291e+01     0.296456    0.2464155 -72.49  0.000596796    1.122    0.108
       125 -10.5140    112.0002     82.7734   5.5434017934e+01   4.4186260175e+01    0.2710678    0.2451867  52.83            0    1.109    0.099
       126 -11.9480     51.2871     70.0096   7.3940004510e+01   5.8851213821e+01    0.3527685    0.2750989 -73.27 0.0004683973    1.414    0.293
       127 -10.1084     35.1350     67.8608   8.1234761445e+01   6.1548682405e+01     0.351981    0.2429685  65.51   0.00113923    1.825    0.452
       128 -10.4350     73.9850     67.5190   6.3273771927e+01   5.5494710785e+01    0.2730127    0.2373766 -44.76 0.0003579851    1.147    0.128
       129 -10.8165     56.5259     67.1801   7.0615200822e+01   5.8709656270e+01    0.9972103    0.5650629   1.11  0.003066475    4.359    0.771
       130 -10.4784     58.1245     58.1408   6.6689061125e+01   6.0531852150e+01    0.5201709    0.3419511  71.26  0.002097251    2.540    0.606
       131  -9.4636     41.8941     67.7461   7.7783236685e+01   6.0737799739e+01    0.2620488    0.1876114 -45.79  0.001295309    1.357    0.263
       132  -9.0452     10.7103     67.3420   9.4137953645e+01   6.3830768711e+01    0.3699582     0.131902  55.21   0.00116935    4.364    0.771
       133  -9.0889    157.5142     67.4543   4.0014889663e+01   3.6337845694e+01     0.143349    0.1392744 -40.42 -1.750116e-05    1.026    0.025
       134 -11.5443    111.1197     65.8406   5.0117659242e+01   4.7730878503e+01    0.2771861     0.254229 -50.31  0.000253714    1.102    0.092
       135  -9.7483     85.1445     67.1571   5.8911942821e+01   5.3307951258e+01    0.2224737    0.2160849  89.08 0.0004437549    1.069    0.065
       136 -10.1180     89.4510     65.6081   5.6833265237e+01   5.2709720095e+01    0.3292629    0.2644904  63.54 0.0008347948    1.372    0.271
       137 -10.2554    194.8473     65.7103   3.3692860143e+01   2.8157234673e+01    0.2392991    0.1692863 -36.84  0.000284613    1.254    0.203
       138 -10.7598    180.9487     63.9624   3.5152122148e+01   3.1449799387e+01    0.3368008    0.2238494 -28.64 0.0006343517    1.447    0.309
       139  -9.6075    177.2026     63.8659   3.5682414375e+01   3.2310386387e+01      0.21534    0.1910219  25.83  0.000303863    1.281    0.219
       140  -9.9732     77.9641     66.2124   6.1253488793e+01   5.4993341493e+01    0.2173679    0.1931008  42.42 0.0005235511    1.124    0.110
       141 -10.6019     81.1836     61.4952   5.8304482222e+01   5.5333683278e+01    0.6666096    0.2181956 -40.60  0.002061449    3.291    0.696
       142  -9.9162    161.2213     64.3138   3.8410309720e+01   3.5951185966e+01    0.3204935    0.1806488 -34.35 0.0009670858    1.687    0.407
       143 -10.2030    153.1086     64.8518   4.0046532001e+01   3.7796405694e+01     0.256725    0.2179753   2.97            0    1.382    0.277
       144  -9.3402     25.8085     65.2955   8.5483357039e+01   6.3192439293e+01    0.2180223    0.1625492  43.68 0.0008057005    1.447    0.309
       145 -10.0695      2.1767     64.2382   9.8359814687e+01   6.5065137982e+01    0.2716577    0.1856478  59.43 0.0006440867    1.593    0.372
       146 -10.2257     43.9958     61.8371   7.4885489503e+01   6.1901753691e+01    0.5137904    0.2114544 -60.67  0.001792373    2.548    0.607
       147  -9.3604    190.4384     61.7886   3.3233339157e+01   2.9647927715e+01    0.3279128    0.1572698  44.37  0.001386144    2.569    0.611
       148  -9.5616    147.0141     61.7282   4.0244270442e+01   3.9761220709e+01    0.2199514    0.2069351 -30.82 0.0003662867    1.074    0.069
       149 -12.3881    150.7147     57.4631   3.8186975591e+01   3.9522982970e+01    0.3654945    0.2774813 -54.26 0.0005766808    1.346    0.257
       150  -9.7025     22.0164     60.9724   8.6503212817e+01   6.4646128224e+01    0.2008386    0.1845677 -49.09  0.001186612    1.018    0.018
       151 -10.4069    218.5962     59.3144   2.9291935000e+01   2.4113567859e+01    0.2296713    0.1941655 -44.14 0.0005544574    1.051    0.049
       152  -9.2929    105.5041     57.1106   4.8585043978e+01   5.0679744960e+01    0.2107365    0.1966911 -29.14 0.0005948615    1.103    0.093
       153  -8.8600      4.3144     60.2935   9.6559044701e+01   6.5997839171e+01    0.1423472   0.08525421 -42.75 0.0004111636    1.597    0.374
       154  -8.8005     73.4048     58.7605   6.0293659115e+01   5.7512797548e+01    0.2178161    0.1400434 -33.93 0.0009435721    1.712    0.416
       155  -9.6749    197.2942     57.7089   3.1274523355e+01   2.8706013330e+01    0.2046242    0.1467225 -40.19 0.0001973808    1.230    0.187
       156 -10.3966    200.4495     55.1448   3.0226953898e+01   2.8362055861e+01    0.2993785    0.2698449  70.69  0.001397705    1.227    0.185
       157  -9.9262    185.1208     57.6839   3.2824508296e+01   3.1386950265e+01     0.269933    0.1780541 -28.83 0.0002798423    1.442    0.307
       158 -10.5263    160.6043     56.6073   3.6186394125e+01   3.7252550237e+01    0.4506492    0.2251212 -45.65  0.001775994    1.983    0.496
       159 -10.1323     61.5447     57.4540   6.4862364060e+01   6.0074870049e+01    0.2897049    0.2658657 -39.70 -2.564482e-06    1.076    0.071
       160  -9.7293     95.0664     57.5206   5.1946885722e+01   5.3056892559e+01    0.2364718     0.148415  49.22  0.001024824    1.570    0.363
       161  -9.5687      8.2492     56.9545   9.3646299496e+01   6.6662448299e+01    0.2420558    0.1745954 -65.96 0.0008108123    1.235    0.191
       162 -10.9333     19.9406     55.3846   8.6266952270e+01   6.6242461053e+01    0.2935567    0.2187012 -44.22 0.0004502163    1.258    0.205
       163 -12.2863      2.0020     51.2341   9.6439717592e+01   6.8421511910e+01    0.3287143    0.1974933 -52.60 0.0004595707    1.454    0.312
       164 -10.8604     10.6865     52.3925   9.1190003854e+01   6.7683846189e+01    0.3974443    0.2883048  64.08  0.000893111    1.606    0.377
       165 -10.9786     18.1165     49.5188   8.5764303995e+01   6.7862811560e+01    0.5762529     0.395435   7.81   0.00215584    1.589    0.370
       166  -9.4655    109.1410     58.1823   4.7941618207e+01   4.9613726843e+01    0.3597651    0.1997313 -39.02  0.001482236    1.810    0.448
       167 -10.6659    127.8907     52.7157   4.1242631080e+01   4.5923015081e+01    0.5895667    0.3202266 -35.39  0.002202668    1.828    0.453
       168 -11.8086    122.5411     50.0755   4.1522499524e+01   4.7685067789e+01    0.4073843    0.2608152 -44.61    0.0012803    1.583    0.368
       169  -9.5558     68.6379     54.3577   6.0540783711e+01   5.9392990794e+01    0.3555643    0.1408588 -49.08   0.00124168    2.639    0.621
       170 -11.8997     30.2199     53.7076   7.9708707110e+01   6.5635192660e+01    0.5236893    0.4052203 -67.55  0.002804788    1.316    0.240
       171 -10.1841     26.6103     48.0462   7.9983985913e+01   6.7407338528e+01    0.2609738    0.2264386   1.02 0.0005872595    1.190    0.160
       172  -9.8030    173.3026     51.7488   3.2770692792e+01   3.4913916060e+01     0.519872    0.2113012 -48.19 0.0002804286    2.599    0.615
       173  -9.6281    179.1018     52.6072   3.2211582281e+01   3.3445355961e+01    0.3393721    0.1893406 -24.10  0.001540438    1.869    0.465
       174  -8.8316    135.3071     53.3177   3.9844491843e+01   4.3973030112e+01    0.1509832     0.115781  22.46 0.0003003717    1.633    0.387
       175  -9.1271     44.5664     53.2801   7.1588363950e+01   6.3845282308e+01    0.2798938    0.1441811 -57.63  0.001161121    1.997    0.499
       176  -8.6709     45.3870     48.7404   6.9388369451e+01   6.4754455779e+01     0.294863    0.1740803 -51.70  0.001193867    1.659    0.397
       177  -9.8699    117.6320     51.5025   4.3231542740e+01   4.8682438787e+01    0.2575337    0.2168953  47.07  0.001316032    1.193    0.162
       178  -9.8294    112.3270     50.6946   4.4286015375e+01   5.0133905486e+01    0.3929786    0.2517962 -80.56  0.001513736    2.544    0.607
       179 -10.3577     85.1094     48.7880   5.1841732069e+01   5.6976926619e+01    0.5478769     0.360699  11.68  0.002157309    2.517    0.603
       180 -10.4827     89.1673     38.1474   4.5876895932e+01   5.7874628298e+01    0.2677287    0.2421307 -60.04 0.0002748254    1.188    0.159
       181 -10.0386     97.0945     41.4956   4.4870171434e+01   5.5406021189e+01    0.2648645    0.2410943   5.25 0.0005724333    1.194    0.162
       182  -9.7371     35.0707     50.9059   7.5950780332e+01   6.5722554776e+01    0.2115217    0.1929391 -27.59 0.0004271327    1.057    0.054
       183 -11.6833    233.2624     48.3104   2.5311659036e+01   2.2603366418e+01    0.2470385    0.2107473 -37.39 0.0002556779    1.059    0.056
       184 -10.1471    212.1496     49.7107   2.7575448754e+01   2.6586236407e+01    0.2702406    0.1738955 -73.34    0.0011869    1.853    0.460
       185 -10.0920    201.3419     49.8219   2.8732755221e+01   2.8843118139e+01    0.2341486    0.2069898 -78.88 0.0009353363    1.179    0.152
       186  -8.7051     73.6622     50.3037   5.6801582828e+01   5.9194208804e+01    0.1504833    0.1204596  87.91 0.0007038975    1.670    0.401
       187  -9.2747     53.1054     49.0075   6.5504499801e+01   6.3424370608e+01    0.4427066    0.2236277  48.97  0.001760951    2.313    0.568
       188  -8.6864    186.7124     49.7186   3.0407580708e+01   3.2084575543e+01    0.1273311    0.1036817  21.78 0.0001691818    1.523    0.344
       189 -11.9191    138.1857     47.5459   3.7281662947e+01   4.4123947658e+01    0.3105756    0.2599765 -63.42 0.0003844218    1.230    0.187
       190  -9.9996    134.3325     43.5888   3.6651305561e+01   4.5676831197e+01    0.2599021    0.2346452  53.52  0.001058694    1.126    0.112
       191  -9.2944    194.0102     48.3560   2.9163394148e+01   3.0624316409e+01    0.1854156    0.1668425 -75.80 0.0007215134    1.131    0.116
       192  -9.5991     63.6296     47.8812   6.0041378839e+01   6.1718497099e+01    0.2472026    0.2025052  27.63 0.0008342991    1.257    0.205
       193  -9.6435     31.7155     33.0594   7.0617988280e+01   7.0205110585e+01    0.2112248    0.1938986 -15.63 0.0003143603    1.015    0.014
       194  -9.6220     38.5768     45.0708   7.1690710475e+01   6.6598380021e+01    0.8486865    0.1922914 -48.39  0.001574513    3.938    0.746
       195 -11.4319     33.6516     38.5608   7.1896107619e+01   6.8741871756e+01    0.6213875    0.5212358  43.24  0.003513102    1.313    0.239
       196 -12.2638    163.3522     42.5636   3.1421155679e+01   3.8530545760e+01    0.3129938    0.2461656 -65.98 0.0002812292    1.292    0.226
       197 -10.5441    108.6887     43.7682   4.2556800363e+01   5.2165877133e+01    0.5060861      0.31336  78.11  0.002067178    2.142    0.533
       198  -9.0815     78.7459     44.1837   5.2194393933e+01   5.9257264596e+01    0.2368763    0.1605764 -81.66 0.0007765303    2.621    0.618
       199  -9.0364      8.7790     44.3792   9.0499272613e+01   6.9811730665e+01    0.1901882    0.1196957  -8.97  0.000493695    1.761    0.432
       200 -10.0738     70.9928     43.5491   5.4966835292e+01   6.1066134221e+01    0.2199593    0.1425188  44.82 0.0006406101    1.518    0.341
       201 -11.6494    239.7519     40.5111   2.3018234980e+01   2.2266091745e+01    0.4490535    0.2857574  11.02  0.002235246    2.584    0.613
       202 -11.3151    250.0462     38.4201   2.1841598776e+01   2.0642276780e+01    0.4514649    0.1853099 -32.82  0.001114286    1.811    0.448
       203 -11.7292    245.8516     31.8940   2.0677340038e+01   2.2067796660e+01    0.3311766    0.2674325 -22.86 0.0005925135    1.251    0.200
       204  -9.5380    209.4514     41.2278   2.5688448630e+01   2.8152725844e+01    0.2505471     0.119125 -22.53  0.001141707    2.157    0.536
       205 -12.3980    140.3525     37.9032   3.3529023478e+01   4.4922865240e+01    0.3761993    0.3325551 -64.34 0.0003080676    1.114    0.102
       206  -8.9594     18.3865     42.1820   8.3306821743e+01   6.9632465931e+01     0.190623    0.1265895 -77.17 0.0005865045    1.701    0.412
       207 -10.9426    230.5652     39.3226   2.3431597112e+01   2.4121469506e+01    0.2752054    0.1864907 -45.06 0.0005482393    1.219    0.180
       208 -10.0778    226.6836     37.6594   2.3338678710e+01   2.5057061227e+01    0.2090719    0.1571375  79.16  0.001339066    1.508    0.337
       209 -10.0944     62.4482     40.8414   5.7431377821e+01   6.3349302162e+01    0.4920028    0.1891998  47.89  0.001747793    2.701    0.630
       210  -9.7969     58.3029     37.6897   5.7871760310e+01   6.4776366565e+01    0.2560507    0.2432332 -71.88  0.000827895    1.195    0.163
       211 -10.1363     54.5355     37.4491   5.9598487150e+01   6.5548412269e+01    0.3232288     0.241345 -38.43 0.0008958788    1.336    0.252
       212 -10.7843     54.0710     33.3345   5.7787743548e+01   6.6422112026e+01    0.2943947    0.2525752 -37.67 0.0003639442    1.175    0.149
       213 -10.1330     28.0500     40.1991   7.6156832203e+01   6.9090115983e+01    0.4171126    0.1828094 -56.17 0.0009559872    2.145    0.534
       214 -10.2231    113.4089     39.7904   3.9786023637e+01   5.1581976596e+01    0.3239588    0.2520036   7.68  0.001042236    1.619    0.382
       215 -10.1656    115.3606     35.7416   3.7715907494e+01   5.1667034817e+01    0.4513825    0.3329613 -51.06  0.002211485    1.425    0.298
       216 -10.1673     75.4652     40.1074   5.1617815438e+01   6.0723536242e+01    0.2439534    0.2005951  46.53  0.000416349    1.188    0.158
       217  -8.8531    158.0465     39.2193   3.1135850863e+01   4.0274236059e+01    0.2017037    0.1732422  21.02  0.000601583    1.384    0.277
       218  -8.8166    160.6985     37.2759   3.0134960874e+01   3.9862160369e+01    0.1857526     0.160681  35.01 0.0002515751    1.327    0.247
       219  -9.2880     10.0784     38.7424   8.8020097465e+01   7.1114415138e+01    0.1761172    0.1551368 -19.71  0.001077484    1.124    0.110
       220  -9.7656    194.6939     37.2940   2.6086975317e+01   3.1814074533e+01    0.2245025    0.1644849 -49.00 0.0005870343    1.219    0.180
       221  -9.9619    126.6885     37.3110   3.5885741406e+01   4.8523209801e+01    0.4337234    0.2844779  84.49  0.001676404    1.794    0.442
       222 -10.0194    126.8408     34.1423   3.4661181107e+01   4.8912458738e+01    0.2395778    0.1996834 -53.70            0    1.212    0.175
       223 -10.8201    124.0820     30.7846   3.3916252747e+01   5.0069478596e+01    0.2852219    0.2410045  81.59 0.0004239422    1.174    0.148
       224 -11.5515     84.5094     38.2947   4.7492514504e+01   5.8960147796e+01    0.4789734    0.2994993 -42.09 -0.0002333409    1.654    0.395
       225  -8.9936      2.2160     37.8242   9.3525509603e+01   7.1772373421e+01    0.1831716    0.1268946 -41.37 0.0003410215    1.307    0.235
       226 -10.6736     61.9241     35.5992   5.5161007112e+01   6.4439301131e+01    0.4309506    0.3190265 -80.95  0.001031555    2.146    0.534
       227  -9.2081     59.7105     31.6671   5.4197339366e+01   6.5600768268e+01    0.1898078    0.1468363 -17.82 0.0005928138    1.420    0.296
       228  -8.9326     44.6334     36.8348   6.4564613257e+01   6.7437289209e+01    0.1881227    0.1318985 -58.79 0.0001135728    1.650    0.394
       229 -10.3220    154.8331     34.7233   3.0145498646e+01   4.1647430297e+01    0.3361551    0.2761501  33.88  0.001060124    1.419    0.295
       230  -9.5873     73.9440     35.3058   4.9954382796e+01   6.1898461412e+01     0.208742    0.1860523  38.75 0.0006378269    1.087    0.080
       231  -9.1655    170.5177     33.9363   2.7810311444e+01   3.7859348639e+01    0.2566601    0.1158639 -35.08 0.0006515668    1.975    0.494
       232  -9.7569    170.6146     30.0720   2.6620393782e+01   3.8288876108e+01    0.2845562    0.1890107  61.96  0.001464707    1.540    0.351
       233  -9.6703    149.1086     33.6343   3.0631250477e+01   4.3233203462e+01    0.2166391    0.1796605 -49.31  0.000607165    1.161    0.139
       234 -12.4144     91.0915     43.8303   4.7725716442e+01   5.6467268612e+01    0.4344569    0.3242511  51.82 0.0004784195    1.305    0.233
       235 -10.8109    246.0096    248.2571   6.1363384956e+01  -2.6932042173e+00    0.1981999   0.09491007  35.97   0.00129746    2.637    0.621
       236  -9.1606    107.2165    246.6653   8.5873645809e+01   1.2587402406e+01    0.1486634    0.1194481  34.47 0.0008044208    1.134    0.118
       237 -11.3591     76.5566    219.8344   9.0076973523e+01   2.0561361657e+01    0.6040397    0.3328932   7.66   0.00289403    2.636    0.621
       238 -10.9069    222.8172     21.9326   1.9840077632e+01   2.7487132415e+01    0.3749784     0.216102 -68.93  0.001012768    1.791    0.442
       239 -11.0022     68.9718    217.3598   9.1612586662e+01   2.1888442686e+01    0.2552841     0.189368  48.27 0.0003841025    1.187    0.158
       240 -10.1467     73.7088    213.9413   9.0215538521e+01   2.1974457964e+01    0.2816032    0.2368175 -39.87  0.001697294    1.478    0.323
       241  -9.5491     55.9921    216.8314   9.4587289883e+01   2.3428342134e+01    0.1733309    0.1498739  74.71 0.0007615639    1.247    0.198
       242  -9.3175    123.8939    206.0470   7.7780821213e+01   1.6973063620e+01    0.1648535    0.1391047  33.74 -0.001320134    1.126    0.112
       243  -9.0160     68.3807     33.2305   5.1174558072e+01   6.3486871937e+01     0.229253    0.1841332 -88.50 0.0003242425    1.688    0.408
       244  -8.9090     65.7801     30.9249   5.1105594288e+01   6.4444700805e+01     0.172038    0.1632833  22.11  0.000287069    1.005    0.005
       245  -8.3601    133.2117    198.7814   7.4707139680e+01   1.6921287661e+01    0.1054534   0.08707749  45.12 0.0006433179    1.325    0.245
       246 -10.2608    216.8082     30.1300   2.2270702539e+01   2.7859824134e+01     0.350201    0.1666941 -45.95  0.001002881    1.767    0.434
       247  -8.9623     76.5159     30.4623   4.6620171912e+01   6.2099777631e+01    0.1459394    0.1379023  31.64 8.942033e-05    1.021    0.021
       248  -9.2736     24.7199     30.6506   7.4270253250e+01   7.1629546187e+01    0.2264464    0.1475604 -36.18  0.001152088    1.496    0.332
       249 -11.0527     34.5377     26.2888   6.5286572465e+01   7.1186650189e+01    0.5217294     0.418287  51.71  0.001446589    1.491    0.329
       250  -8.6047    201.2517     29.6561   2.3418082250e+01   3.1223395295e+01    0.1372111   0.07882096 -51.16 0.0002147744    1.580    0.367
       251  -8.7093    147.2673     29.3067   2.9431366615e+01   4.4231504186e+01    0.1376235     0.107842  29.65 0.0001533113    1.534    0.348
       252 -10.3545     47.2419     28.8860   5.9050983503e+01   6.8535287685e+01     0.300431    0.1857181  36.95 0.0008282802    1.608    0.378
       253 -10.4832     82.2488     27.2424   4.3031953032e+01   6.1221903427e+01    0.3596582    0.3548461  75.64  0.001458564    1.058    0.055
       254 -10.0461     72.2349     26.4708   4.6193715599e+01   6.3709464822e+01    0.4596769      0.21767  45.11  0.001860951    2.054    0.513
       255  -9.4698     10.6211     27.2493   8.3596342663e+01   7.3794620470e+01    0.2346915    0.1435479 -20.32  0.001185282    1.759    0.431
       256 -10.8772    249.1615     23.0611   1.8547402673e+01   2.2363541389e+01     0.329854    0.1654024 -46.54  0.001854869    1.557    0.358
       257 -10.6723    179.6771     22.3027   2.3335618370e+01   3.6961737019e+01    0.7314765    0.2682079 -62.07  0.002424077    3.993    0.750
       258  -9.6352    177.9608     19.0305   2.2533841642e+01   3.7713064991e+01    0.2017699    0.1691983 -58.06 -0.002661949    1.066    0.062
       259 -10.0585     22.8161     23.6813   7.2193112994e+01   7.3351412329e+01    0.2820386    0.2683896 -45.61 0.0009914744    1.164    0.141
       260  -9.8877     26.6879     20.0323   6.7204595398e+01   7.3577445329e+01    0.4236085    0.2524887  22.20  0.001569873    1.804    0.446
       261  -9.1515    223.3112     31.0416   2.2006113300e+01   2.6441717801e+01    0.1757763    0.1344029 -40.73 0.0005034896    1.077    0.072
       262 -10.1487     99.5012     23.5431   3.6302704755e+01   5.7391478278e+01    0.2901137    0.2418065 -81.56 0.0007805441    1.312    0.238
       263 -10.6263     67.1517     22.0034   4.5781940781e+01   6.5542948658e+01    0.4646622    0.2949921  27.33  0.001691905    1.895    0.472
       264  -8.5961    223.0423    188.0502   5.5758179644e+01   6.1950076157e+00     0.129232   0.09757665  -2.80            0    1.007    0.007
       265  -9.7364    101.0114    176.0130   7.9074554456e+01   2.5859796299e+01    0.1889039    0.1686208  32.57            0    1.005    0.005
       266  -8.7454     15.6301     23.1806   7.7654635620e+01   7.4261435143e+01    0.1805049    0.1067947 -45.62  0.000269255    1.523    0.343
       267 -10.6139      7.4303     21.5062   8.3924919529e+01   7.5341220603e+01    0.3999392    0.2795643 -20.32  0.002025315    1.411    0.291
       268  -9.6681    212.0047     22.0874   2.0611221767e+01   2.9705594854e+01    0.1870073    0.1609597 -50.59 0.0004356588    1.036    0.035
       269  -9.4399    164.7809     22.3941   2.4901066957e+01   4.0580879326e+01    0.2301904    0.1660149  65.36 0.0007573746    1.396    0.284
       270  -8.9416    159.5684     22.1913   2.5431759827e+01   4.1907299431e+01    0.1707537    0.1340784  -6.73 0.0004487293    1.503    0.335
       271  -9.9467      1.4237     21.3971   8.9322606018e+01   7.5735589279e+01    0.2431986    0.1144521 -67.98 0.0001292928    1.989    0.497
       272  -9.9763    188.4606     20.5737   2.2043824981e+01   3.5078857167e+01    0.2148016    0.2038192  57.37 9.902321e-05    1.222    0.182
       273 -11.3865    192.9543     18.1045   2.0987513712e+01   3.4298058745e+01    0.3213356    0.2853859  76.27  0.002075452    1.216    0.178
       274  -9.2566     75.2944     20.9755   4.2181404075e+01   6.3779990215e+01    0.1969958    0.1842569 -11.60 0.0003960928    1.106    0.096
       275 -11.3289    151.5556     18.9723   2.5322278818e+01   4.4286791304e+01    0.4171989    0.2898259  83.85  0.001493988    1.420    0.296
       276  -9.3536     89.5415     19.7455   3.7119605874e+01   6.0414828580e+01    0.2871714    0.2055459 -69.08 0.0008082216    1.747    0.428
       277 -11.0325      4.6489    162.9986   1.0466167709e+02   3.9676523806e+01    0.2176655     0.177362  42.96 0.0003103887    1.134    0.118
       278  -9.2329     87.0113     15.7485   3.5815983064e+01   6.1535841448e+01     0.218367    0.1835441 -69.10 0.0002563663    1.335    0.251
       279 -10.5408      6.4367    159.4796   1.0400074685e+02   4.0380011597e+01    0.2157153    0.1721367 -82.51 0.0008693663    1.245    0.197
       280  -8.8721    118.4648     19.5004   3.0478712868e+01   5.2899831157e+01    0.1439454     0.134622  60.51 -3.797534e-05    1.063    0.059
       281  -9.8079     15.8026    154.5753   1.0097215858e+02   4.0858679899e+01    0.1929427    0.0989725  37.49 0.0009524411    1.704    0.413
       282  -9.6324    136.8345     17.6063   2.6774475893e+01   4.8253293221e+01    0.2743119    0.1852598  75.18 0.0008921492    1.421    0.296
       283  -8.6617    137.2656     14.3931   2.5528940499e+01   4.8467759287e+01    0.2238981    0.1516069  28.33  0.001051789    1.871    0.465
       284 -10.2422      3.9796    152.2220   1.0440713708e+02   4.2280511937e+01    0.2598087    0.1594466  82.30 0.0006676136    1.486    0.327
       285 -10.1981      5.8779    147.9467   1.0363289090e+02   4.3192402363e+01    0.3452183    0.1509333  29.65  0.001298736    2.060    0.515
       286 -10.4674     38.2139     16.7412   5.7192506682e+01   7.2326621951e+01    0.5224156    0.2142362  31.72  0.001681691    3.116    0.679
       287  -9.0325     29.5123    150.5203   9.6466549832e+01   4.0670490141e+01    0.1358937    0.1177677  61.62 -5.861851e-05    1.029    0.028
       288 -10.2626     29.5367    146.3792   9.6092922383e+01   4.1692359997e+01    0.3184028    0.1749578  44.09   0.00077744    1.648    0.393
       289 -10.7996     11.1671    145.0069   1.0182415526e+02   4.3549409993e+01    0.3445435    0.1987066  33.33 0.0007017214    1.608    0.378
       290  -9.6159     62.4482     14.2196   4.3183799900e+01   6.7698525114e+01    0.2052589    0.2040419 -41.51  0.001030934    1.117    0.105
       291 -10.4206      2.9023    142.6636   1.0430910009e+02   4.4680480454e+01    0.2937924    0.2251211  54.44  0.001018021    1.159    0.137
       292 -10.3549     17.4243    141.1297   9.9561241151e+01   4.4045814902e+01    0.2917237    0.1967971  41.60  0.001283285    1.368    0.269
       293  -9.3211     44.4333    141.3064   9.0749967633e+01   4.1434661729e+01    0.1805735    0.1292631  88.77 0.0005672085    1.438    0.305
       294 -10.1461    125.7074     14.3151   2.7163251658e+01   5.1528696486e+01    0.2892003    0.1987231 -40.91 0.0006700158    1.457    0.314
       295  -9.8419     71.9318    138.1149   8.1417498858e+01   3.8692956534e+01    0.2122198    0.1925725  54.79 0.0002968047    1.055    0.052
       296 -10.5902     29.5240    137.8629   9.5291680271e+01   4.3833308662e+01     0.280466    0.1914883  45.62 -2.575343e-05    1.364    0.267
       297 -11.1577     27.8632    131.5782   9.5220911244e+01   4.5591362125e+01    0.5676525    0.3267322  45.39  0.002753063    1.637    0.389
       298  -9.4986      7.8799    136.8367   1.0239926907e+02   4.5813803752e+01    0.1809155    0.1288862  53.81 0.0002796082    1.272    0.214
       299 -11.0225     12.7634    134.9866   1.0065876976e+02   4.5944984384e+01    0.2242795    0.2067504 -88.02 0.0002346497    1.094    0.086
       300 -10.5865     17.5856    133.8102   9.8945216860e+01   4.5884655592e+01     0.276751    0.1859505  32.06 0.0002493788    1.449    0.310
       301 -11.0996     12.4426    129.1750   1.0035088587e+02   4.7449319608e+01    0.5214225    0.1951327  41.01 0.0007697425    2.374    0.579
       302  -9.1088    184.7205    134.0578   5.1986859273e+01   1.9661986320e+01    0.1830507    0.1541265 -20.07 0.0002880275    1.081    0.075
       303 -10.0472      4.6675    131.5667   1.0316664018e+02   4.7347030470e+01    0.2464765    0.1847128  61.57 0.0006414002    1.202    0.168
       304 -11.0021     98.8764    125.9147   7.0719855821e+01   3.7244881756e+01    0.2645787    0.2478325  37.16 0.0003229194    1.035    0.033
       305  -9.7137     69.0769    126.5966   8.0330007828e+01   4.1949069692e+01    0.2480014    0.1949778 -77.73 0.0006702137    1.349    0.258
       306  -9.9091     48.9417    127.0056   8.7297388408e+01   4.4543364390e+01    0.2121864    0.1948396  72.08            0    1.037    0.036
       307 -10.6379     29.0335    125.4527   9.4148531000e+01   4.7066988483e+01    0.3541419    0.1669587  36.03 0.0009244813    1.966    0.491
       308 -10.9703     23.6901    125.0769   9.6022670654e+01   4.7638367235e+01    0.3710321    0.2130667  80.76  0.001132775    1.815    0.449
       309  -9.8521    230.2240    124.5670   4.2643457771e+01   1.3453597212e+01    0.2177882    0.2129433 -88.14  0.001395984    1.419    0.296
       310  -9.2959     16.2413     14.1581   7.2142669856e+01   7.6083783121e+01    0.1609744    0.1517338 -78.85 0.0004471788    1.351    0.260
       311  -9.8492     59.0249    125.0277   8.3472793993e+01   4.3761374859e+01    0.2077772    0.1996868  61.75 -0.003769674    1.019    0.019
       312  -8.5799     24.2873    119.3016   9.5190229923e+01   4.9094341487e+01    0.1380047   0.09840813 -42.78 0.0002032984    1.560    0.359
       313 -11.1425     15.9817    122.0521   9.8517314662e+01   4.9035389658e+01    0.3954354    0.3369995  62.83    0.0011792    1.095    0.087
       314 -10.0892     20.9631    118.4687   9.6337801695e+01   4.9588089801e+01    0.2367123       0.2157  82.35 3.888963e-05    1.005    0.005
       315  -9.1055     79.4970    121.4510   7.5863364019e+01   4.1609280601e+01    0.1470234    0.1440092  40.68 6.117027e-05    1.030    0.029
       316  -8.9337      3.2970    121.6773   1.0306898482e+02   4.9951960977e+01    0.1423301   0.08252458  58.11 0.0002507344    1.622    0.383
       317  -9.9876    250.2400    120.0055   3.9138335216e+01   1.1034424128e+01    0.1637741   0.07858712 -29.86 0.0008936115    1.649    0.394
       318 -11.3109     41.2645    119.2468   8.8893493316e+01   4.7441028844e+01    0.4181551    0.3631364  58.56  0.001649959    1.116    0.104
       319 -11.2151     46.8403    116.4604   8.6397832917e+01   4.7522411755e+01    0.2789639    0.2253471 -62.93 6.697377e-06    1.217    0.178
       320  -9.7511     98.7225    117.3392   6.8837503358e+01   3.9254221279e+01    0.2338569    0.2126912  67.13 0.0003559462    1.162    0.139
       321  -9.1733     98.5622    113.5352   6.7985666817e+01   4.0163357324e+01    0.1926631    0.1894387 -29.78 6.944548e-05    1.039    0.038
       322 -10.0057     71.8205    117.3122   7.7596321646e+01   4.3850583167e+01     0.255984    0.2141561  60.89 0.0004632663    1.236    0.191
       323  -9.3409     67.1490    117.8344   7.9322226275e+01   4.4430317324e+01    0.1996855    0.1736611 -24.77 0.0003402748    1.306    0.234
       324  -9.6011     57.1911    117.4868   8.2791069882e+01   4.5934379429e+01    0.2634825    0.2054111 -68.97 0.0007629269    1.278    0.218
       325 -10.0111     30.5933    117.8637   9.2666955685e+01   4.8902917797e+01    0.2438669    0.1893059  37.69 0.0003184273    1.275    0.216
       326  -9.9355     11.6854    117.8903   9.9738751388e+01   5.0420739455e+01     0.298812    0.1704386  62.26  0.001440694    1.734    0.423
       327 -10.6824     15.5659    115.6717   9.8086623054e+01   5.0732587021e+01    0.2569391    0.2351679  77.76  0.000513355    1.020    0.019
       328  -9.4641     61.5485    115.4421   8.0838679983e+01   4.5852509472e+01    0.2344904    0.1807822  44.54 0.0001266489    1.275    0.216
       329 -10.7158     62.3984    111.4494   7.9737612600e+01   4.6747797099e+01    0.4789229    0.2651732 -55.40  0.001635459    1.767    0.434
       330 -10.2056     10.1257    112.1626   9.9846479686e+01   5.2020614654e+01    0.3459291    0.1971604  83.94 0.0009574004    1.701    0.412
       331 -10.3075      2.0293    113.2922   1.0301635146e+02   5.2188620646e+01    0.3923971    0.2024886 -71.87  0.001890951    1.741    0.426
       332 -10.5718      5.4491    109.1412   1.0141472574e+02   5.3089693156e+01    0.3591034    0.2403497 -24.32  0.001285399    1.808    0.447
       333 -10.9181      8.3766    104.8707   9.9900111549e+01   5.4045899052e+01    0.4087089     0.336777  33.47  0.002369324    1.269    0.212
       334  -9.4189     50.3459    112.0057   8.4319276180e+01   4.8247804815e+01     0.202936    0.1767615 -71.11 0.0003976939    1.123    0.109
       335 -10.2437     34.9909    107.2736   8.9472235170e+01   5.1259067178e+01    0.2478283    0.1863655  74.08 0.0006160951    1.384    0.277
       336 -10.4695     21.4405    110.2480   9.5246916331e+01   5.1714360891e+01     0.315691     0.244926  88.79   0.00173419    1.221    0.181
