#   1 NUMBER                 Running object number                                     
#   2 MAG_AUTO               Kron-like elliptical aperture magnitude                    [mag]
#   3 X_IMAGE                Object position along x                                    [pixel]
#   4 Y_IMAGE                Object position along y                                    [pixel]
#   5 X_WORLD                Barycenter position along world x axis                     [deg]
#   6 Y_WORLD                Barycenter position along world y axis                     [deg]
#   7 A_WORLD                Profile RMS along major axis (world units)                 [deg]
#   8 B_WORLD                Profile RMS along minor axis (world units)                 [deg]
#   9 THETA_WORLD            Position angle (CCW/world-x)                               [deg]
#  10 FWHM_WORLD             FWHM assuming a gaussian core                              [deg]
#  11 ELONGATION             A_IMAGE/B_IMAGE                                           
#  12 ELLIPTICITY            1 - B_IMAGE/A_IMAGE                                       
         1 -12.6460    184.5584     37.4647   5.8388819488e+01   3.4609402175e+01     1.436294     1.036065  18.30  0.004939542    1.708    0.415
         2 -11.3658    210.6464      4.8795   4.5005213397e+01   3.1562925529e+01    0.6904255     0.486748 -17.65  0.003574404    1.582    0.368
         3 -11.6910    204.3498      5.1420   4.5784843494e+01   3.3175525737e+01    0.8054526     0.504173 -31.74  0.003742949    1.619    0.382
         4  -8.3596     72.3433    230.4904   1.2130564634e+02   2.0285321559e+01    0.1378665   0.07521697  57.52 0.0008120155    1.400    0.286
         5 -19.4124     29.1097    143.6447   1.2154939149e+02   4.1864960450e+01     17.63722     2.982156 -71.86   0.05637277    5.441    0.816
         6  -7.2976     76.4528    207.2290   1.1865083291e+02   2.3724544512e+01    0.3287811    0.1402328 -56.21  0.001723858    2.779    0.640
         7  -8.4342    152.4826    211.0265   1.0551231512e+02   1.1151266312e+01    0.1525642    0.1229517 -54.42 0.0003986477    1.486    0.327
         8  -9.4453     64.5244    208.0271   1.2078221129e+02   2.5151545662e+01    0.1814806    0.1619499 -69.83 0.0008168923    1.536    0.349
         9  -8.3430     87.7234    201.5968   1.1609597672e+02   2.3169500498e+01    0.1722847    0.1101753  68.52  0.001066887    1.386    0.279
        10 -11.0243     45.2001    203.9069   1.2373680355e+02   2.8242118690e+01    0.1638486    0.1198255  68.46 0.0004016654    1.096    0.088
        11  -9.0833    153.4258    200.7236   1.0388458266e+02   1.2629516059e+01    0.2234322    0.1233956 -57.45   0.00114282    2.225    0.551
        12 -10.1688     66.1183    198.5233   1.1966835862e+02   2.6681872786e+01     0.343035    0.1970727 -52.39  0.001523147    2.369    0.578
        13  -8.5488    159.8738    197.1107   1.0214639457e+02   1.2057308957e+01    0.1842801    0.1550604  67.52 0.0003570269    1.195    0.163
        14  -9.3373    192.5779    193.7926   9.5561001018e+01   6.5105230948e+00    0.3741755    0.2122228 -64.99  0.001486252    3.984    0.749
        15  -8.5634     82.4908    195.0824   1.1636628658e+02   2.5115296602e+01    0.1705389    0.1565699  66.80  0.001255004    1.320    0.242
        16 -10.1737     96.8501    188.7386   1.1295660535e+02   2.4210895751e+01     0.405816    0.2445397  55.99  0.001131359    1.459    0.314
        17 -11.2199     75.7314    184.9055   1.1654255138e+02   2.7993639678e+01     0.636615    0.5151601 -89.10  0.004002122    1.115    0.103
        18 -10.0525    149.3511    188.1873   1.0276519357e+02   1.5474049509e+01    0.2952353    0.2108657  67.43  0.001651342    1.489    0.329
        19  -8.4304    128.3222    184.6646   1.0631613889e+02   1.9850833124e+01    0.1349304   0.09062942  75.33 0.0007050429    1.709    0.415
        20 -10.3811      9.5466    227.0463   1.3063425940e+02   2.7971414065e+01    0.1285015   0.09990652  68.45 3.435545e-05    1.333    0.250
        21  -9.6658     99.4575    180.7932   1.1145606342e+02   2.5335641601e+01    0.2099183    0.1812004  55.24 0.0005129065    1.203    0.169
        22  -8.3262    149.4066    180.2386   1.0148773283e+02   1.6864514683e+01     0.173763    0.1246862 -67.85  0.000940435    1.644    0.392
        23  -8.5221    204.5355    177.0210   9.0341560047e+01   6.7339366090e+00    0.1908002    0.1328842 -36.04  0.001027413    1.584    0.369
        24 -10.5277    114.9735    173.2391   1.0729602370e+02   2.4304128762e+01    0.3075137    0.2588876 -53.87  0.001912141    1.359    0.264
        25 -10.3869    124.3515    172.2795   1.0523882874e+02   2.2882528937e+01    0.3738663    0.1997542 -61.12   0.00179988    2.043    0.510
        26 -10.9618    104.3027    172.4332   1.0935194588e+02   2.6215083632e+01    0.5174205    0.3574491  54.85   0.00301028    1.317    0.241
        27 -11.9275     52.8435    220.2607   1.2366425991e+02   2.4451900227e+01    0.3266019    0.1418391  63.00 0.0007275285    1.983    0.496
        28  -8.6377    164.0397    170.4176   9.6892830580e+01   1.5822685429e+01    0.1982047      0.17648 -51.39 0.0001448121    1.235    0.190
        29  -9.0851    111.0991    168.8518   1.0743477448e+02   2.5818570795e+01    0.2064447    0.1572949  77.15   0.00061782    1.284    0.221
        30  -7.7959    139.4520    167.5175   1.0136385815e+02   2.1071389014e+01    0.1354453    0.1216643  66.42 0.0001224145    1.011    0.011
        31  -8.6228     72.0976    167.0597   1.1521589690e+02   3.2051451377e+01    0.1693308    0.1527018 -77.53 0.0004215849    1.260    0.206
        32  -8.4553    192.6920    164.9677   9.0234414190e+01   1.1010478188e+01    0.1884096    0.1763046 -12.96  0.001126731    1.135    0.119
        33 -10.2455     94.2560    159.7246   1.0961130156e+02   3.0378460729e+01    0.2813881    0.2224831 -60.16 0.0007032049    1.312    0.238
        34 -10.8729     99.4144    152.7387   1.0742597458e+02   3.1029850769e+01    0.5109744    0.3719248 -38.36  0.002574324    1.843    0.457
        35  -8.7598    187.7194    154.3947   8.9057535628e+01   1.3828697512e+01    0.2238572    0.1758602  84.54  0.001121699    1.737    0.424
        36  -9.8354    134.0530    145.6647   9.8529010541e+01   2.6413707188e+01    0.8618294    0.2009152 -54.76  0.002169142    6.173    0.838
        37  -8.1188    174.5268    149.4560   9.0678453696e+01   1.7482623897e+01    0.1435723      0.13421  37.83  3.66657e-05    1.037    0.036
        38 -10.2058    109.6424    138.6018   1.0268525506e+02   3.2336672673e+01    0.4646052    0.2490803 -41.84  0.002035891    2.284    0.562
        39 -10.8658     98.4255    138.3177   1.0522373657e+02   3.4265639096e+01     0.258209    0.2444869  64.15 0.0003329315    1.158    0.136
        40  -9.7332    105.9824    130.8766   1.0207046274e+02   3.4626249092e+01    0.3433225    0.2757003 -80.15  0.001298061    1.246    0.197
        41  -9.3898    115.9638    129.7218   9.9479397812e+01   3.3125535612e+01    0.3011836    0.2089391 -49.23 0.0009452943    1.442    0.307
        42  -9.5848    103.8647    125.6785   1.0155168470e+02   3.6115032054e+01      0.25623    0.2364468  12.08 0.0005054306    1.356    0.262
        43  -8.7010    111.0685    118.6683   9.8330352054e+01   3.6389774081e+01    0.1909341    0.1736381  53.52 0.0003871968    1.144    0.126
        44  -8.6721    167.9880    112.9392   8.3660088226e+01   2.5846464886e+01    0.2516947    0.1904494 -81.63  0.001130585    1.799    0.444
        45  -8.6515    205.8173    110.1772   7.5259862909e+01   1.7524288308e+01    0.2114332    0.1769443  13.64 0.0005486925    1.304    0.233
        46 -10.6253     44.6666    215.5684   1.2465195550e+02   2.6225984655e+01    0.2975294    0.1224072  60.35   0.00132861    2.027    0.507
        47 -10.3270     67.5418    104.5094   1.0656172416e+02   4.6222267662e+01     0.394953    0.2797949 -30.64  0.002155342    1.848    0.459
        48  -8.1627    128.2219     95.3753   8.8390650305e+01   3.8066054606e+01    0.2049311    0.1398208  57.82 0.0009373641    1.639    0.390
        49 -10.7692     57.2710    212.8969   1.2239803946e+02   2.5194366583e+01    0.1870103    0.1282009  65.03 0.0004161807    1.119    0.106
        50  -8.3827     74.4759     73.9488   9.7427098697e+01   5.1930315613e+01    0.2007062    0.1171694 -51.17 0.0003911197    1.499    0.333
        51 -10.3330    167.9680     67.8878   7.1061397006e+01   3.4199888111e+01    0.6880203    0.4227825 -84.34  0.002310043    3.362    0.703
        52 -11.8295    169.7654     53.0611   6.6064144268e+01   3.6175718172e+01    0.9122474    0.6420008  -2.02  0.003253004    1.814    0.449
        53 -11.1601    244.7196    246.2196   9.5064768544e+01  -8.5438679760e+00    0.5710611    0.3052457   8.18  0.003220085    2.516    0.603
        54 -11.4414    189.1389     31.0781   5.5648612652e+01   3.4243023401e+01    0.5542669    0.4951377  39.00  0.001337783    1.144    0.126
        55 -10.0592     72.2988    211.6411   1.1976497051e+02   2.3496402279e+01    0.1856128    0.1427543  69.39 0.0003310452    1.056    0.053
        56  -9.2465    189.5135     14.4940   5.0457676946e+01   3.6103159240e+01    0.1433804    0.1360736  78.15 4.219538e-05    1.013    0.013
        57  -9.2643    157.7366    235.9913   1.0780493088e+02   6.6166504228e+00     0.157866    0.1321221  53.22 0.0005360373    1.092    0.084
