#   1 NUMBER                 Running object number                                     
#   2 MAG_AUTO               Kron-like elliptical aperture magnitude                    [mag]
#   3 X_IMAGE                Object position along x                                    [pixel]
#   4 Y_IMAGE                Object position along y                                    [pixel]
#   5 X_WORLD                Barycenter position along world x axis                     [deg]
#   6 Y_WORLD                Barycenter position along world y axis                     [deg]
#   7 A_WORLD                Profile RMS along major axis (world units)                 [deg]
#   8 B_WORLD                Profile RMS along minor axis (world units)                 [deg]
#   9 THETA_WORLD            Position angle (CCW/world-x)                               [deg]
#  10 FWHM_WORLD             FWHM assuming a gaussian core                              [deg]
#  11 ELONGATION             A_IMAGE/B_IMAGE                                           
#  12 ELLIPTICITY            1 - B_IMAGE/A_IMAGE                                       
         1 -11.5172     41.1121     18.3763   9.6571097000e+01   6.7526660419e+01    0.7157485    0.3257474 -36.14  0.003517874    1.982    0.495
         2 -10.8562     22.0313      9.2999   1.0165267891e+02   7.1110229640e+01    0.3340872    0.2125236  -3.69  0.002058164    1.889    0.471
         3 -12.0368     30.2371      7.2841   9.6584434972e+01   7.0664404333e+01    0.5461584    0.3561284 -32.53   0.00275241    1.242    0.195
         4 -11.9041     40.1780      8.3345   9.2334984891e+01   6.9354704412e+01    0.5143922    0.2910838 -36.75  0.001995478    1.459    0.314
         5 -11.2102     13.7634     15.9770   1.0854790981e+02   7.0526458460e+01    0.2973894    0.1956625  23.10  0.001319854    1.871    0.466
         6 -11.7492     88.7772     13.9692   7.6363582824e+01   6.0657387914e+01    0.6145356    0.3758256 -43.02  0.002132491    1.818    0.450
         7 -10.2317     26.7198     16.3393   1.0235039312e+02   6.9403305180e+01    0.2636058    0.2119919 -50.26  0.001549606    1.214    0.176
         8 -11.3346    190.8965     14.4381   5.5421440471e+01   3.5446509363e+01    0.3473412    0.2317047 -41.81  0.001647132    1.523    0.343
         9 -11.5834    155.9371     13.7544   6.0444341337e+01   4.4835480141e+01    0.5309332    0.2916115  31.52  0.002160295    2.129    0.530
        10 -11.1304     62.9199     13.4679   8.5183497427e+01   6.5344305401e+01    0.3311937    0.1678525 -27.50  0.001085851    1.906    0.475
        11 -10.5062    119.4196     12.1047   6.7165633754e+01   5.4200758945e+01    0.2906786    0.2094111  59.13  0.000278539    1.436    0.304
        12 -10.6040     56.6675     10.6872   8.6318039434e+01   6.6733928656e+01    0.2437835    0.1696918  -3.21 0.0009271895    1.548    0.354
        13 -12.0062     56.5457      4.5444   8.3229964695e+01   6.7661514162e+01      0.56217    0.3611112 -13.09  0.003145757    1.556    0.357
        14 -11.6908     12.0785      6.6993   1.0573944000e+02   7.2384656994e+01    0.5351943    0.4772449 -89.98  0.004052264    1.630    0.387
        15 -10.3294      2.9300      2.8035   1.0917599114e+02   7.3698364348e+01    0.1785671    0.1372178  21.45 0.0006597274    1.660    0.398
        16 -11.4090      4.5305      9.9056   1.1106996046e+02   7.2275958130e+01    0.2472641    0.1820571  -6.89 0.0007831056    1.546    0.353
        17 -11.3680      2.4388      6.2241   1.1082034292e+02   7.3090305512e+01    0.2345139    0.1961875 -53.10 0.0009715041    1.201    0.167
        18 -10.5376     92.6633      9.5398   7.3097582146e+01   6.0450791522e+01    0.2554322    0.1932697  26.63 0.0006386138    1.288    0.223
        19 -11.5572    151.0965      7.3349   5.8863635826e+01   4.6766063215e+01    0.4267419    0.3159612  -6.61   0.00214562    1.418    0.295
        20 -10.8999    210.3822      7.5577   5.0996148024e+01   3.0975914707e+01    0.2356598    0.1861535  64.16  0.001186281    1.247    0.198
        21 -11.3887     72.0381      6.1918   7.8167113373e+01   6.4853063519e+01    0.6986025    0.2373172  41.29  0.002768905    3.087    0.676
        22 -11.7507     80.1955      1.7540   7.3122205181e+01   6.3889191148e+01    0.3685005     0.188368  51.25 0.0009431762    2.043    0.510
        23 -11.2894    195.3372      5.2449   5.1935213699e+01   3.5163236535e+01    0.4087927    0.1787893 -52.04  0.001497552    2.762    0.638
        24 -10.8081    145.0285      5.8423   5.9341024565e+01   4.8492279204e+01    0.2463196    0.2060398 -11.69 0.0005980709    1.213    0.176
        25  -9.1775    117.7282      5.3346   6.4621031078e+01   5.5347994420e+01    0.1878008    0.1660665 -22.19 0.0004057726    1.163    0.140
        26 -10.3491    120.8566      4.1831   6.3418797689e+01   5.4717192623e+01    0.2730839    0.1880303  47.72 0.0004157405    1.359    0.264
        27  -9.8841    235.5736      4.2749   4.7694749213e+01   2.4887160307e+01    0.1849621    0.1292371  -5.66 0.0009493698    1.609    0.379
        28 -11.1782    160.3691      2.4017   5.5540673729e+01   4.4782852982e+01    0.3357828    0.3099638 -19.74  0.001905949    1.123    0.110
        29 -11.1567    130.4227      3.9219   6.1308863919e+01   5.2395504649e+01    0.3101998    0.2058873  56.66  0.001526257    1.430    0.301
        30  -9.8557    230.6370      3.1805   4.7815380613e+01   2.6211265997e+01    0.1902194    0.1276311  -6.31 0.0009463925    1.685    0.406
        31 -10.0354    217.8096      3.6269   4.9099258942e+01   2.9419863556e+01    0.1953976    0.1262531 -87.17   0.00043382    1.678    0.404
        32 -10.6784    172.8067      3.1214   5.4033966995e+01   4.1393586932e+01    0.2760621     0.200179 -81.50 0.0006717299    1.567    0.362
        33  -9.9868    176.5977      2.2286   5.3225464994e+01   4.0456467010e+01     0.263923     0.216163  28.58  0.001147995    1.269    0.212
        34  -9.7627    112.7880      3.0658   6.4752574668e+01   5.6746472388e+01    0.2032677    0.1877219 -53.17  0.000781126    1.284    0.221
        35 -10.3704     20.0462      2.4373   9.9473282931e+01   7.2489375606e+01    0.2200525    0.1330173 -41.41 0.0006511934    1.285    0.222
        36  -8.9527     16.5146      3.4536   1.0187454351e+02   7.2620344160e+01    0.1480986   0.09863277  -1.06  1.80221e-05    1.703    0.413
        37  -9.9598    100.0704      1.7129   6.7289207087e+01   5.9773152507e+01    0.1948997    0.1855223 -42.59 0.0004096482    1.254    0.203
        38  -8.9039     89.5428      2.4397   7.0582072451e+01   6.1939341738e+01    0.1330588    0.1187214   2.84 0.0001486953    1.049    0.047
        39  -9.6985     49.6013      2.1135   8.4857909763e+01   6.9048727585e+01    0.2533071    0.1308729  40.57  0.001336219    2.157    0.536
        40 -11.6548     35.0668     13.1103   9.6989869473e+01   6.9140499282e+01    0.4583115     0.262214 -47.89  0.002324886    1.561    0.359
        41  -9.3506     67.4118      1.4948   7.7391877722e+01   6.6279582660e+01    0.1302268    0.1063784  -4.06  9.94593e-05    1.042    0.040
        42 -11.5069     23.2269    120.6096   1.2551727967e+02   4.7577491086e+01    0.5127851    0.2000487 -89.74  0.001623719    2.969    0.663
        43 -12.9710      5.2713    240.8154   1.3557239569e+02   2.7519452010e+01     1.684319          nan  52.60  0.007542185    4.877    0.795
        44 -11.0028      1.6132    248.6418   1.3629551768e+02   2.6725299403e+01    0.2735918    0.1439524  79.29  0.002390055    1.451    0.311
        45 -13.1215      9.3696    245.2771   1.3513187104e+02   2.6506466933e+01     0.803334    0.2643424  37.51  0.005194934    2.809    0.644
        46 -13.6443     10.0754    229.7153   1.3452952844e+02   2.8733182415e+01    0.7567782    0.3560139  77.07  0.005768137    1.661    0.398
        47  -9.9665      3.7738    118.6193   1.3003009972e+02   4.9451955536e+01    0.1385583   0.08437036  48.82  0.000796211    1.663    0.399
        48 -10.6641     65.7627    111.2731   1.1338077383e+02   4.5153233497e+01    0.3309519    0.1500619 -53.45  0.001561058    2.072    0.517
        49 -10.5386      4.8860    113.3147   1.2933641302e+02   5.0486957293e+01    0.2161735    0.1527823   3.02  0.001502972    2.219    0.549
        50 -10.0258    249.3801    111.8016   7.3988527869e+01   8.9451488180e+00    0.1939759    0.1185192 -13.65  0.000946854    1.651    0.394
        51 -10.8270      4.1378    109.2164   1.2917600145e+02   5.1398047696e+01    0.2460611    0.1360614  33.73  0.001607896    2.079    0.519
        52 -10.1700     58.0704    107.9313   1.1486568501e+02   4.6829245715e+01    0.1874744    0.1431985 -36.05   0.00112148    1.657    0.396
        53 -10.9601     12.9294    108.1072   1.2683887902e+02   5.1039307636e+01    0.1675043    0.1608971  31.42  0.001042407    1.403    0.287
        54 -10.2558     25.9937    107.5064   1.2336958575e+02   5.0156039010e+01    0.1517337    0.1118515  37.14  0.000644655    1.583    0.368
        55  -9.5867     93.4977    104.4899   1.0471474569e+02   4.2632558396e+01     0.133764    0.1251409 -70.21 -4.436862e-06    1.035    0.034
        56  -9.9723    113.5060    102.4895   9.9055916114e+01   3.9600417850e+01    0.1386319    0.1334909 -76.71 6.797048e-05    1.004    0.004
        57 -11.2157     57.6230    101.4911   1.1388398859e+02   4.8296788268e+01    0.3254455    0.2372587  40.38  0.001906384    1.519    0.341
        58  -9.9645     62.0305     98.4847   1.1210266012e+02   4.8425230639e+01     0.210233    0.1523791 -65.62   0.00123906    1.214    0.176
        59 -10.6348     25.0016    101.7234   1.2292190108e+02   5.1494451211e+01    0.1553149    0.1320532 -86.46 0.0003982452    1.084    0.077
        60 -11.2870     11.1389     88.1986   1.2512810979e+02   5.5454206238e+01     0.555636    0.1804315 -71.76   0.00265302    2.333    0.571
        61 -10.4042     17.3157     88.6925   1.2339671845e+02   5.4926230695e+01    0.2982794    0.1977251 -19.09  0.001834661    2.295    0.564
        62 -11.4885     18.0339     94.1905   1.2390143407e+02   5.3675324674e+01    0.2900069    0.1654939  79.43  0.001283089    1.825    0.452
        63  -9.5252    101.0442     95.9225   1.0075523878e+02   4.3196588353e+01    0.3086466    0.1848423 -77.51  0.001240394    2.749    0.636
        64 -10.7692     78.8462     94.9874   1.0665233158e+02   4.6929641191e+01    0.1950728    0.1872989  79.95 0.0002855737    1.099    0.090
        65 -11.1734     27.3961     91.0988   1.2079792140e+02   5.3623170389e+01    0.4547507    0.2246609  55.37  0.002383047    2.409    0.585
        66 -10.7459     58.4636     91.4730   1.1177020252e+02   5.0405315880e+01    0.2507777    0.2146221 -24.86 0.0008650474    1.450    0.310
        67 -10.5487     76.4235     89.1200   1.0603531454e+02   4.8556321698e+01    0.2198768     0.215295  87.84 0.0004803925    1.111    0.100
        68 -10.5705     43.5218     89.3177   1.1576596017e+02   5.2534628849e+01     0.419433    0.1609406  53.02  0.001664934    3.815    0.738
        69 -11.3844     98.9082     89.1842   9.9681114728e+01   4.4986240742e+01    0.2513245    0.2048846  13.56  0.001190157    1.560    0.359
        70  -9.3326     33.0000     88.0559   1.1867812974e+02   5.3813143408e+01    0.1865539    0.0567942 -66.97 0.0003985262    2.689    0.628
        71  -9.6035    124.1578     86.8341   9.2332670327e+01   4.0719802568e+01    0.2018098    0.1757853  -6.11 0.0009527496    1.326    0.246
        72 -11.3981     54.7621     85.0193   1.1156736976e+02   5.2264902512e+01       0.3038    0.2088092 -81.06  0.001586784    1.530    0.347
        73  -9.7391     72.2552     84.1541   1.0611232052e+02   5.0226020867e+01    0.2748049    0.1323396 -43.63  0.001213916    2.169    0.539
        74  -9.9971     25.3028     84.8930   1.2048285989e+02   5.5157109956e+01    0.1701793    0.1185499 -72.04 0.0006299437    1.150    0.131
        75 -10.1669      1.7415     89.6734   1.2797662558e+02   5.5703506707e+01    0.2005595    0.1110357 -75.26 0.0002342563    1.356    0.263
        76 -10.5954      3.6927     83.2666   1.2671711498e+02   5.6972349960e+01    0.3026579    0.1823521  82.88  0.001461521    1.557    0.358
        77 -10.0208      2.9927     78.4658   1.2636005452e+02   5.8047139146e+01    0.1268742      0.11196  26.32 1.913831e-05    1.493    0.330
        78  -9.2192     78.2112     83.3816   1.0415844698e+02   4.9540107898e+01    0.1793035    0.1218208  52.06   0.00040402    1.656    0.396
        79 -11.5048     64.0649     79.8144   1.0757954777e+02   5.2269887021e+01    0.4537859     0.303128 -57.69  0.002107327    1.311    0.237
        80  -9.7750    250.2589     81.0264   6.6391442654e+01   1.2668980407e+01    0.1842242    0.1108725 -24.17 0.0005929858    1.528    0.346
        81 -10.2830     89.6974     79.5798   9.9808546709e+01   4.8563254069e+01    0.4527155    0.2391987 -38.49  0.001978301    2.086    0.521
        82  -9.3454     24.0261     79.0054   1.1994036059e+02   5.6551251220e+01    0.1898938    0.1144244 -45.47   0.00112657    1.706    0.414
        83 -10.5293    176.9181     77.2387   7.7506689431e+01   3.0505330177e+01     0.363568    0.2461691  47.07   0.00133172    1.459    0.314
        84 -11.6120     56.4649     75.3933   1.0892838557e+02   5.4178327627e+01    0.4307752    0.2909081  19.28  0.001492328    1.960    0.490
        85 -10.3965     15.4759     75.9498   1.2214677570e+02   5.7837905798e+01    0.1982203    0.1441429  58.31 0.0009185874    1.552    0.356
        86 -10.5815     32.1781     73.1699   1.1629789072e+02   5.7165181763e+01    0.2463448    0.1846647  69.84 0.0007025119    1.525    0.344
        87 -11.0276     35.6284     72.1906   1.1497535042e+02   5.7072603962e+01    0.4439909    0.2740826 -77.67  0.001725725    1.602    0.376
        88 -11.2064      4.3357     73.9411   1.2537505302e+02   5.8951790779e+01    0.3674285    0.2004904  25.54  0.002313077    2.304    0.566
        89  -9.6212    136.5710     74.2781   8.5594026294e+01   4.0497798876e+01    0.2013698    0.1428906 -27.30 0.0006321535    1.507    0.336
        90 -11.6676    105.9183     71.5982   9.2878707301e+01   4.7341049421e+01    0.2729847    0.2494438 -22.18 0.0004146811    1.123    0.109
        91  -9.3090    124.4592     78.9782   9.0041197990e+01   4.2203586910e+01    0.2023365    0.1241357 -64.39 0.0006047413    2.347    0.574
        92  -9.3807     81.3077     72.6357   1.0043917961e+02   5.1367510867e+01    0.1385607    0.1041886 -86.66 0.0001291306    1.746    0.427
        93 -10.4181     76.1573     71.1833   1.0163474904e+02   5.2455327152e+01     0.182549    0.1532058 -79.49 0.0006147639    1.318    0.241
        94  -9.4788    114.7110     66.7329   8.8939118267e+01   4.6572968920e+01    0.2270286    0.1678454 -81.24  0.001038498    1.997    0.499
        95 -10.6835     34.6068     64.8362   1.1376735989e+02   5.8773327375e+01    0.2683018    0.1777054 -54.44 0.0006564262    1.250    0.200
        96 -11.4050     38.8432     62.8476   1.1185099700e+02   5.8809922588e+01    0.7447819    0.2272506 -43.86  0.001735147    3.702    0.730
        97 -10.6856    131.4704     64.4353   8.3800007164e+01   4.3435747618e+01    0.3775364    0.2962398  47.80  0.001262772    1.300    0.231
        98 -10.2651     14.1734     63.5281   1.2054978633e+02   6.0629539067e+01    0.2761819    0.1346345 -88.84  0.001357954    2.513    0.602
        99  -9.1505    109.6494     64.3055   8.9575807026e+01   4.8052167975e+01    0.1450214    0.1148635 -83.75 0.0005332921    1.705    0.414
       100 -11.3913      4.0157     61.6036   1.2372447051e+02   6.1633417764e+01    0.4723097    0.2257986  63.52  0.001925159    2.945    0.660
       101 -11.3932      9.6149     60.4782   1.2160084194e+02   6.1568398161e+01    0.3006712    0.1929656 -55.67 -0.000112589    1.285    0.221
       102  -9.8724     72.1571     62.9645   1.0059068044e+02   5.4770413716e+01    0.1965619    0.1680829 -71.50 0.0003885705    1.254    0.203
       103 -11.2096     54.6264     57.8316   1.0504064518e+02   5.8176633432e+01    0.5591639    0.3876989 -86.35  0.002949705    2.047    0.511
       104 -10.3269     62.5194     62.4406   1.0363253467e+02   5.6210895845e+01    0.2644223    0.1434922 -50.55  0.001160988    1.586    0.370
       105  -9.7035     66.5008     60.5407   1.0175332053e+02   5.6075906865e+01    0.2679625    0.1327302  29.46 0.0009441209    2.551    0.608
       106  -9.8137    101.0238     61.9341   9.1296173553e+01   5.0171879159e+01    0.2172157    0.1722807 -79.04 0.0006325568    1.664    0.399
       107 -13.0656     20.8333     57.4911   1.1704593711e+02   6.1484790699e+01    0.5459092    0.2962613 -74.16  0.003058251    1.704    0.413
       108 -12.6878      5.2730     51.5055   1.2157917851e+02   6.3735820515e+01    0.4200172    0.2442846 -49.72  0.002703396    1.474    0.322
       109 -11.9853     15.9998     45.8847   1.1631408474e+02   6.4302021446e+01    0.6513343    0.4267165  -5.70  0.004116835    2.050    0.512
       110  -9.9568    118.8746     59.0368   8.5316563362e+01   4.7154563369e+01    0.2185384     0.193342 -61.93 0.0003704459    1.251    0.201
       111  -9.6363     83.5189     56.9832   9.5068841613e+01   5.4232066796e+01    0.2409603     0.124762 -48.79  0.000354644    1.796    0.443
       112 -11.9948     88.4588     53.5294   9.2355209304e+01   5.4075341460e+01    0.4841959    0.4133162  10.13  0.002780423    1.305    0.234
       113  -9.5329     71.5421     57.1292   9.9037481168e+01   5.6065866041e+01    0.1973992    0.1188985 -50.76 0.0005329214    1.491    0.329
       114 -10.4966    225.1400     54.7608   6.2892017001e+01   2.1841005415e+01    0.4657746    0.2867641   2.21  0.001972674    2.136    0.532
       115 -10.0082     34.3408     53.3921   1.1115219974e+02   6.1264821931e+01    0.2850385    0.1245207 -42.93  0.001364189    2.209    0.547
       116 -12.2073     66.4001     52.5351   9.9343518725e+01   5.7739906732e+01    0.4427978    0.2370512  30.19  0.001608417    2.271    0.560
       117  -9.0534    105.9364     53.0000   8.6879559608e+01   5.0918552694e+01     0.226161   0.08227436  47.27 0.0007966378    2.902    0.655
       118 -11.9756    114.2633     54.2607   8.4958935472e+01   4.8992460171e+01    0.3465892    0.3170843  -7.55 0.0006866129    1.093    0.085
       119 -11.0419     77.5017     47.0662   9.3707525864e+01   5.7154108191e+01    0.5256889    0.3183412 -21.68  0.002390601    2.213    0.548
       120 -10.2047     60.0408     58.2345   1.0327704680e+02   5.7417959369e+01    0.2408664    0.1686182 -58.56 0.0004909768    1.320    0.243
       121 -10.6682    103.3000     47.3651   8.5655651570e+01   5.2464243988e+01    0.3626595    0.2089219  31.43   0.00120504    2.132    0.531
       122  -8.9764    211.7303     48.7363   6.3077393600e+01   2.5955670398e+01    0.1440503    0.1092549  25.20 0.0006847011    1.464    0.317
       123  -9.9038     31.1321     46.0433   1.1042907132e+02   6.3106324155e+01    0.2275666    0.1547549 -76.51  0.001347148    1.636    0.389
       124  -9.6011     64.9912     46.2696   9.7775915984e+01   5.9194574350e+01    0.1690181    0.1582012 -17.26 -0.000430966    1.112    0.100
       125  -9.5202     91.1934     44.7873   8.8411388658e+01   5.5235029266e+01    0.1885471    0.1532253 -13.36 0.0004333019    1.289    0.224
       126 -10.9145     25.9891     43.8893   1.1186804337e+02   6.3991208348e+01    0.2449667    0.2125359 -69.34 0.0009647482    1.176    0.150
       127 -10.0060     94.9853     42.1315   8.6238965238e+01   5.5007948477e+01    0.2083486    0.1898845 -28.68 0.0005962459    1.039    0.038
       128 -10.2451     69.9051     41.6797   9.4412837103e+01   5.9369341695e+01    0.2779172     0.202673   3.75  0.001028837    1.742    0.426
       129 -10.6381     36.5255     41.3939   1.0695687192e+02   6.3571823828e+01    0.2210809     0.183765 -30.13 0.0009655721    1.197    0.165
       130  -9.5760      2.3317     42.2890   1.2094849792e+02   6.5838833907e+01    0.1592607    0.1036622  12.81 0.0009320137    2.022    0.505
       131  -9.9319      5.7227     39.3839   1.1896207498e+02   6.6279875050e+01     0.222051    0.1197171 -51.05  6.69874e-05    1.449    0.310
       132 -10.2092    181.3831     40.7778   6.5418278680e+01   3.4848459168e+01    0.2782075    0.2197512  76.48 0.0006346877    1.394    0.283
       133  -9.3491    159.6325     40.7641   6.9432555053e+01   4.0490821978e+01    0.2209607    0.1340426 -37.47 0.0009471981    1.647    0.393
       134 -10.6884    139.3581     40.5085   7.3688889402e+01   4.5590849916e+01    0.3024956    0.2583874  87.16  0.001550277    1.412    0.292
       135 -10.2525    132.3485     38.6589   7.4660942405e+01   4.7552078280e+01    0.4277059    0.3266503 -84.58   0.00201383    1.834    0.455
       136 -12.2248    121.7169     36.7911   7.6607463485e+01   5.0307206630e+01    0.5663868    0.4893794  64.03   0.00192841    1.301    0.231
       137 -11.3956    134.2661     34.0483   7.2486165465e+01   4.7777038494e+01    0.2486885    0.2093778  27.99 0.0003048342    1.192    0.161
       138  -9.3760     51.0058     39.8337   1.0076310573e+02   6.2303854524e+01    0.1840155    0.1243626 -62.43   0.00101545    1.620    0.383
       139  -9.5896     43.0418     40.4242   1.0406853904e+02   6.3099487879e+01    0.1812933     0.138378 -19.72   0.00071911    1.433    0.302
       140 -10.5777     12.6650     38.3089   1.1583873613e+02   6.6108174118e+01     0.373267    0.1526594 -64.88  0.001921887    1.958    0.489
       141  -9.1688      9.1616     35.6266   1.1664299921e+02   6.6875470133e+01    0.1391391    0.1133985   5.44 0.0004410621    1.547    0.353
       142 -10.0661     15.8338     33.4118   1.1319711147e+02   6.6916414767e+01    0.2103707    0.1429431 -57.71 0.0008301365    1.149    0.129
       143 -10.7036     19.8195     31.8598   1.1101461628e+02   6.6951016173e+01     0.300204    0.1900535 -13.58  0.001380606    1.996    0.499
       144 -10.4865     22.7966     38.5974   1.1171012120e+02   6.5344738677e+01    0.2137003    0.1867431  82.49 0.0007296682    1.406    0.289
       145 -11.3682     26.5150     35.2531   1.0917553003e+02   6.5733031445e+01    0.3813559    0.1875039 -44.35   0.00152039    1.690    0.408
       146 -10.9818      2.6649     34.6451   1.1917303408e+02   6.7422505689e+01    0.3784687    0.1790734 -53.84   0.00226339    1.540    0.351
       147  -9.0375     69.6756     36.6972   9.2637293539e+01   6.0339849228e+01    0.1343515   0.09644988 -11.76  0.000307026    1.638    0.390
       148  -9.9453     91.0372     34.3926   8.4480076018e+01   5.7092890223e+01    0.3197449    0.1675826 -21.46  0.001285694    2.487    0.598
       149  -9.7985     38.9121     35.5087   1.0409745059e+02   6.4522655880e+01    0.2538064    0.1588856  51.94  0.001231672    2.348    0.574
       150 -11.7824     43.9527     29.0018   9.9670989182e+01   6.5240070837e+01    0.5089419    0.3439494 -28.36  0.002908431    1.436    0.304
       151 -11.0273     38.6019     30.9248   1.0262727609e+02   6.5458512056e+01      0.23902    0.1751338 -17.36 0.0002464977    1.489    0.328
       152  -9.4141     54.8346     34.4026   9.7327206271e+01   6.2877564383e+01    0.1604008    0.1171155   9.39 0.0003823419    1.654    0.395
       153 -11.0879    145.0759     32.9795   6.9672733650e+01   4.5269866666e+01    0.2241411    0.2083407  40.95  0.001216773    1.061    0.058
       154  -9.1642     71.6825     33.7307   9.0761619558e+01   6.0567557156e+01    0.1306279   0.09666231  -6.62 0.0006963198    1.558    0.358
       155  -9.0981     50.4335     33.5127   9.8727690324e+01   6.3606203705e+01    0.1259354    0.1069753 -43.43 9.680364e-05    1.089    0.082
       156 -10.4264    166.2010     31.2595   6.4900419505e+01   4.0073633390e+01    0.2660903    0.2055971 -30.48 0.0003463072    1.293    0.226
       157 -10.0922    126.9362     31.0474   7.3087248806e+01   4.9957000045e+01    0.2952036    0.2281183  23.38  0.001485424    1.368    0.269
       158  -9.8831    204.7809     30.5758   5.8634436236e+01   2.9992091450e+01    0.2059637    0.1429707  84.48 0.0009505865    1.656    0.396
       159  -9.0596    187.6633     30.3314   6.1020489163e+01   3.4524797473e+01    0.1607143    0.1100683 -60.40 0.0007052097    1.736    0.424
       160 -10.4780    149.6241     29.8547   6.7577911005e+01   4.4543633379e+01    0.3917682    0.2413175  83.76  0.001563495    2.379    0.580
       161 -10.9104      7.9208     28.6100   1.1535405261e+02   6.8389718898e+01    0.2923534    0.2074641  64.15  0.001662713    2.007    0.502
       162 -10.0567     69.7701     28.2175   8.9212505165e+01   6.1843964065e+01    0.2728958    0.1627516 -47.14  0.001025457    1.686    0.407
       163  -9.4656    162.3079     28.3496   6.4590661389e+01   4.1461552970e+01    0.1623996    0.1094538  25.53 0.0007043516    1.709    0.415
       164 -10.0285    139.6807     27.1132   6.8641897472e+01   4.7409646379e+01    0.3011301    0.2045052  48.93  0.001423668    1.427    0.299
       165 -10.7637     76.8824     25.8603   8.5667171663e+01   6.1066062308e+01    0.3638438    0.2868232 -17.88  0.001235697    1.184    0.156
       166 -10.8368     78.3215     21.6911   8.3342948978e+01   6.1486137225e+01    0.3109016     0.224461 -31.16  0.001323532    1.252    0.201
       167 -11.6388     75.2984     21.3663   8.4256401686e+01   6.2065455389e+01    0.3623041    0.2749515  -1.01  0.001986593    1.383    0.277
       168 -10.3236    171.1968     24.5755   6.1724450166e+01   3.9580756137e+01    0.3843844    0.1981696 -28.78  0.001577953    1.897    0.473
       169  -9.9425    153.9071     25.6485   6.5193752314e+01   4.3984633838e+01    0.2129618    0.1881459  66.30 0.0008015728    1.172    0.147
       170 -10.5665    100.6118     25.5780   7.7916985706e+01   5.6602581948e+01    0.2471194    0.2221011 -38.04 0.0007454215    1.190    0.160
       171  -9.3181     18.3442     26.3100   1.0993597749e+02   6.8176393843e+01    0.1231544   0.06865519 -35.21 0.0007045088    1.701    0.412
       172 -10.7902    113.9759     24.0974   7.3581727376e+01   5.3926437955e+01    0.3355067    0.2585054  -5.34  0.001096431    1.331    0.249
       173 -10.0953     59.2146     24.3917   9.1599870956e+01   6.4106708694e+01     0.265632    0.1919636 -19.01  0.001540159    1.375    0.273
       174 -10.7966    218.8154     23.7666   5.4846374341e+01   2.7133575285e+01    0.3453647    0.1838507   8.68  0.001271966    2.976    0.664
       175  -9.5310    229.5254    248.0169   1.0181257143e+02  -2.4379313686e+00    0.1247437   0.09490169 -11.38  0.001018735    1.553    0.356
       176  -9.5190    224.6929    246.6650   1.0235889569e+02  -1.6351138094e+00    0.1070781   0.06066867  21.59 0.0007041084    1.672    0.402
       177  -9.6864    217.4309    245.0000   1.0323956492e+02  -4.4141343384e-01    0.2404319   0.04408209  43.39 0.0009388843    3.968    0.748
       178 -11.1923     36.7630    241.4964   1.3105400732e+02   2.4379005212e+01    0.2343403   0.07849562  50.33  0.001524968    1.961    0.490
       179  -9.6191     89.4909     22.9220   8.0176597580e+01   5.9228635694e+01    0.2078757    0.1253792 -31.46 0.0008900438    1.537    0.349
       180 -10.0710     22.0375     22.7674   1.0702903687e+02   6.8588649996e+01    0.1604369    0.1366103 -54.17 0.0003197337    1.181    0.153
       181 -11.1596     13.3897     20.8086   1.1043224531e+02   6.9614163744e+01    0.3119284    0.2080512 -60.13   0.00113227    1.300    0.231
       182  -9.7152    202.4447    240.2959   1.0494417747e+02   2.2091000108e+00      0.15115    0.1024872 -22.67 0.0008103452    1.919    0.479
       183 -10.4735      2.0487     21.5364   1.1610260520e+02   7.0130638278e+01     0.316178      0.15388 -57.70  0.001915132    1.468    0.319
       184 -10.3634    175.1789     20.8500   5.9804226663e+01   3.8953133367e+01    0.2277959    0.2032358 -61.20 0.0005715635    1.201    0.168
       185 -10.0967     85.2961     20.9628   8.0667746734e+01   6.0324815414e+01    0.2693304    0.1594059  28.74 0.0007862178    1.957    0.489
       186 -11.9921      4.0934    232.5433   1.3549323581e+02   2.8843400362e+01    0.3403363    0.1338183  69.35 0.0003484631    1.887    0.470
       187 -10.0708     31.0950     20.3779   1.0193499632e+02   6.8235169766e+01     0.227713    0.1359001 -42.59 0.0004892669    1.331    0.249
       188 -12.5821     25.8057    236.0710   1.3244271263e+02   2.6286083471e+01    0.3064236    0.2111641  49.74  0.002222264    1.344    0.256
       189  -9.6703    132.0006     20.4873   6.7747722801e+01   5.0158495841e+01     0.216278    0.1398759  55.30 0.0005628726    1.519    0.342
       190 -10.8588    100.2790     19.1556   7.5248016514e+01   5.7596309615e+01    0.3249905    0.2647188 -66.32   0.00101664    1.683    0.406
       191 -10.2045    199.8861     17.1647   5.5136576465e+01   3.2773081835e+01    0.2250717    0.1903182 -60.93 0.0005131438    1.233    0.189
       192 -10.5499     49.1118     16.2351   9.2128607260e+01   6.6902741550e+01    0.2183499      0.19001 -50.62 0.0005227369    1.371    0.271
       193 -10.3984     20.1560     16.8042   1.0570857636e+02   6.9885679832e+01    0.1735459    0.1393303 -26.73  0.000338516    1.173    0.147
       194  -9.3178    200.2269    235.9648   1.0474193710e+02   2.9761200374e+00    0.1099512   0.08923001 -25.00 0.0006253705    1.590    0.371
       195  -9.2491     54.2876    236.3377   1.2814894700e+02   2.3237538696e+01   0.07654096   0.07324435  73.75 0.0004494683    1.635    0.388
       196 -10.0148    174.4743     14.4974   5.7734216207e+01   3.9833731591e+01    0.1451433    0.1422956  50.91 6.025525e-06    1.015    0.015
       197  -9.6843     60.5825    241.2671   1.2746268405e+02   2.1805031538e+01     0.174947   0.06429215  41.67  0.001064606    2.155    0.536
       198  -8.5976      1.3198     15.2973   1.1458658668e+02   7.1404810834e+01    0.1160172    0.0597757 -40.19 0.0003059088    1.616    0.381
       199  -9.7482     68.9589     13.4961   8.2905013040e+01   6.4355674501e+01    0.1782974    0.1269425  41.76 0.0009160711    1.544    0.352
       200  -9.8341    249.1938    234.0863   9.6995675973e+01  -4.0778251563e+00    0.1596408    0.1025028  22.82 0.0004349688    1.171    0.146
       201  -9.4881    140.2707    227.2443   1.1346289971e+02   1.3138770642e+01     0.181994   0.06485312  50.21  0.000885469    2.389    0.581
       202  -9.8978     33.0311    225.1694   1.3086315754e+02   2.7213649390e+01     0.249299   0.04189168  47.77  0.001248611    3.202    0.688
       203 -10.0643     25.5031    225.4836   1.3204247632e+02   2.7920854515e+01   0.09537647   0.06505824  66.36 0.0001656363    1.021    0.021
       204 -11.9607      7.9207    217.6689   1.3443308844e+02   3.0794061893e+01    0.2382689    0.1604544  74.56  0.002110137    1.091    0.084
       205 -11.0611     15.7484    212.6104   1.3301632685e+02   3.0893091553e+01    0.1906191    0.1692307 -58.14  0.001743396    1.858    0.462
       206 -10.6200     20.5873    209.7630   1.3211717042e+02   3.0902689196e+01    0.1776093    0.1145205  64.80  0.000266591    1.090    0.083
       207  -9.2897    209.5120    211.4958   9.9866696332e+01   4.1138122820e+00    0.1172185   0.08926415  30.94 0.0001520227    1.012    0.011
       208  -9.6278    246.6393    207.1772   9.3288494846e+01  -1.3343380420e+00    0.1514003   0.09256502  -7.60 0.0009552159    1.736    0.424
       209 -10.2655    123.9954    205.9949   1.1392234816e+02   1.8631647545e+01     0.161694    0.1284889  52.62  0.001152406    1.021    0.020
       210 -10.4224      3.1898    205.4428   1.3473299858e+02   3.3181762670e+01    0.1567124   0.08331523  34.21  0.001150135    2.137    0.532
       211  -9.7426    196.8362    203.8371   1.0083018124e+02   7.0816280990e+00    0.2155764    0.1612809  74.64  0.001284189    2.223    0.550
       212 -11.5616      9.2385    203.5439   1.3368825059e+02   3.2971898841e+01    0.1948244    0.1373248  52.99 0.0008962785    1.303    0.233
       213  -9.5994    180.8209    199.3376   1.0291622978e+02   1.0346795603e+01     0.259294    0.0916035  49.44  0.001104909    2.681    0.627
       214  -9.5419     23.0281    197.5005   1.3111768835e+02   3.2727256316e+01    0.1381019   0.08123221  44.41  0.000500711    1.556    0.357
       215 -10.1741      7.0836    192.0753   1.3356997480e+02   3.5106165261e+01    0.2226989   0.07434431  63.26  0.001275934    2.435    0.589
       216  -9.3620     15.3428    185.1613   1.3181928895e+02   3.5597030323e+01    0.1442311    0.0692354  84.95 0.0009383719    1.744    0.426
       217  -9.6613      1.3740    183.0114   1.3416744528e+02   3.7166788016e+01    0.1385235   0.07106706 -87.85 0.0004577582    1.550    0.355
       218 -10.0265    100.9884    176.0009   1.1470357607e+02   2.7115174089e+01    0.1664329     0.140538  63.73            0    1.022    0.022
       219 -10.9815      5.5576    167.8980   1.3272332138e+02   3.9573916573e+01    0.2565753    0.1336933  60.64  0.001571316    1.530    0.346
       220  -9.3184     41.6595    158.3056   1.2493572563e+02   3.8088351539e+01    0.1612335   0.09258997  84.63 0.0008410673    1.601    0.375
       221  -8.8850    247.4776    155.5201   8.3807704327e+01   3.9708689892e+00    0.1287864    0.1047711  13.71 0.0001367564    1.011    0.010
       222 -10.2740      2.2856    153.5679   1.3260742823e+02   4.2542178404e+01    0.1769129    0.0789393  40.00  0.001135639    2.134    0.531
       223 -10.2190     22.1502    143.4413   1.2781758331e+02   4.2936544341e+01    0.1873189    0.1059185 -85.41  0.001196701    1.455    0.313
       224 -11.2062      5.4756    141.5885   1.3125428316e+02   4.4652121073e+01    0.1752023    0.1235605  63.80 0.0005453359    1.241    0.194
       225 -11.1341      3.3049    138.5845   1.3152621285e+02   4.5409667857e+01    0.2492172    0.1119021  42.89  0.001567908    2.113    0.527
       226 -10.9728      9.0667    135.3607   1.3006112266e+02   4.5636280205e+01    0.1821686    0.1140426 -75.10 0.0005157649    1.334    0.251
       227  -9.4320    212.2957    133.6790   8.5101126303e+01   1.3603463371e+01     0.128429    0.1112493 -73.18 0.0003405001    1.616    0.381
       228 -11.2059     12.1498    129.8880   1.2896097920e+02   4.6521717618e+01    0.3513516    0.1604282  64.74  0.001546812    2.141    0.533
       229  -9.4361     35.3834    130.7421   1.2365515011e+02   4.4340957363e+01    0.1569012   0.08711163 -64.56 0.0005284947    1.608    0.378
