#   1 NUMBER                 Running object number                                     
#   2 MAG_AUTO               Kron-like elliptical aperture magnitude                    [mag]
#   3 X_IMAGE                Object position along x                                    [pixel]
#   4 Y_IMAGE                Object position along y                                    [pixel]
#   5 X_WORLD                Barycenter position along world x axis                     [deg]
#   6 Y_WORLD                Barycenter position along world y axis                     [deg]
#   7 A_WORLD                Profile RMS along major axis (world units)                 [deg]
#   8 B_WORLD                Profile RMS along minor axis (world units)                 [deg]
#   9 THETA_WORLD            Position angle (CCW/world-x)                               [deg]
#  10 FWHM_WORLD             FWHM assuming a gaussian core                              [deg]
#  11 ELONGATION             A_IMAGE/B_IMAGE                                           
#  12 ELLIPTICITY            1 - B_IMAGE/A_IMAGE                                       
         1 -13.5314    202.3001     45.5486   4.3372237864e+00   2.8585374682e+01     1.617784     1.105792  37.42   0.00847703    2.225    0.550
         2 -12.4515    232.0827     16.8331   3.5552957548e+02   2.5907258249e+01    0.8255967    0.6755522 -60.16  0.004273919    1.131    0.116
         3 -11.3634    118.9235      9.9947   5.3662981860e+00   5.3264736669e+01     0.688526    0.4258819  57.04  0.002914949    1.434    0.303
         4 -10.2212    103.7716      3.6372   5.7212601867e+00   5.7699637374e+01    0.3751236    0.1688436  56.53 0.0009741378    1.824    0.452
         5  -9.3995      2.1980      7.8103   5.6463011053e+01   7.6744010752e+01    0.2381198   0.09822479 -62.30  0.001032063    3.493    0.714
         6 -10.3931    144.9234    236.9615   5.4559096474e+01   5.1752158009e+00    0.3401498    0.2187598  -2.79  0.001372696    1.916    0.478
         7 -10.6325    137.0763    243.9403   5.7151975045e+01   5.0959348223e+00    0.3876867    0.2805662 -89.41  0.002126989    2.575    0.612
         8 -10.7301    139.5271    249.4705   5.7306253374e+01   3.8784954834e+00    0.5046281    0.1946051  33.43  0.002364688    2.024    0.506
         9 -15.7376     66.2710    146.2949   6.1863749404e+01   3.7015935336e+01     14.20782     9.272711  72.58   0.03511163    1.886    0.470
        10 -10.1742    102.5493    248.2894   6.5240327192e+01   8.9928550304e+00    0.4526546    0.2977917  60.05  0.002578208    1.815    0.449
        11  -8.7720     35.9885    163.5358   7.3746411733e+01   3.6348033440e+01    0.3068058    0.2142234 -14.90 0.0009771473    1.987    0.497
        12  -8.7916     70.7054    188.4478   6.6477801967e+01   2.5796121820e+01    0.2255411    0.2143184  36.49 0.0005543518    1.107    0.097
        13  -9.7553    181.6982    181.4896   3.7850164403e+01   9.3494609865e+00    0.3746638    0.1885013 -38.74  0.001724615    1.970    0.492
        14  -8.8905    136.1297    155.8606   4.3281177739e+01   2.2498819879e+01    0.2814588    0.2246151 -77.60  0.001360912    1.603    0.376
        15 -11.0077    134.0240    143.5289   4.1242905501e+01   2.5646452270e+01     1.420438    0.5116426 -51.60  0.004633394    3.007    0.667
        16  -9.3154    143.8213    181.1022   4.6184840486e+01   1.5735868321e+01    0.3010091    0.2081545 -67.86  0.001363793    2.025    0.506
        17 -15.7818      6.0038    207.6609   8.4905338550e+01   2.8567159284e+01      1.76846     1.477425 -85.29  0.008663051    1.264    0.209
        18 -11.1450     89.8331    149.0338   5.4908895139e+01   3.2573917742e+01    0.7039036    0.5694755   7.24  0.003196495    1.462    0.316
        19 -10.7738    123.7915    174.4538   4.9984577456e+01   2.0617892905e+01    0.5126251    0.3938869 -62.37  0.002579923    1.489    0.329
        20  -9.6898     94.1461    238.4945   6.6142978790e+01   1.1887715634e+01    0.6277692    0.3242312  80.90  0.002349446    4.601    0.783
        21  -9.4649    140.1430    173.4037   4.5675192733e+01   1.7975725493e+01    0.5324278      0.31189 -73.26  0.001917978    3.428    0.708
        22  -8.7596    124.6780    141.0816   4.3190453317e+01   2.8045864099e+01    0.2151031    0.1992998 -40.65 0.0004366215    1.118    0.106
        23 -11.3874     90.7992    135.9623   5.2052480565e+01   3.5696340058e+01    0.4948176    0.3915198  41.29 0.0006070196    1.213    0.176
        24 -10.2807     96.5247    133.4247   4.9725496705e+01   3.5293762842e+01    0.4960916     0.370255  64.56  0.001424545    1.542    0.351
        25  -9.2541    220.8718    174.8258   2.9305643964e+01   4.5147978525e+00    0.1616691    0.1476211 -39.70  0.001091247    1.339    0.253
        26 -10.1353    135.5922    128.6400   3.7490393180e+01   2.8648677304e+01     0.699541    0.2611367 -44.79  0.002326604    2.749    0.636
        27  -8.6585    162.2516    129.7258   3.1373082031e+01   2.2887939087e+01    0.2768431    0.2258603  80.10 0.0007554741    1.546    0.353
        28 -10.8454    103.4045    135.9803   4.8170224140e+01   3.3378630035e+01    0.9109764    0.5745128 -23.63  0.003433132    2.498    0.600
        29 -17.6994      8.7268    238.4421   8.5462659770e+01   2.1824263124e+01     3.207081     2.898067 -62.71    0.0138748    1.484    0.326
        30  -9.2834    112.3131    128.2428   4.3802695947e+01   3.3513572758e+01    0.3323924    0.2589129 -16.21 0.0008852128    1.655    0.396
        31 -10.1582    192.8686    194.9413   3.8028810499e+01   5.3255617167e+00    0.7273648    0.4392851 -66.37  0.002681553    4.960    0.798
        32  -9.8695     99.3117    124.1388   4.6789936502e+01   3.7060758544e+01      0.32103    0.2843136  20.06 0.0007767419    1.203    0.169
        33 -10.1228     96.7794    247.1288   6.6411743703e+01   9.9593913345e+00    0.4599625    0.2905251   1.58  0.002336021    2.303    0.566
        34  -8.6712    183.5008    208.9950   4.2266408162e+01   4.3676531719e+00    0.1858834    0.1206559 -39.55  0.001037557    1.612    0.380
        35 -10.2675    242.4124    121.6074   1.5871854376e+01   9.5841932004e+00    0.3971009    0.1331447 -49.36   0.00147495    3.678    0.728
        36  -9.1365    161.3454    118.7245   2.9003811741e+01   2.5294956059e+01    0.4367794    0.2719035 -71.99  0.001486324    2.745    0.636
        37  -8.9764    108.4061    118.5570   4.2667330202e+01   3.6603739798e+01    0.3620296    0.2368952 -64.75  0.001326775    1.815    0.449
        38 -10.6578    231.6622    169.3328   2.6531005224e+01   3.8458521667e+00    0.2889104    0.1997734 -51.49  0.001693686    1.826    0.452
        39  -8.6457     78.8372    250.8354   7.0753604522e+01   1.1605465663e+01    0.2646524    0.0948842  29.79  0.001154888    2.268    0.559
        40  -9.7596     75.4379    248.6489   7.1328185993e+01   1.2432024478e+01    0.3816806    0.1913043 -63.36  0.002020994    2.424    0.587
        41 -10.0408    116.8433    110.4396   3.8138704737e+01   3.6724605282e+01    0.4899057     0.401824  77.52  0.002318424    1.420    0.296
        42 -10.2454    237.3726    108.2872   1.3871265810e+01   1.2436047292e+01    0.4733308    0.1630739 -46.79  0.001950252    2.733    0.634
        43  -8.7048    188.3418    170.6876   3.4483790758e+01   1.0203647946e+01    0.2757132    0.1581944 -38.85  0.001346761    1.679    0.404
        44 -10.6010     64.4094    105.9586   5.4614385695e+01   4.7808069097e+01    0.4547464    0.3426853  17.87 0.0009589191    1.460    0.315
        45 -10.1678    119.9003    103.0120   3.5312000511e+01   3.7721876952e+01    0.5457357    0.3806566 -38.38  0.002422811    1.548    0.354
        46  -9.3619     51.2686    163.8323   6.9110985809e+01   3.4491686830e+01    0.3937646    0.2195641  54.13  0.001718661    1.822    0.451
        47  -8.5071     65.6861     96.8340   5.1894521900e+01   4.9899662195e+01    0.2066784    0.1888478 -62.40 0.0004656983    1.116    0.104
        48  -9.8967      6.1963     85.2025   7.5342969257e+01   5.9326782873e+01    0.3144877    0.2951612  17.66  0.001359853    1.173    0.147
        49  -9.8294      3.1784     80.8841   7.6129469583e+01   6.0563465154e+01    0.2687674    0.1759209  82.77  0.001402764    1.680    0.405
        50  -7.6714    117.9564     84.7524   3.0716560142e+01   4.2054424327e+01    0.1891115    0.1292754  47.88 0.0002923539    1.410    0.291
        51  -8.2831    158.0048     71.3198   1.7462186949e+01   3.4973501714e+01    0.1958781    0.1781252  70.01 0.0004323487    1.081    0.075
        52  -9.4593     59.6285    170.0952   6.7372985256e+01   3.1814348506e+01     0.415473     0.229881  41.90  0.001584868    1.639    0.390
        53 -10.4969    173.5267     65.2555   1.3100876585e+01   3.2269444157e+01    0.3502522    0.2196965 -56.88  0.001406285    1.628    0.386
        54 -11.8373    185.6713     58.6590   9.5836518425e+00   3.0459791765e+01    0.6019859    0.5480663 -28.54  0.001573837    1.288    0.224
        55  -9.8643    246.5864    249.5179   3.7251396485e+01  -8.5588632796e+00    0.2685842     0.084079  28.42  0.001409163    2.915    0.657
        56  -8.3946    141.8293     42.1599   1.1981852955e+01   4.3556776260e+01    0.1920187    0.1632131  46.00 0.0003898185    1.293    0.227
        57 -10.4229    227.3961     36.7704   8.4121833056e-03   2.4468081722e+01    0.2309846    0.1795591 -40.00  0.001523491    1.294    0.227
        58  -9.3980     54.7699    167.1678   6.8459877756e+01   3.3193556386e+01    0.3868413    0.3146962  42.07  0.001172671    1.144    0.126
        59  -9.5580     72.6373    204.0610   6.7757836641e+01   2.1917957652e+01    0.2892981    0.2310192 -89.05  0.001212457    1.371    0.271
        60 -10.6392    213.5007     21.9536   3.5790488912e+02   2.9124396458e+01    0.2700628    0.1795185 -47.14  0.001657262    1.301    0.231
        61  -8.5210     90.1235    247.5823   6.7946348127e+01   1.0748898735e+01     0.301815    0.1686746 -33.43   0.00144765    2.918    0.657
        62  -7.7122    105.4266     20.4383   1.1950795572e+01   5.5605021729e+01    0.1398792    0.1222609  65.87 0.0001184825    1.006    0.006
        63 -10.0371    246.3405    165.6801   2.3634681424e+01   2.4083345558e+00    0.2408112    0.1186805  50.55  0.001199844    3.161    0.684
        64  -8.0092    189.5428     15.5152   3.5836964884e+02   3.5165894782e+01    0.1280843    0.1049156 -75.86 0.0001013648    1.021    0.020
        65  -9.1828     71.6141    241.4739   7.1594631921e+01   1.4260152388e+01    0.2125346    0.1561467 -73.79 0.0006015679    1.634    0.388
        66 -10.8545    237.3802    167.2805   2.5264181260e+01   3.3698244239e+00    0.2335389     0.193219 -47.93  0.001471376    1.468    0.319
        67  -9.0427    185.3481    223.1777   4.4157534848e+01   1.8681590216e+00    0.2675003    0.1182493 -45.01  0.001282442    2.560    0.609
        68  -8.2106     89.1469     20.0845   1.5958739290e+01   5.9666771334e+01    0.1752335    0.1546945 -85.59            0    1.263    0.208
