#   1 NUMBER                 Running object number                                     
#   2 MAG_AUTO               Kron-like elliptical aperture magnitude                    [mag]
#   3 X_IMAGE                Object position along x                                    [pixel]
#   4 Y_IMAGE                Object position along y                                    [pixel]
#   5 X_WORLD                Barycenter position along world x axis                     [deg]
#   6 Y_WORLD                Barycenter position along world y axis                     [deg]
#   7 A_WORLD                Profile RMS along major axis (world units)                 [deg]
#   8 B_WORLD                Profile RMS along minor axis (world units)                 [deg]
#   9 THETA_WORLD            Position angle (CCW/world-x)                               [deg]
#  10 FWHM_WORLD             FWHM assuming a gaussian core                              [deg]
#  11 ELONGATION             A_IMAGE/B_IMAGE                                           
#  12 ELLIPTICITY            1 - B_IMAGE/A_IMAGE                                       
         1  -9.5766    141.5820     20.5354   7.1072149592e+01   4.7648168522e+01    0.4464484    0.2346305  20.22  0.001292904    2.676    0.626
         2  -9.1970     89.8484     18.6245   8.4520167728e+01   6.0083147210e+01    0.1864147    0.1345155  56.31  0.000457937    1.682    0.405
         3  -8.1362    160.4990     10.5267   6.3732360685e+01   4.3714515603e+01     0.149196    0.1364235  42.82 0.0001390466    1.014    0.014
         4  -8.4413    229.3078      9.0649   5.4778534904e+01   2.5955794767e+01    0.1832713    0.1629675 -36.32 0.0004672946    1.085    0.078
         5  -8.1957    139.5089      6.0150   6.5782002607e+01   4.9725364599e+01    0.2072134    0.1108615  19.55 0.0005093988    2.323    0.570
         6  -8.3926    211.5693      8.6924   5.6406389002e+01   3.0387002444e+01    0.2485799     0.137306 -14.15 0.0007812086    1.980    0.495
         7  -7.8797     17.6986      3.7166   1.1166446101e+02   7.2914543602e+01    0.1229835   0.06968249 -27.40 0.0002524756    1.552    0.356
         8  -8.2958    109.4794      2.5107   7.0994051707e+01   5.7639205567e+01    0.1461783    0.1253258  26.34 0.0008101936    1.015    0.014
         9  -8.4486    186.6815    231.3551   1.1245125879e+02   4.9117097812e+00    0.1067482   0.08040769  54.82 0.0007046015    1.750    0.429
        10  -8.8455    248.7288    230.2923   1.0175571500e+02  -3.9363905779e+00    0.1987133    0.1095837  39.36  0.001260502    1.724    0.420
        11  -8.7116    149.7115    226.9900   1.1859240281e+02   1.0975374273e+01    0.1546327    0.1274592  40.18 0.0006359086    1.112    0.101
        12  -8.9342    217.5837    224.8979   1.0613318019e+02   1.0158563888e+00    0.2218477    0.1264575  46.11  0.001154424    1.947    0.486
        13  -8.6914    181.2700    225.2055   1.1259811550e+02   6.4511456403e+00    0.1733303    0.1193428  58.67  0.001043811    2.094    0.522
        14  -9.0628    240.0835    222.8538   1.0202122870e+02  -2.0492649084e+00    0.2718681    0.1041429  43.64  0.001204942    2.665    0.625
        15  -8.9615    229.7608    222.1382   1.0363741410e+02  -4.9164769438e-01    0.2186057    0.1289842  28.05  0.001399851    1.246    0.198
        16  -8.3465    211.2431    220.4491   1.0657128509e+02   2.4389491034e+00    0.1592344   0.09055517  41.48 0.0006463442    1.575    0.365
        17  -8.7432    250.0059    218.4861   9.9702022134e+01  -3.0413088086e+00    0.1643412    0.1466838  -7.76  0.001265561    1.662    0.398
        18  -8.2575    168.6855    216.2041   1.1369570610e+02   9.5278323034e+00    0.1597808     0.143846  57.23  0.001075376    1.401    0.286
        19  -9.4489    185.7829    213.7225   1.1016237289e+02   7.1671790543e+00    0.2593523    0.2148724 -28.04  0.001250854    1.493    0.330
        20 -10.8449    214.6515    210.9494   1.0450691749e+02   2.9713566746e+00    0.3259459     0.280948 -14.45  0.002367906    1.420    0.296
        21  -8.8839    220.5186    211.4716   1.0355666951e+02   2.0083133783e+00    0.1210342   0.08958016  22.17 0.0002804674    1.031    0.030
        22  -8.8725    175.6981    210.6021   1.1159324747e+02   9.1656957286e+00    0.3408446     0.150588  52.20  0.001453363    3.144    0.682
        23  -9.3645    191.6619    208.6986   1.0832541276e+02   6.8648135162e+00    0.2273268    0.1467291 -32.67  0.001206869    1.861    0.463
        24  -8.6228    236.7499    208.8157   1.0032840199e+02  -1.7029034936e-01    0.1887501    0.1397131 -45.76  0.001166303    2.473    0.596
        25  -9.4427    228.7817    209.1929   1.0175296155e+02   9.9229749921e-01    0.1732418    0.1091853  15.35 0.0005318823    1.354    0.262
        26  -9.0258    250.2114    206.5624   9.7704743255e+01  -1.9300027835e+00    0.2011029    0.1375094 -11.33  0.001129441    1.393    0.282
        27  -7.7077    126.9352    206.9545   1.2055081032e+02   1.7279702890e+01    0.1910709    0.1510707  44.19 0.0009939746    1.028    0.028
        28  -8.7150    205.2787    206.3676   1.0546211305e+02   4.9771225315e+00    0.1251438   0.07826658  10.85 0.0007010985    1.683    0.406
        29 -10.2292    197.4545    205.3596   1.0673668143e+02   6.3529758850e+00    0.3390864    0.1900335  49.71  0.001613818    2.078    0.519
        30 -10.4175    243.9061    201.9881   9.7973013124e+01  -5.3840214290e-01     0.320698    0.2011474  38.29  0.001881435    1.538    0.350
        31 -11.0560    233.4402    195.8397   9.8692978077e+01   1.7252006677e+00    0.4653063    0.2948929  48.75  0.002221534    2.062    0.515
        32  -9.9490    228.7740    200.6195   1.0032661721e+02   1.9261032277e+00    0.2690688    0.1698356 -18.29  0.001413802    1.642    0.391
        33 -10.9113    225.9843    195.1129   9.9870264251e+01   2.9884896331e+00    0.4060158    0.3094066  30.48  0.002545916    1.223    0.182
        34 -10.9133    223.8373    191.1226   9.9552566217e+01   3.7991808931e+00    0.5441452     0.281972  49.31   0.00265807    2.435    0.589
        35  -8.4699    222.2301    202.5947   1.0180739238e+02   2.7307524895e+00    0.1823726   0.08851311  30.46 0.0009557183    1.688    0.408
        36  -8.9824    203.5976    198.8572   1.0455382270e+02   6.1661840533e+00    0.1448564    0.1173113 -38.92 0.0007133487    1.672    0.402
        37  -9.0991    178.7685    199.5924   1.0936348978e+02   1.0154440395e+01    0.1803347   0.09893393  45.33 0.0007976495    1.675    0.403
        38  -9.8957    249.6953    178.7769   9.2822739766e+01   1.0477155354e+00     0.555032     0.224426 -23.06  0.002470749    2.533    0.605
        39 -10.8637    238.5469    189.0961   9.6615920035e+01   1.6694573449e+00     0.454659    0.3142892   2.35  0.002869854    1.267    0.210
        40 -10.9816    247.9769    192.8758   9.5698481423e+01  -2.0513178046e-01    0.4558493    0.3844104 -13.74   0.00256848    1.454    0.312
        41 -10.3474    244.3157    183.1294   9.4540881949e+01   1.4187628794e+00    0.5402518     0.484617 -73.58  0.003396111    2.380    0.580
        42 -10.1358    236.2432    182.3208   9.5774598909e+01   2.8078475289e+00    0.3099341    0.2499219  57.39  0.001641741    2.057    0.514
        43  -9.3915    216.4959    195.3642   1.0160851663e+02   4.4891270493e+00     0.245921    0.1931935  18.16  0.001283996    1.048    0.046
        44 -10.1233    210.1500    190.0233   1.0184405141e+02   6.1900729600e+00    0.2461489    0.1919051  39.97  0.001479906    1.356    0.263
        45 -10.0085    210.1045    195.8395   1.0285213144e+02   5.4746177618e+00    0.2583642    0.1976279  50.71  0.001547654    1.706    0.414
        46  -7.9953     60.3464    194.6648   1.3260060145e+02   2.8237797654e+01    0.1222437   0.06476258  61.68  1.02549e-06    1.772    0.436
        47  -7.8605    184.3124    193.3496   1.0730024875e+02   1.0092317444e+01    0.1316524   0.08643632  11.55 0.0004956063    1.720    0.419
        48 -10.8453    231.8006    187.0737   9.7420450563e+01   2.9794133253e+00     0.371112    0.2902282  -7.36  0.002453672    1.240    0.194
        49  -8.2570    147.6416    180.3243   1.1263596692e+02   1.8297494448e+01    0.1321418    0.0949358  64.04 0.0007044174    1.775    0.437
        50  -8.2247    211.5427    176.5119   9.9145485118e+01   7.6927814155e+00    0.1328849     0.105855  18.39 0.0008090078    1.004    0.004
        51  -8.0766      9.5188    166.5111   1.4105694227e+02   3.8367265965e+01    0.1037733   0.08174935  78.20 2.205819e-06    1.049    0.047
        52  -8.3168    200.3514    161.7016   9.8437021173e+01   1.1757156175e+01    0.1250082    0.1086111  67.42  0.000703602    1.690    0.408
        53  -8.4194    218.1161    156.9632   9.4082214477e+01   9.1391245875e+00    0.2039775    0.1600321 -55.86  0.001092888    2.091    0.522
        54  -8.8395    229.3631    153.4474   9.1303183221e+01   7.5536794636e+00    0.2323433     0.112459  37.57 0.0005199607    1.864    0.463
        55  -8.1052    118.3836    152.8007   1.1471189093e+02   2.8228141509e+01    0.1787286    0.1245418 -42.00 0.0009408612    1.627    0.385
        56  -8.1039     60.2577    152.6349   1.2868326277e+02   3.6446562099e+01    0.1255102   0.08007623  72.17 0.0004376252    1.634    0.388
        57  -9.3023    241.2482    149.4060   8.8379297776e+01   5.9352422378e+00    0.2322658     0.206365   6.08 0.0008330726    1.221    0.181
        58  -8.6086    214.0174    149.5063   9.3293550320e+01   1.0940772791e+01    0.2111022    0.1218649  39.40 0.0006503999    1.576    0.365
        59  -9.0884    242.8262    139.0263   8.5881835253e+01   6.9649145554e+00    0.4327624     0.324457 -87.39  0.001913111    3.617    0.724
        60  -9.6877    248.3933    143.7767   8.5983942313e+01   5.3678260723e+00    0.2724168    0.1654386 -12.25  0.001433175    1.563    0.360
        61  -9.2824    245.6826    147.6697   8.7263324457e+01   5.3659656217e+00    0.2615041    0.1662923   6.73 0.0009914896    1.550    0.355
        62  -7.3764    244.6681    144.7045   8.6801550192e+01   5.9147675068e+00    0.1674758    0.1551668  -3.14  0.001075263    1.329    0.248
        63  -9.0921    235.9061    146.8282   8.8751272235e+01   7.2253541323e+00    0.2250116    0.1575568  13.58  0.001246442    1.298    0.230
        64  -8.1145    188.4095    136.2153   9.5476337377e+01   1.8008583656e+01    0.1963063    0.1351035 -44.25 0.0009523981    1.707    0.414
        65  -8.1702    216.1900    135.4054   8.9800247338e+01   1.2536839916e+01     0.189062    0.1304004  50.43 0.0007269189    1.634    0.388
        66  -8.5580    113.6229    135.1538   1.1273371787e+02   3.2593721027e+01    0.1904547     0.126534 -42.18 0.0006265581    1.646    0.392
        67  -8.2715    243.3185    134.3351   8.4766473443e+01   7.4750142740e+00    0.1447638   0.08990537  10.94 0.0007048858    1.699    0.411
        68  -8.0117    226.4904    134.4940   8.7709140492e+01   1.0646226504e+01    0.1426684     0.117309   9.25 0.0008103654    1.033    0.032
        69  -9.5138    235.0119    130.0110   8.5201104595e+01   9.6097265628e+00    0.4495589    0.2044529  54.62  0.001790792    2.946    0.661
        70  -8.2815    248.8060    129.6803   8.2830120122e+01   7.0550235229e+00    0.2632929   0.09978206  39.81  0.001077307    2.563    0.610
        71  -7.9427    163.3064    136.3505   1.0096791880e+02   2.3067802539e+01    0.1511581    0.1089544   5.26 0.0002099771    1.708    0.414
        72  -9.1643    200.8703    125.8835   9.0560341862e+01   1.7084982819e+01    0.4010652    0.2017498 -28.84  0.001685371    2.063    0.515
        73  -8.3746    212.4848    123.5489   8.7759118905e+01   1.5025937102e+01    0.1480032    0.1245539  11.35 9.465781e-05    1.052    0.050
        74  -9.3131    232.0938    121.0481   8.3636070776e+01   1.1396466634e+01    0.2159467    0.1831514   0.25 0.0006023224    1.028    0.027
        75  -7.8385    219.6613    121.3026   8.5896154246e+01   1.3876246552e+01    0.1313564    0.1165475 -71.10  0.000319209    1.670    0.401
        76  -8.0043    171.6867    121.6369   9.5711565933e+01   2.3962917826e+01    0.1588708    0.1115524   7.11 0.0001042169    1.758    0.431
        77  -8.9219    192.5473    118.6020   9.0496419219e+01   2.0010283948e+01    0.2617623    0.2489735  35.77  0.000744757    1.185    0.156
        78  -7.8047    165.7695    119.3179   9.6494569871e+01   2.5633290859e+01    0.1356696    0.1183389 -70.45 0.0002686407    1.501    0.334
        79  -7.7924    226.6873    117.2682   8.3680203676e+01   1.3012237353e+01     0.124999    0.1145063 -66.92 0.0002604848    1.547    0.353
        80  -8.0898    178.5305    115.5127   9.2705105547e+01   2.3562133418e+01    0.1509871    0.1382841  15.89 0.0008096641    1.022    0.021
        81  -8.6800    153.5587    114.5261   9.8200245932e+01   2.9104064639e+01    0.2640639      0.21591  85.26   0.00127686    1.733    0.423
        82  -8.8372    209.7422    114.1634   8.6013751301e+01   1.7012729453e+01    0.2095814    0.1982889 -25.07 0.0007996642    1.223    0.182
        83  -8.0522    241.4491    112.4398   8.0047185494e+01   1.0697523082e+01     0.139721     0.118381   1.55 0.0001259084    1.002    0.002
        84  -8.7793     25.7353    111.3290   1.3304574490e+02   4.8784591987e+01    0.1738122    0.1422834  35.06 0.0009232525    1.390    0.281
        85  -8.8502    236.9884    107.6933   7.9634388122e+01   1.2229659651e+01    0.2022297    0.1666882  25.42 0.0008773314    1.155    0.134
        86  -8.6275    197.2302    107.0461   8.6659616214e+01   2.0848542089e+01    0.2345453    0.1844184   6.49  0.000647375    1.291    0.225
        87  -8.6245    205.6395    105.6599   8.4665420274e+01   1.9202712459e+01    0.2411867    0.1630286  14.45  0.001096823    1.684    0.406
        88  -7.9212    108.6921    106.6727   1.0806898196e+02   3.9495491548e+01     0.146695    0.1125801 -12.22 0.0007038214    1.656    0.396
        89  -9.0579    214.3210    104.9278   8.2860436558e+01   1.7408531532e+01    0.2700016    0.1954454  32.09 0.0005520454    1.334    0.250
        90  -9.5259    246.6669    102.9221   7.6954688161e+01   1.0908941882e+01    0.3555648    0.2320227   1.81  0.001529198    1.641    0.390
        91  -9.0188    228.7336    104.1556   8.0138410224e+01   1.4427407926e+01     0.220852     0.193748  52.07 0.0004407901    1.335    0.251
        92  -8.2080    225.0395     99.9884   7.9723925018e+01   1.5800693147e+01    0.1781479    0.1570312  19.91 0.0007448588    1.078    0.073
        93  -9.1347    206.2697     98.4734   8.2692602464e+01   2.0163334389e+01    0.4513685    0.2846064  35.30  0.002061183    1.584    0.369
        94  -8.4038    172.0214     96.7994   8.9280630822e+01   2.8272530545e+01     0.235738    0.1818511  82.87 0.0004131336    1.969    0.492
        95  -8.7724    234.2979     94.6650   7.6858630749e+01   1.4556721374e+01    0.1381446    0.1079659 -53.14 0.0007031625    1.651    0.394
        96  -8.4247    244.5617     93.5100   7.4985111096e+01   1.2562215084e+01    0.1389683    0.1218638 -11.20 4.286109e-05    1.057    0.054
        97  -8.7612    150.4598     92.7766   9.3259166568e+01   3.3896840763e+01    0.2478593    0.2192107 -37.27 0.0006049736    1.176    0.149
        98  -8.2787    227.4909     88.5262   7.6391341793e+01   1.6871525122e+01    0.1446785    0.1305444  -3.11 4.133994e-05    1.025    0.025
        99  -8.5321    218.0130     85.4994   7.7171970520e+01   1.9418587732e+01    0.2218389    0.1062769  32.97 0.0008105243    2.586    0.613
       100  -8.2867    185.0167     85.2371   8.3273365349e+01   2.7180025989e+01    0.2028129    0.1260216  49.19 0.0004970108    1.586    0.370
       101  -8.6449    172.0808     84.3313   8.5771594914e+01   3.0409501150e+01      0.26928    0.2161828 -59.25    0.0012756    1.577    0.366
       102  -8.5870    196.0342     82.4678   8.0308211201e+01   2.4993901979e+01    0.2236544    0.1474638  50.92 0.0005532337    1.523    0.343
       103  -8.6706    244.7007     80.6112   7.1756222415e+01   1.4203311574e+01    0.2367177    0.1502671 -42.59 0.0007279198    1.691    0.409
       104  -8.6983    249.8729     76.2385   6.9945348114e+01   1.3667205113e+01    0.2526085    0.1655537 -34.03  0.001303497    1.428    0.300
       105  -9.1722    240.2051     76.4767   7.1349402532e+01   1.5699834169e+01    0.3105681    0.2339235  -2.57 0.0008782186    1.325    0.245
       106  -8.7289    157.9816     76.7321   8.6749342906e+01   3.5077186615e+01    0.2249144    0.2036735  37.81 0.0008674553    1.088    0.081
       107  -8.3429    208.3934     73.8351   7.5645492376e+01   2.3329929637e+01    0.2169316    0.1373572 -11.44 0.0005154409    1.757    0.431
       108  -8.3258    196.9631     73.4755   7.7585711591e+01   2.6134744134e+01    0.2253349    0.1490677  54.30 0.0007630662    1.544    0.352
       109 -10.3006    229.8558     70.8542   7.1395189563e+01   1.8733535375e+01    0.4071354    0.2108517 -41.68  0.001517623    2.026    0.506
       110  -8.1683    107.6116     71.8827   9.8987801309e+01   4.7059825304e+01    0.2058357      0.13762 -53.49 0.0009257646    1.672    0.402
       111  -9.2230    239.4090     68.1358   6.9314352551e+01   1.6942645940e+01    0.2373715    0.2174326 -21.57 0.0006227428    1.067    0.063
       112  -8.8267    234.4522     68.0405   6.9984065994e+01   1.8060828340e+01    0.4289488    0.1770867 -20.74  0.001595736    2.586    0.613
       113  -8.2913    187.9809     69.4783   7.8119813356e+01   2.8937039407e+01    0.1950184    0.1390923 -87.86 0.0004095123    2.216    0.549
       114  -9.0751    245.1420     66.0841   6.8014196148e+01   1.5942509884e+01    0.2485163    0.1872741 -33.34 0.0005974422    1.250    0.200
       115  -7.8755    176.5597     67.5060   7.9809845731e+01   3.2073239152e+01    0.1582003    0.1436691  13.94 8.477193e-05    1.054    0.051
       116  -8.8659     44.3239     67.6580   1.1984539145e+02   5.7242212815e+01    0.1288564   0.09635343  76.17  0.000705083    1.730    0.422
       117  -8.6127    250.6553     64.7188   6.6958090229e+01   1.4922665752e+01    0.1395274   0.09673955  21.50 0.0002451385    1.637    0.389
       118  -7.7881    242.2918     62.2931   6.7415311250e+01   1.7036672830e+01    0.1390881    0.1001831  17.77 0.0003200861    1.552    0.356
       119  -8.2518    214.2119     61.7830   7.1310458644e+01   2.3607260006e+01     0.204192    0.1613782  23.83 0.0004896632    1.314    0.239
       120  -8.0957    132.5224     62.4623   8.8659787114e+01   4.3579640387e+01    0.1557069    0.1450195   8.52 0.0001067037    1.006    0.006
       121  -8.8473    205.4755     61.5578   7.2659191404e+01   2.5764552416e+01    0.2129238    0.1332508  46.53 0.0001081845    1.578    0.366
       122  -8.5095    174.1761     59.4762   7.7809070803e+01   3.3908912645e+01    0.2272434      0.15183  55.68  0.001001168    1.509    0.337
       123  -9.4262    231.9796     58.4848   6.7796881841e+01   1.9840451664e+01    0.2074885    0.1403182  58.84 0.0007780095    1.574    0.365
       124  -8.6703    140.4528     54.9578   8.4020626998e+01   4.3011610453e+01    0.2416722    0.1511071 -30.02 0.0007610351    1.609    0.379
       125  -9.1815    215.1640     68.0738   7.2914398213e+01   2.2525357720e+01     0.385679    0.2008897 -27.68  0.001621335    1.833    0.455
       126  -8.7491    191.0000     52.9820   7.2593602990e+01   3.0571422109e+01    0.2487047   0.08527522 -27.36 0.0007964679    2.901    0.655
       127  -8.8200    154.1354     53.1487   8.0088948922e+01   3.9937933889e+01    0.2121702    0.1927593 -85.59  0.001075942    1.332    0.249
       128  -8.0559    244.5821     51.8293   6.4425666597e+01   1.7794756521e+01    0.1982799    0.1127276 -35.74  0.000810803    1.615    0.381
       129  -8.3539    149.5150     52.5041   8.0949108496e+01   4.1191619923e+01    0.1568286    0.1466891  16.35  5.74371e-05    1.005    0.005
       130  -9.0129    195.0371     49.3469   7.0792392746e+01   3.0035820993e+01    0.3511485    0.1827809 -35.25   0.00101798    1.885    0.469
       131  -8.7986    220.9960     44.3797   6.5432653396e+01   2.4184503862e+01    0.3221017    0.2032472  17.46  0.001335232    2.036    0.509
       132  -8.8435    189.9342     44.2742   7.0092694543e+01   3.2013531227e+01      0.21765    0.1898097  42.31 0.0005863038    1.116    0.104
       133  -9.4438    105.6375     40.7606   8.8709276804e+01   5.3324039440e+01    0.3623161    0.1744708 -43.17  0.001421003    2.241    0.554
       134  -8.6790    174.0101     40.2609   7.1630627908e+01   3.6684111828e+01     0.281993    0.2245042  81.88  0.001359941    1.482    0.325
       135  -9.7939    248.7457     37.7500   6.0346791550e+01   1.8479470720e+01    0.3387133    0.2671014  15.84  0.001200541    1.419    0.295
       136  -7.9648    165.4613     39.4490   7.3001320329e+01   3.9026704995e+01    0.1560682    0.1424213  26.34 0.0001459018    1.043    0.041
       137  -9.0820    242.8119     37.8267   6.1005458114e+01   1.9805896623e+01    0.1979232    0.1733813  11.25  0.000420249    1.201    0.167
       138  -8.3961    205.3256     38.3367   6.5878638092e+01   2.8810957326e+01     0.158091    0.1058455  26.94 0.0007051459    1.721    0.419
       139  -9.2053    229.8665     37.1157   6.2301494555e+01   2.2901694115e+01    0.3206702     0.199402  64.85 0.0007162116    1.686    0.407
       140  -9.4367    111.7921     35.5950   8.4754804327e+01   5.2832304859e+01     0.204484    0.1444526  59.50 0.0009480219    1.681    0.405
       141  -7.8567    160.2953     34.2909   7.2249264718e+01   4.1060188650e+01    0.1589238    0.1101164  27.17 0.0002756538    1.555    0.357
       142  -9.0006      5.3932     41.1899   1.3000734691e+02   6.5815060051e+01    0.3561716   0.09676784 -71.52  0.001418942    3.169    0.684
       143  -9.2596    164.0648     31.9750   7.0702107087e+01   4.0366317376e+01    0.4392069     0.209111 -38.49  0.001562599    2.201    0.546
       144  -9.0579    218.3721     34.3838   6.2961874529e+01   2.6003573620e+01    0.2493295    0.2098106  -9.32 0.0004949759    1.204    0.169
       145  -7.8050    157.6385     32.3178   7.2088283029e+01   4.2010999861e+01    0.1583993    0.1182351 -66.66 0.0007042288    1.766    0.434
       146  -8.5489    138.7485     31.9797   7.6106915782e+01   4.6921554919e+01    0.2013857     0.129469 -23.89 0.0008886961    1.582    0.368
       147  -8.0964    170.3873     29.1915   6.8576020059e+01   3.9036961272e+01    0.2196142     0.133575 -35.40 0.0009519655    1.686    0.407
       148  -9.0777    220.8846     24.1050   5.9762436548e+01   2.6514238391e+01    0.2147369    0.1795871 -61.80  0.000886064    1.253    0.202
       149  -9.0606     90.9875     24.0034   8.6577018445e+01   5.9056139376e+01    0.2177456    0.1787255 -58.99  0.001137598    1.713    0.416
       150  -8.4797    249.4331     22.6994   5.6472331111e+01   1.9926758848e+01      0.22743    0.1466906  43.12  0.001190028    1.757    0.431
       151  -9.0231    206.2641     20.4068   6.0430274487e+01   3.0586776483e+01     0.251757    0.1937615 -20.51 0.0006419018    1.314    0.239
       152  -9.8374    242.4090    246.3991   1.0512712641e+02  -4.4764181556e+00    0.2914245    0.1580221 -31.11  0.001960899    2.416    0.586
       153  -8.9214    226.8035     17.8924   5.7405034834e+01   2.5704739051e+01    0.1984033    0.1765523  36.35 0.0006641516    1.193    0.162
       154  -8.1282    195.5239    239.5465   1.1198266627e+02   2.7063117773e+00    0.1148863   0.08015028  27.92 0.0006183526    1.029    0.029
       155  -9.8444    240.9869     18.4886   5.6178441530e+01   2.2276998464e+01    0.2549055    0.2320845  76.94 0.0005755451    1.146    0.128
       156  -8.5511    107.0294     15.4665   7.7602789563e+01   5.6767849273e+01    0.2262747    0.1353945  50.75  0.001037064    1.610    0.379
       157  -8.3589    120.6274     16.7630   7.4461803817e+01   5.3380403428e+01    0.2114237    0.1300162 -32.96 0.0009555257    1.697    0.411
       158  -9.1064     43.0131     15.0265   1.0278796793e+02   6.8360219104e+01    0.1763895     0.163783 -83.76  0.001136162    1.686    0.407
       159  -8.3763    131.4969     13.5122   7.0493796021e+01   5.1036834841e+01    0.1537361    0.1316224  29.63 0.0008096367    1.068    0.064
       160  -8.4668    202.4522     11.5113   5.8236460344e+01   3.2460296955e+01     0.265068    0.1044553  56.07   0.00102507    2.306    0.566
       161  -8.0893    218.4736     10.5948   5.6237362860e+01   2.8470456397e+01    0.1324085    0.1290418  75.64  4.65419e-05    1.034    0.033
       162  -9.2678    249.5207    243.5342   1.0359064120e+02  -5.1742896640e+00    0.1830231    0.1624871  52.99  0.001384337    2.415    0.586
       163  -8.3191    205.3251    237.6431   1.1004708528e+02   1.4873466667e+00    0.1018195    0.0791594  50.74 0.0007045096    1.773    0.436
       164  -8.8409    216.4013    234.2016   1.0768368758e+02   2.3868836747e-01    0.1894221    0.1624905  46.21  0.001423034    1.715    0.417
       165  -8.5492    195.7181    233.4375   1.1113975158e+02   3.3375161142e+00    0.2286358   0.08445642  41.76  0.001142387    2.149    0.535
       166  -7.9869    226.5148    231.5382   1.0559466473e+02  -9.4923789002e-01    0.1148952   0.08027641  23.02 0.0002003133    1.022    0.021
