#   1 NUMBER                 Running object number                                     
#   2 MAG_AUTO               Kron-like elliptical aperture magnitude                    [mag]
#   3 X_IMAGE                Object position along x                                    [pixel]
#   4 Y_IMAGE                Object position along y                                    [pixel]
#   5 X_WORLD                Barycenter position along world x axis                     [deg]
#   6 Y_WORLD                Barycenter position along world y axis                     [deg]
#   7 A_WORLD                Profile RMS along major axis (world units)                 [deg]
#   8 B_WORLD                Profile RMS along minor axis (world units)                 [deg]
#   9 THETA_WORLD            Position angle (CCW/world-x)                               [deg]
#  10 FWHM_WORLD             FWHM assuming a gaussian core                              [deg]
#  11 ELONGATION             A_IMAGE/B_IMAGE                                           
#  12 ELLIPTICITY            1 - B_IMAGE/A_IMAGE                                       
         1  -9.5261    183.3020      7.7110   6.5433553817e+01   3.8516212131e+01    0.4507399    0.2255627 -28.85  0.002035304    2.044    0.511
         2  -9.6258    178.3393      5.1133   6.5236545721e+01   4.0048677980e+01    0.4247307    0.2256866  42.06  0.001881697    2.167    0.539
         3  -9.1879    235.9293      2.8715   5.9206116216e+01   2.5899208981e+01    0.3586033    0.1923067 -41.78  0.001144704    1.646    0.392
         4  99.0000     13.5444    239.4785   1.4992758132e+02   2.4822850658e+01     0.218389    0.2096246 -15.80  0.001907612    2.059    0.514
         5 -10.6279    151.3719    248.3672   1.2732532615e+02   4.6973471731e+00    0.4787336    0.3086217  46.97  0.003091814    1.214    0.176
         6 -10.3788    138.6933    249.5619   1.2967024378e+02   6.5134128149e+00    0.5073907    0.3218333  33.53  0.003162768    1.581    0.367
         7 -10.1613    133.8510    248.5864   1.3040673650e+02   7.4081935072e+00    0.4014853    0.3260167  31.17 0.0007439874    1.376    0.273
         8 -17.6138     63.6938    243.6395   1.4203587619e+02   1.8305405670e+01     3.226906     2.265839  64.26   0.00630234    1.029    0.028
         9  -9.8787    180.6780    197.8999   1.1467464925e+02   7.3919370951e+00    0.2304611    0.2075021  24.86  0.000371447    1.071    0.067
        10  -8.0415    244.6819    240.3008   1.1033576003e+02  -8.7182203408e+00   0.09551436    0.0838606  44.47 0.0002239459    1.620    0.383
        11 -14.0560     59.8600    232.3980   1.4187451399e+02   2.0752265313e+01    0.3059438    0.2519966  54.76  0.001124128    1.311    0.237
        12  -9.5687    186.3322    230.6956   1.1880522385e+02   1.4908764123e+00    0.4977669    0.1959256 -52.14  0.002081725    4.187    0.761
        13  -8.3178    167.7391    229.9669   1.2205425489e+02   4.6862604170e+00    0.1606937    0.1462072  43.13 0.0005020478    1.119    0.107
        14  -8.1558    167.7059    218.4290   1.2041054989e+02   6.4333526451e+00    0.2494237    0.1038703  45.90  0.001131808    2.059    0.514
        15  -7.3474    180.9798    183.2000   1.1200172744e+02   9.7994479716e+00    0.1852109     0.100009  44.11 0.0004436239    1.696    0.410
        16  -7.8671    144.1402    216.0788   1.2454135818e+02   1.0870351611e+01    0.1829867    0.1639298  26.31  0.001207121    1.260    0.206
        17  -8.4651      3.9600    180.9026   1.4863590832e+02   3.6855632663e+01    0.2227346     0.157501  25.83  0.001576632    2.016    0.504
        18  -8.9024    183.5708    212.9278   1.1660433521e+02   4.5169483697e+00    0.3802367    0.1258251 -43.07  0.001536052    3.520    0.716
        19  -8.4338      9.9205    175.4736   1.4713186244e+02   3.7466666041e+01    0.2427541    0.1255479 -76.71  0.000766161    1.561    0.360
        20 -10.5674     13.8798    168.4308   1.4583308140e+02   3.8609458617e+01    0.5195339    0.3712853 -75.31  0.001915203    1.271    0.213
        21  -8.7505     94.5947    174.0840   1.2883970122e+02   2.7346211845e+01    0.2982057    0.1762268  64.17  0.001330307    1.809    0.447
        22  -9.6297     23.7408    173.0584   1.4414152610e+02   3.6691785356e+01    0.2633621     0.191261  34.22  0.001781229    1.707    0.414
        23  -8.1700    195.8891    170.5532   1.0664061412e+02   9.0666894526e+00    0.2720191    0.2097806   8.09  0.001432372    1.501    0.334
        24  -9.1861    100.2162    170.6516   1.2707153288e+02   2.7178282870e+01    0.2996319    0.2463143  65.67 0.0009035387    1.104    0.095
        25  -8.5866    102.0856    166.1873   1.2595152547e+02   2.7840132721e+01    0.3559742    0.2431235 -31.58  0.001682715    2.328    0.570
        26  -8.5787    116.2946    212.8151   1.2949749098e+02   1.6097820435e+01    0.2713388    0.1901141 -88.03  0.001583393    1.633    0.388
        27  -7.5386    117.8053    166.1947   1.2237211021e+02   2.5112679643e+01    0.1802174    0.1693881  12.57 0.0008888336    1.323    0.244
        28  -9.9392     73.3788    161.8262   1.3193293223e+02   3.3256821565e+01    0.3996109    0.2001411  32.56  0.001665682    2.410    0.585
        29  -8.8773     30.2264    159.7200   1.4156812676e+02   3.8959957550e+01    0.2475307    0.1290188  81.57  0.001302217    1.879    0.468
        30  -9.1299    106.4252    157.4849   1.2349869508e+02   2.9020164022e+01    0.4071955    0.2556619  42.21  0.001993573    1.596    0.374
        31  -8.3737     49.4846    158.1456   1.3701209775e+02   3.7201608558e+01     0.195376    0.1075134 -73.10  0.001030668    1.587    0.370
        32  -9.3405     66.6021    157.2387   1.3288880770e+02   3.5234859034e+01    0.2188134    0.1651424  49.39 0.0005665584    1.338    0.253
        33  -8.9467     36.9608    156.4266   1.3970802050e+02   3.8998440223e+01    0.2670885    0.1786992 -13.80  0.001336188    3.255    0.693
        34  -9.6128     54.8860    155.8666   1.3547177435e+02   3.7064448427e+01    0.3677513    0.1643941  38.49  0.001753902    2.303    0.566
        35  -7.5886     23.2789    156.3579   1.4280644212e+02   4.0384142202e+01    0.1153932   0.07668796 -56.19 0.0007011832    1.661    0.398
        36  -7.8008     10.4545    211.4710   1.4911807453e+02   3.0209509388e+01    0.1331033    0.1256466 -71.88 0.0008794229    1.673    0.402
        37  -9.4737    109.8508    151.9408   1.2169850173e+02   2.9653893616e+01    0.3675008    0.3120249  26.16  0.002016902    1.435    0.303
        38  -7.4770      8.8603    153.4198   1.4576200246e+02   4.2292593110e+01    0.1195373    0.1128516 -12.01  0.000473593    1.601    0.375
        39  -8.8161     39.7956    150.7283   1.3841536980e+02   3.9984450805e+01    0.1904907    0.1521415  42.03 0.0007401382    1.437    0.304
        40 -11.0622     68.4883    144.1033   1.3051530328e+02   3.8000586850e+01    0.7512037    0.4110268  76.13  0.003231437    2.527    0.604
        41  -9.6943     96.1500    151.6667   1.2494360241e+02   3.2065490297e+01    0.3220372    0.2793182 -52.32 0.0007280833    1.268    0.211
        42  -9.0045     54.4348    145.7423   1.3424689428e+02   3.9444389402e+01    0.3923696    0.1923056 -63.87  0.001898546    1.776    0.437
        43  -8.5252     57.9991    145.7515   1.3336860528e+02   3.8999418764e+01     0.180889    0.1542936  77.44 0.0005237176    1.092    0.084
        44  -9.7880     11.5431    206.7161   1.4868222385e+02   3.1014606631e+01    0.3850317    0.2543134  38.63  0.002415891    1.746    0.427
        45  -8.4887     90.1042    145.2890   1.2531641357e+02   3.4507487556e+01    0.3135014    0.1160711  41.79  0.001198591    2.685    0.628
        46  -9.2087    126.0208    143.8501   1.1625471282e+02   2.8443934703e+01    0.2324912    0.2051677 -55.35  0.001262335    1.150    0.130
        47  -8.4951     45.0059    146.0094   1.3659390805e+02   4.0490267961e+01    0.1999592    0.1631116  89.70 0.0006932569    1.021    0.021
        48  -9.1218     75.3979    137.6603   1.2771050491e+02   3.8527505427e+01    0.4265621    0.2117301 -47.79  0.001865655    2.208    0.547
        49  -8.7445    106.7611    137.1337   1.1960858806e+02   3.3553088991e+01     0.266875    0.2016609  42.61 0.0006093016    1.377    0.274
        50  -9.2071     69.3079    134.3976   1.2873239795e+02   4.0155673687e+01    0.2843046    0.1584181  43.15  0.001178289    1.869    0.465
        51 -10.6036     62.7247    132.8211   1.3019308661e+02   4.1412187092e+01    0.6110459    0.3479732  65.68  0.002857607    2.149    0.535
        52  -8.1747    190.9612    134.1887   9.9690944518e+01   1.6632187193e+01    0.2147667    0.1960991 -84.27 0.0004046591    1.248    0.199
        53  -7.7301      9.1621    202.5445   1.4888064301e+02   3.2050328024e+01     0.135989   0.09098673  49.16 0.0004918974    1.450    0.311
        54  -8.6031    123.5006    128.8462   1.1363477306e+02   3.2269150986e+01    0.2450463    0.2016596  48.30  0.001257814    1.228    0.186
        55  -9.8649    237.0327    126.5596   8.9555226466e+01   8.0575221737e+00    0.2772504    0.2522513  37.29 0.0004655138    1.167    0.143
        56  -9.0865     49.2185    126.3994   1.3275346198e+02   4.4581131796e+01    0.2835873    0.2477773 -39.33  0.001049211    1.391    0.281
        57  -9.4265    160.2898    249.3819   1.2589405686e+02   3.1496214875e+00    0.2986139    0.1320294  43.34  0.001467607    1.747    0.428
        58  -7.2666    109.3421    125.2534   1.1643068938e+02   3.5798061824e+01    0.1390891    0.1181436  -2.47 0.0002557732    1.579    0.367
        59  -8.9482     62.0105    125.0197   1.2906113757e+02   4.3342175111e+01    0.2121474    0.1814802 -80.09 0.0009353547    1.024    0.023
        60  -8.6431    138.4434    200.3035   1.2340317574e+02   1.4629930381e+01     0.349943    0.2153089 -88.94  0.001370835    2.797    0.642
        61  -7.1343    183.2802    112.0332   9.5777914122e+01   2.2573689844e+01    0.1816772    0.1351337 -37.05 0.0002360989    1.332    0.249
        62  -9.5398    240.1333    107.8679   8.4659289954e+01   1.0405852682e+01     0.414636    0.2441761 -51.76  0.001287438    1.927    0.481
        63  -7.4071     25.9536    109.7801   1.3667977198e+02   5.0795477227e+01     0.131616    0.1037947  27.84 0.0004047116    1.591    0.372
        64  -7.1338    187.3913    107.1586   9.3684980058e+01   2.2524248808e+01    0.2087239    0.1396071 -48.56 0.0003767723    1.532    0.347
        65  -8.5399     22.2527     94.9279   1.3545110612e+02   5.4520069069e+01    0.3588313    0.1718831  13.48  0.001743853    3.146    0.682
        66  -7.1913    208.2496     86.0437   8.4246132792e+01   2.1270437961e+01    0.1851562    0.1251063 -33.58 0.0003406968    1.433    0.302
        67  -7.7430    153.9694     67.9706   8.9441232595e+01   3.7915845005e+01    0.2268053    0.1791897 -70.80            0    1.492    0.330
        68  -7.9720      4.2401     67.6187   1.3666225778e+02   6.1793711665e+01     0.142695    0.1013707 -19.11 0.0009527744    1.704    0.413
        69  -8.7633    191.3072     64.2746   8.1072886129e+01   2.9072059417e+01     0.258728     0.237843 -69.27 0.0003567509    1.077    0.071
        70  -9.1663    153.2427     56.6830   8.5987882456e+01   3.9998671346e+01    0.3866734    0.3112648  63.94  0.001778744    1.265    0.209
        71  -9.9419    246.6076     51.1511   6.9937964421e+01   1.7531747661e+01    0.3220998    0.2684307 -34.74 0.0005409942    1.161    0.139
        72  -8.3490    250.3081     46.9874   6.8533714644e+01   1.7264013068e+01    0.2493775     0.191838 -33.57 0.0009689294    1.239    0.193
        73  -8.4819    131.9948     52.9766   8.9571413170e+01   4.5798392837e+01    0.2132429    0.2096266 -37.36            0    1.040    0.038
        74 -10.8390    165.6234     40.8797   7.8425736362e+01   3.9211676863e+01     0.880034    0.7108119 -15.17  0.004503923    1.373    0.272
        75  -9.1454    169.5753     33.3256   7.5318037086e+01   3.9196609583e+01    0.3375175    0.2736187  -9.55  0.001033065    1.409    0.290
        76  -7.7685    247.6554     39.6900   6.7045383756e+01   1.8833300863e+01    0.1301345    0.1033686  28.99 0.0007045071    1.702    0.412
        77  -7.3886    187.9417     37.7815   7.3816029629e+01   3.3828566860e+01     0.185806    0.1151412  64.67 0.0003899905    1.564    0.361
        78  -7.9202    159.8304     30.0392   7.5900536978e+01   4.2141836367e+01    0.2511104    0.1641313  20.36  0.001096078    2.067    0.516
        79 -10.1459    141.8493     29.2731   7.9000894996e+01   4.6818226094e+01    0.2544737    0.2503685 -11.85 0.0003008663    1.053    0.051
        80  -7.4959    152.6072     24.2816   7.5224846499e+01   4.4697726488e+01    0.1925028    0.1399072  -8.53 0.0009460697    1.595    0.373
        81 -10.1386    168.9519    247.4229   1.2414652496e+02   2.0428234760e+00     0.328555    0.2404252  50.48  0.001533657    1.228    0.186
        82  -8.3220     13.7226    242.3513   1.5002397894e+02   2.4311182659e+01    0.2955206    0.1683223  87.05  0.001993071    1.408    0.290
