#   1 NUMBER                 Running object number                                     
#   2 MAG_AUTO               Kron-like elliptical aperture magnitude                    [mag]
#   3 X_IMAGE                Object position along x                                    [pixel]
#   4 Y_IMAGE                Object position along y                                    [pixel]
#   5 X_WORLD                Barycenter position along world x axis                     [deg]
#   6 Y_WORLD                Barycenter position along world y axis                     [deg]
#   7 A_WORLD                Profile RMS along major axis (world units)                 [deg]
#   8 B_WORLD                Profile RMS along minor axis (world units)                 [deg]
#   9 THETA_WORLD            Position angle (CCW/world-x)                               [deg]
#  10 FWHM_WORLD             FWHM assuming a gaussian core                              [deg]
#  11 ELONGATION             A_IMAGE/B_IMAGE                                           
#  12 ELLIPTICITY            1 - B_IMAGE/A_IMAGE                                       
         1 -15.0899     69.2751    145.8556   1.1045077556e+02   3.6875757130e+01     4.550789     2.345887  73.08  0.007869219    3.101    0.677
         2 -16.5165      4.8859     30.0377   1.0749885772e+02   6.8921470130e+01     2.141922    0.7306661 -62.06   0.00985036    2.814    0.645
         3 -13.9528    194.2413     38.2146   5.2098828151e+01   3.1802142566e+01     1.628211     1.197221  11.18  0.004174866    1.866    0.464
         4 -14.1523    202.4605     31.8374   4.9169351625e+01   3.0534882092e+01     1.529678     1.355946 -19.64   0.00668437    1.267    0.211
         5 -12.5371    210.4593     23.7746   4.6001839792e+01   2.9513983808e+01    0.5795655    0.4272719  44.30  0.001096187    1.568    0.362
         6 -14.0437    217.1550     16.3287   4.3333476539e+01   2.8722272789e+01     1.118883    0.9664447  35.04  0.002668031    1.427    0.299
         7 -17.0781     19.2449     12.0710   9.3328303232e+01   7.1077166237e+01     1.711513     1.259386 -23.40  0.009584579    1.027    0.027
         8 -11.3057     58.8271      6.9074   7.2531464931e+01   6.6743412818e+01    0.2199211    0.2109654  72.84  0.001000785    1.615    0.381
         9 -11.7719     57.3384      2.3856   7.0809463383e+01   6.7501629791e+01    0.3922962    0.2271506  39.10  0.002245734    1.626    0.385
        10 -11.5694    145.8170     50.2989   6.4712474441e+01   4.2490889811e+01    0.6430416    0.3968925 -80.91  0.002305371    3.099    0.677
        11  -9.9457    174.4857    249.8453   1.0292652802e+02  -1.4585371803e-01    0.2269251    0.1579565  56.50  0.001432771    1.609    0.378
        12 -15.4638     93.5728    245.3665   1.1699063633e+02   1.2990316370e+01     9.576003     2.201828  37.76   0.02836558    4.508    0.778
        13 -11.5042    223.2132    223.0958   9.0168797044e+01  -4.4106535568e+00    0.5001538    0.3121742  10.36  0.001971344    1.753    0.430
        14 -11.1233    239.5109    214.8615   8.5899524435e+01  -5.9201897166e+00    0.3196543    0.2601642 -33.02  0.001543986    1.514    0.340
        15 -12.2730    245.2088    215.3679   8.5009518677e+01  -6.8535170026e+00    0.4712747    0.3373211 -36.60  0.001553753    1.706    0.414
        16 -13.1942    249.4941    203.9595   8.2232751991e+01  -6.0897947100e+00     1.018427    0.2970497 -31.18  0.003390355    3.563    0.719
        17  -9.5834    164.0086    215.2023   1.0001463335e+02   6.7097948013e+00    0.2098675    0.1675493 -69.74  0.000817549    1.646    0.392
        18  -9.0371    164.4181    205.5649   9.8426444255e+01   8.2451447272e+00    0.1320754    0.1151837  40.06 4.638741e-05    1.011    0.011
        19 -11.0781    183.8583    215.6432   9.6227377356e+01   3.1849198812e+00    0.2507179    0.1881368  62.03  0.001432735    1.692    0.409
        20  -9.0296    107.8110    203.4061   1.0973247507e+02   1.8419071538e+01    0.1661371     0.115155  35.86 0.0002978529    1.495    0.331
        21  -9.4501     96.4309    200.9033   1.1178016029e+02   2.0714145209e+01    0.2065538    0.1793902 -39.71 0.0008156053    1.557    0.358
        22 -11.4181    193.3251    194.0163   9.0683468560e+01   4.9075108141e+00     0.772103    0.4587176 -59.96  0.003379474    2.880    0.653
        23  -9.4981     96.9002    190.3082   1.1033395441e+02   2.2808511451e+01    0.2200745    0.1654649 -86.49   0.00061187    1.343    0.256
        24  -9.8476     73.2812    188.0355   1.1514361777e+02   2.6800025814e+01    0.2127716    0.1645857  57.03 0.0006268923    1.162    0.139
        25 -12.2729     66.4827    180.7881   1.1578552681e+02   2.9294805630e+01      0.37598    0.2951503 -51.35  0.002289151    1.558    0.358
        26 -12.2289     71.2927    175.4079   1.1407335994e+02   2.9822892951e+01    0.3645528    0.2950667 -54.81 0.0007740701    1.424    0.298
        27  -9.8998    206.6743    180.3423   8.5487087264e+01   4.6558316708e+00    0.3888637    0.2410707  16.01  0.001779222    2.073    0.518
        28  -9.7561     99.5762    180.5572   1.0840097658e+02   2.4445468628e+01    0.2228853    0.2016199 -74.74 0.0006268174    1.158    0.136
        29 -10.3457     39.2723    177.1297   1.2130538050e+02   3.3420740668e+01    0.2389134    0.1469413  47.73 0.0008045948    1.547    0.353
        30 -13.5123     67.9214    161.6357   1.1306954939e+02   3.3390165837e+01    0.5002444    0.3912814 -58.19   0.00131182    1.339    0.253
        31 -13.7974     40.8960    209.1164   1.2363243919e+02   2.6568200805e+01    0.7108825    0.4726706 -58.11  0.001249874    1.867    0.464
        32  -9.8722    145.5506    168.5033   9.5983005003e+01   1.8760311485e+01    0.1435818    0.1355375  51.57 5.437395e-05    1.011    0.011
        33  -9.2998    161.0612    165.4883   9.1945403578e+01   1.6300907678e+01    0.2147989    0.1372847  45.22 0.0003607847    1.482    0.325
        34 -16.2670      3.1473    162.9700   1.2783777985e+02   3.9891969019e+01     4.086777    0.6461504 -72.87   0.01516831    4.136    0.758
        35 -11.3485    133.6664    143.9745   9.3846308975e+01   2.6344880820e+01     1.164378    0.2748705 -53.96   0.00277757    5.847    0.829
        36  -9.5908    174.9392    148.9615   8.5424264336e+01   1.6704190329e+01    0.2342342    0.1879395  87.63  0.000680929    1.678    0.404
        37 -11.7403     39.2033    146.3929   1.1807697111e+02   4.0373237810e+01    0.2886339    0.2513657 -79.61  0.001015907    1.119    0.106
        38 -12.4617     88.3330    142.6991   1.0502702026e+02   3.4811854226e+01    0.3996335    0.3303387  10.87  0.002153268    1.623    0.384
        39 -10.9289    100.4871    143.5345   1.0205735254e+02   3.2618774261e+01    0.2779855    0.2597284 -73.04 0.0008825847    1.059    0.056
        40 -10.0690    103.1889    140.2136   1.0072237008e+02   3.2924972272e+01    0.3383114    0.2575736 -19.86  0.001621893    1.893    0.472
        41  -9.6368     79.5377    139.6860   1.0678100372e+02   3.6870417474e+01     0.189917     0.126092 -76.04 0.0009311009    1.539    0.350
        42 -10.0592     35.9798    140.1923   1.1812803891e+02   4.2147765136e+01    0.1952936    0.1441584  73.50 0.0006128747    1.295    0.228
        43 -11.8942     80.3820    165.3564   1.1063372329e+02   3.0779566524e+01    0.3214197    0.2865127  72.13 0.0003883768    1.066    0.062
        44 -10.2874    106.0566    130.7076   9.8023911533e+01   3.4630476586e+01      0.36808    0.3036527  73.06  0.001261461    1.303    0.233
        45 -11.4616    135.3484    122.3736   8.8500090044e+01   3.0786339490e+01    0.7140222    0.1378326 -47.66  0.001695987    5.262    0.810
        46 -11.7407     32.5870    128.5829   1.1752948499e+02   4.5198148158e+01    0.5209998     0.148619 -71.38    0.0019275    3.182    0.686
        47 -11.2897     28.6786    127.8767   1.1847611014e+02   4.5722724575e+01    0.2267605    0.1818623  -3.85   0.00115034    1.774    0.436
        48 -10.5962    160.1129    128.6555   8.4041673908e+01   2.4058582175e+01    0.4155739    0.2233849 -26.68  0.001444815    2.785    0.641
        49 -11.0736     98.1522    128.1536   9.9595091333e+01   3.6618133388e+01    0.3055328    0.2532701 -34.87 0.0007219549    1.368    0.269
        50  -9.8706    125.8874    127.7083   9.2178321507e+01   3.1540823611e+01     0.294895    0.1995867 -79.44 0.0007712597    2.119    0.528
        51 -10.7189    117.0482    126.3104   9.4151136643e+01   3.3598081489e+01    0.3040797    0.2219254 -63.53  0.001439729    1.436    0.303
        52  -9.9387    107.4819    120.0421   9.5266721180e+01   3.6849560682e+01    0.2043993    0.1976556  73.74 0.0003315266    1.050    0.047
        53 -12.2753     33.3414    118.3702   1.1590136763e+02   4.7533468921e+01    0.4197875    0.2282878 -57.26  0.002229131    1.574    0.365
        54  -9.9304    168.1305    112.8063   7.8221562526e+01   2.5497547145e+01    0.3628438    0.2416217 -63.56  0.001419466    1.977    0.494
        55 -10.2751    134.5741    112.3118   8.6169653382e+01   3.3165654850e+01    0.3786118    0.1497322 -43.63  0.001279823    2.524    0.604
        56 -10.1524    205.4724    110.2615   6.9877848844e+01   1.7275674736e+01    0.3138006    0.2395132  41.71 0.0008872937    1.363    0.266
        57 -10.2068    110.8743    131.8703   9.7004904554e+01   3.3482504355e+01    0.2995739    0.2564749  -6.23 0.0009134449    1.497    0.332
        58 -13.0222     86.7807    158.5316   1.0807620689e+02   3.1372739953e+01    0.8017686     0.521347 -41.79   0.00130308    1.938    0.484
        59 -10.5426    134.5766    103.7596   8.3902958255e+01   3.5021086908e+01    0.5650318    0.1791286 -43.70  0.001716992    3.116    0.679
        60 -11.0345     41.6455    104.1622   1.1113164183e+02   5.0085573793e+01    0.2452104    0.1729987  56.10  0.001319955    1.647    0.393
        61  -9.2795     91.7333    102.7650   9.5573559482e+01   4.3647169308e+01    0.1931593    0.1643784  83.27 0.0005408948    1.347    0.258
        62 -11.0067    137.6441    171.2117   9.8266892460e+01   1.9719294492e+01    0.2740205    0.2378475  42.55 0.0008775586    1.111    0.100
        63 -11.6616    245.4269     99.5930   6.0583872173e+01   1.0244899075e+01    0.4932406    0.1976909 -51.77  0.001621186    3.645    0.726
        64 -10.6383    195.0530    168.3488   8.5362593853e+01   8.9365717571e+00    0.3142049    0.2823185  51.01  0.001025194    1.204    0.169
        65  -9.8757    121.8181     98.8245   8.5940112362e+01   3.8818138131e+01    0.2118782    0.1844956 -83.23 0.0005305288    1.312    0.238
        66 -10.8983    245.0347     88.5093   5.7989708947e+01   1.2080442849e+01    0.2060773    0.1409734  57.95  0.001042821    1.620    0.383
        67  -9.6848     24.8850     82.3742   1.1240034133e+02   5.6621679402e+01     0.196782    0.1447086 -70.65 0.0003651892    1.210    0.174
        68  -9.6819    158.4702     80.4823   7.1384207479e+01   3.4149752254e+01    0.1545636    0.1538265 -11.74 9.997501e-05    1.006    0.006
        69  -9.2026    184.2468     77.5578   6.5132076366e+01   2.8263473196e+01    0.2249846    0.1409842  44.31 0.0009485103    1.685    0.406
        70  -9.0526     54.0000     65.4607   9.7817982035e+01   5.7484597173e+01    0.1707092     0.130715  27.22 -3.544822e-05    1.469    0.319
        71 -10.5082      1.6346     62.0855   1.1676573277e+02   6.2531184697e+01    0.2736412   0.08535814 -67.03   0.00123959    2.442    0.591
        72 -10.5114     13.4684     59.9583   1.1179963025e+02   6.2356776784e+01    0.2417409    0.1674959 -59.47  0.000623733    1.155    0.134
        73  -8.8876     73.3375     59.6579   8.8991125943e+01   5.5978668539e+01    0.1341026    0.1108429 -86.11 0.0007049963    1.767    0.434
        74 -15.8500     50.4078    200.4101   1.2110136282e+02   2.7194086597e+01     4.443482     2.072705  71.68   0.02178033    2.351    0.575
        75 -16.7830      5.9656    203.1676   1.2965484497e+02   3.1340103332e+01     2.567321    0.6967803 -67.05  0.005640229    3.229    0.690
        76 -14.8715      5.2970    248.5418   1.3175032751e+02   2.3127277971e+01    0.6826856    0.2745733  51.53  0.002974339    1.740    0.425
        77 -17.4650      8.3500    227.1695   1.3039804628e+02   2.6572779818e+01     1.685667     1.020342  76.17  0.007570506    1.192    0.161
        78 -10.5328     77.0585    234.8596   1.1902743472e+02   1.7113724498e+01    0.1828342    0.1372853  82.59 0.0004353446    1.229    0.186
        79 -10.9912     52.0392    250.2443   1.2447266431e+02   1.7697465097e+01    0.3755386    0.1067248  47.59            0    2.435    0.589
        80 -10.7346    147.5848     43.7514   6.2129127831e+01   4.3038197301e+01    0.2805984    0.2409837 -75.65  0.000406128    1.331    0.249
        81  -9.2336     37.2032     56.6057   1.0158372492e+02   6.1188725679e+01    0.1537251     0.114142  -3.09 0.0003758641    1.521    0.343
        82 -10.8156    189.6828     15.2402   4.6128986009e+01   3.5765848265e+01    0.2518337    0.1997718 -67.38 0.0008328608    1.254    0.202
        83 -10.2276    218.5258    223.4951   9.1071562051e+01  -3.7170765325e+00    0.3174956    0.1920815 -15.01   0.00167615    1.973    0.493
        84  -9.9706     71.8382    230.2544   1.1958396217e+02   1.8650524129e+01    0.2029206    0.1462032  61.32 0.0007929072    1.072    0.067
