#   1 NUMBER                 Running object number                                     
#   2 MAG_AUTO               Kron-like elliptical aperture magnitude                    [mag]
#   3 X_IMAGE                Object position along x                                    [pixel]
#   4 Y_IMAGE                Object position along y                                    [pixel]
#   5 X_WORLD                Barycenter position along world x axis                     [deg]
#   6 Y_WORLD                Barycenter position along world y axis                     [deg]
#   7 A_WORLD                Profile RMS along major axis (world units)                 [deg]
#   8 B_WORLD                Profile RMS along minor axis (world units)                 [deg]
#   9 THETA_WORLD            Position angle (CCW/world-x)                               [deg]
#  10 FWHM_WORLD             FWHM assuming a gaussian core                              [deg]
#  11 ELONGATION             A_IMAGE/B_IMAGE                                           
#  12 ELLIPTICITY            1 - B_IMAGE/A_IMAGE                                       
         1 -12.0072    180.7568     27.3231   7.0681616192e+01   3.6372593652e+01     1.547738    0.9299681  14.63   0.00628954    2.635    0.620
         2  -9.3377    234.6966      6.7746   5.9179113451e+01   2.4870336129e+01    0.3507235    0.2465266 -29.47  0.001283917    1.522    0.343
         3  -7.9258    206.9381      2.2255   6.0475676228e+01   3.2160154146e+01    0.1836389    0.1554394  86.66  0.000344282    1.036    0.035
         4  -8.2592    118.9107    235.8513   1.3147723911e+02   1.1906929078e+01    0.2173518    0.1376481  77.05  0.001173331    2.042    0.510
         5  -8.6591    143.2068    246.5884   1.2815580355e+02   6.3626016900e+00    0.2577232    0.1416732  28.42  0.001290257    2.109    0.526
         6 -10.1381    131.2728    249.6564   1.3069137414e+02   7.8113418078e+00    0.9075969    0.2225439  36.89  0.003037878    4.557    0.781
         7 -10.1052    121.0658    249.3846   1.3252055245e+02   9.4424721554e+00     0.754477    0.2249103  43.82  0.002646896    2.466    0.595
         8  -8.8159    107.7087    250.5356   1.3504579215e+02   1.1294782706e+01    0.3484143   0.09233667  39.89  0.001430127    3.076    0.675
         9 -14.0177     70.8078    213.8230   1.3853088384e+02   2.2985155556e+01     5.134487      3.05579  83.93   0.02903438    1.757    0.431
        10 -13.6755     31.6148    242.3636   1.4763505775e+02   2.2647415211e+01    0.8801481    0.8021349  -4.21   0.00484224    2.095    0.523
        11 -12.6474     36.8855    236.7157   1.4644260090e+02   2.3029686981e+01    0.4912293    0.2611732  51.98  0.002769887    1.414    0.293
        12 -13.8124     40.5995    247.7390   1.4644525634e+02   2.0721589049e+01     1.083242    0.6313111 -67.01  0.005353454    2.013    0.503
        13 -13.9167     44.6660    238.0377   1.4519138546e+02   2.1896804718e+01     1.504385    0.4961385  54.82  0.006674475    2.372    0.578
        14  -8.3182    103.6273    238.1487   1.3459117040e+02   1.3894034407e+01    0.1928292     0.124471  53.29 0.0004074125    1.212    0.175
        15 -13.2624      6.7785    247.3547   1.5180545215e+02   2.4389208518e+01     1.022331    0.4728797  56.09  0.007314014    1.487    0.327
        16  -7.4621    127.9850    234.0115   1.2954020234e+02   1.0751228815e+01    0.1488965    0.1180211  50.02  0.000476973    1.016    0.016
        17  -7.8152    135.5127    231.0735   1.2773929924e+02   9.9897999353e+00    0.1585761    0.1252985 -59.94 0.0005581385    1.573    0.364
        18  -9.2751    118.4613    230.8818   1.3100619468e+02   1.2797165275e+01    0.3105708    0.1712684  51.04  0.001721019    1.492    0.330
        19 -13.2583     21.6507    227.5623   1.4853671013e+02   2.6306528108e+01     1.764816    0.9316348  31.77  0.006559886    2.316    0.568
        20 -11.8058     11.3990    207.5430   1.4929739782e+02   3.1022432757e+01    0.4974705     0.407588  38.44  0.002042603    1.564    0.360
        21  -7.5172    168.2301    211.9984   1.1860310191e+02   7.3738619885e+00     0.228179    0.1282455  66.10  0.000874932    3.586    0.721
        22  -9.6741     27.7456    206.9848   1.4627074395e+02   2.9504799614e+01     0.203123     0.200049 -47.75  0.001275003    1.597    0.374
        23  -9.1947    198.9565    200.7165   1.1062776977e+02   3.5208501025e+00    0.3415141    0.2119479  31.31   0.00178218    1.442    0.307
        24 -11.3038     79.0938    196.9868   1.3513234760e+02   2.5125032315e+01    0.7334577    0.5735677 -75.70  0.003513986    1.300    0.231
        25  -8.9613     21.9072    199.1285   1.4687385760e+02   3.1636572669e+01    0.2247525    0.1374176  40.41 0.0008552637    1.643    0.391
        26  -9.4681      4.7645    207.9169   1.5049532578e+02   3.1560081697e+01    0.2153732    0.1731886 -82.22 0.0005934676    1.368    0.269
        27  -9.0467    192.3210    194.0967   1.1074075278e+02   5.7682976106e+00    0.3158593    0.2238231 -76.77  0.001425647    2.927    0.658
        28 -10.1023    177.2632    201.4044   1.1505271684e+02   7.4197822165e+00    0.2321057    0.2101177  32.77 0.0002455004    1.082    0.076
        29  -9.6037     44.7723    189.1140   1.4156541880e+02   3.1204604068e+01    0.3337558    0.2022553  40.83 0.0007925682    1.613    0.380
        30  -8.2332     40.1807    187.1786   1.4235410360e+02   3.2128025836e+01    0.1637419     0.139826  78.99 0.0003417057    1.133    0.117
        31  -7.4321     26.4910    190.5140   1.4540396861e+02   3.2900866798e+01    0.1148302   0.08714557  76.53 0.0002126523    1.003    0.003
        32  -8.2615     15.3687    188.5260   1.4746977799e+02   3.4381154454e+01    0.2468714     0.137006  72.41  0.001559141    1.502    0.334
        33  -7.8056    177.9841    186.7470   1.1230792400e+02   9.7170996103e+00     0.194567    0.1575241  37.52            0    1.082    0.075
        34  -8.0003    214.4709    184.5099   1.0460905103e+02   3.0841389313e+00    0.1375308    0.1173349  18.47 9.545572e-05    1.001    0.001
        35  -9.4279     88.1246    181.9839   1.3133761219e+02   2.6880536681e+01    0.3285756    0.2311872 -42.78  0.001037628    1.881    0.468
        36  -9.3441     91.0703    176.4236   1.2990838312e+02   2.7604933718e+01    0.3261999    0.2218139 -47.45 0.0009857228    1.762    0.432
        37  -8.0774    200.8061    181.8333   1.0674139981e+02   6.0968902472e+00    0.1845111    0.1622601  54.50 0.0005681633    1.325    0.245
        38 -12.6223     24.0580    238.4923   1.4868271042e+02   2.4130903282e+01    0.7965147    0.4565417  30.62  0.003801562    2.304    0.566
        39  -9.0124     24.4240    178.1440   1.4491500370e+02   3.5660185223e+01    0.4161444    0.2340177  22.33  0.002361105    2.537    0.606
        40  -9.1882     22.8062    174.3394   1.4496380300e+02   3.6616199703e+01    0.2699904    0.1619249 -69.67  0.001693416    1.521    0.343
        41  -8.8591     29.1384    171.1078   1.4333791303e+02   3.6688657380e+01    0.3993566    0.1561643  29.36    0.0014428    2.996    0.666
        42  -9.0103     96.9364    166.8240   1.2710791320e+02   2.8740425441e+01    0.3141635     0.208315 -65.76 0.0005058025    1.551    0.355
        43  -9.7539     19.2737    167.2714   1.4517267483e+02   3.8445195012e+01    0.2902858    0.1870418  82.38  0.001877648    1.292    0.226
        44  -7.6487      4.4747    166.5081   1.4827986111e+02   3.9848892658e+01    0.1592107    0.1101597   4.10  0.001028207    2.438    0.590
        45 -10.6952     86.0232    162.2476   1.2904046759e+02   3.1482874437e+01    0.3811606    0.3419262 -55.75  0.001010944    1.249    0.199
        46  -7.3178     52.7856    165.1823   1.3739265345e+02   3.5386187801e+01    0.1559568    0.1357736 -59.99 0.0003570745    1.317    0.240
        47  -9.0253    101.4331    159.3209   1.2479794044e+02   2.9639217047e+01    0.5396346    0.2927646 -41.00  0.001913365    2.440    0.590
        48  -8.8367     78.5833    161.1399   1.3068991557e+02   3.2847456606e+01    0.2434073    0.2345369  52.68  0.001556923    1.200    0.167
        49  -8.3961     21.6118    157.2194   1.4381732763e+02   4.0409763973e+01    0.1960729    0.1552046  46.23   0.00137019    1.364    0.267
        50  -7.9485      5.9854    154.9755   1.4716663701e+02   4.2181484735e+01    0.1326554     0.104873  82.88 0.0003321514    1.056    0.053
        51 -10.8347     68.5985    136.6200   1.2944689836e+02   3.9867558341e+01    0.7484921    0.4180271  89.36  0.003150701    2.586    0.613
        52  -9.6425      8.1529    147.7583   1.4612576798e+02   4.3581190229e+01    0.3541444    0.1405696 -71.25 0.0009799774    1.984    0.496
        53  -8.9725     54.2591    147.5194   1.3483957430e+02   3.9187069005e+01     0.279787    0.1457001 -83.31  0.001292093    2.145    0.534
        54  -8.2474    133.0685    145.8973   1.1441572823e+02   2.6688758131e+01     0.366622    0.2749021  63.18  0.001769418    1.455    0.313
        55  -8.5444    123.0457    147.0022   1.1713262389e+02   2.8429970720e+01    0.2182217    0.2023662  64.78 0.0003326047    1.034    0.033
        56  -8.3471    109.9004    144.3971   1.1994619072e+02   3.1475384624e+01    0.2854926    0.1854441  27.36  0.001282736    1.881    0.468
        57  -8.1413    100.0632    143.9870   1.2240857580e+02   3.3308935984e+01     0.211352    0.1980226  83.29 0.0003503809    1.010    0.010
        58  -8.3724    188.1857    138.1476   9.9976346305e+01   1.6307191789e+01     0.220213    0.1937128  14.14  0.000296499    1.156    0.135
        59  -7.5910     80.1316    136.1283   1.2624584039e+02   3.8329535794e+01    0.1970894    0.1546321  74.66 0.0004871124    1.342    0.255
        60  -7.7422    117.0248    133.0605   1.1574599397e+02   3.2676448824e+01    0.2225592    0.2094346 -13.67 0.0006999274    1.196    0.164
        61  -8.5047    120.7710    131.7848   1.1448312239e+02   3.2229048333e+01    0.2532598    0.2052005  46.00 0.0004225885    1.205    0.170
        62 -10.3369    234.4479    130.7356   8.9406775817e+01   7.5251174217e+00    0.2731077    0.2526076  40.25 0.0002999964    1.164    0.141
        63  -9.3460     69.3256    151.9792   1.3165068865e+02   3.6229906769e+01     0.276734    0.2339022 -68.64  0.001121667    1.153    0.132
        64  -7.5430    160.3896    126.7715   1.0342862507e+02   2.4804649173e+01    0.2132444    0.1493876 -29.74 0.0005894435    1.607    0.378
        65 -10.9352     68.3592    144.6595   1.3079734011e+02   3.8039442213e+01    0.7317069    0.4215124  64.74  0.003428725    2.074    0.518
        66  -7.5958    169.0242    114.8464   9.8425780220e+01   2.5168899079e+01     0.259781     0.185931  80.04   0.00106851    2.029    0.507
        67  -8.0605    238.1118    111.6548   8.4327547568e+01   9.7599828376e+00    0.2131648    0.1830048  80.69  0.001060305    1.443    0.307
        68  -8.0755    196.4913    107.6262   9.0727066468e+01   1.9939785258e+01    0.2613451    0.2368346  52.93  0.000715836    1.116    0.104
        69 -12.6889     50.3919    219.5246   1.4291168986e+02   2.4543825252e+01    0.9681278    0.6519908  59.03  0.003571931    1.156    0.135
        70  -7.4073    205.4748     89.8159   8.4362544552e+01   2.0829657714e+01    0.1961074    0.1473932 -16.03 0.0009125128    1.505    0.335
        71  -7.6824    189.3100     68.0655   8.1279969803e+01   2.8460742394e+01    0.2031866    0.1942028 -42.12 0.0003480024    1.064    0.060
        72  -9.8428    244.7743     55.6973   6.9867749666e+01   1.6587858858e+01    0.2796951    0.2582842 -39.92 0.0006687525    1.085    0.078
        73  -8.5450    249.0796     51.3766   6.8347903232e+01   1.6193072434e+01    0.2449691    0.1944059 -26.36 0.0006387807    1.306    0.234
        74  -7.2629    127.9827     51.2547   8.9249078806e+01   4.6786214030e+01    0.1902685    0.1252581  51.98  0.000350495    1.465    0.318
        75 -10.8660    167.0987     43.7765   7.8063485057e+01   3.7914374222e+01    0.5761715    0.4666909   8.14  0.002464509    1.458    0.314
        76  -9.1423    161.3902     52.7354   8.2027037993e+01   3.8128624434e+01    0.2872905     0.192205  70.80  0.001258242    1.635    0.388
        77  -7.8784    185.9756     41.8397   7.4204629839e+01   3.3169452256e+01    0.2175252    0.1874033  41.20 0.0002462061    1.217    0.178
        78  -9.2088    151.7607    244.4694   1.2631855568e+02   5.2825008469e+00     0.359403   0.09713914  38.65  0.001369872    3.154    0.683
        79  -7.1042    229.3401     37.6923   6.7219824387e+01   2.2606504539e+01    0.1491986   0.09469157 -64.99 7.135305e-06    1.685    0.407
        80  -9.3531    140.2729     32.5784   7.9713278955e+01   4.6396507413e+01    0.2555241    0.2455086  53.74 0.0002360188    1.059    0.056
        81  -8.6770    176.2846    239.1527   1.2105836268e+02   1.9790099212e+00    0.2744005    0.1127149  53.50  0.001089602    3.365    0.703
