#   1 NUMBER                 Running object number                                     
#   2 MAG_AUTO               Kron-like elliptical aperture magnitude                    [mag]
#   3 X_IMAGE                Object position along x                                    [pixel]
#   4 Y_IMAGE                Object position along y                                    [pixel]
#   5 X_WORLD                Barycenter position along world x axis                     [deg]
#   6 Y_WORLD                Barycenter position along world y axis                     [deg]
#   7 A_WORLD                Profile RMS along major axis (world units)                 [deg]
#   8 B_WORLD                Profile RMS along minor axis (world units)                 [deg]
#   9 THETA_WORLD            Position angle (CCW/world-x)                               [deg]
#  10 FWHM_WORLD             FWHM assuming a gaussian core                              [deg]
#  11 ELONGATION             A_IMAGE/B_IMAGE                                           
#  12 ELLIPTICITY            1 - B_IMAGE/A_IMAGE                                       
         1 -10.8171     75.0918     17.2924   5.8788324980e+01   6.2021817077e+01    0.2674065    0.2440493  22.82 0.0003704488    1.144    0.126
         2 -11.7317     90.5214    225.6910   1.0626687712e+02   1.5347676160e+01    0.3984845     0.223326 -53.79   0.00203124    1.995    0.499
         3 -11.0654     97.0211    226.6935   1.0497292048e+02   1.4185936542e+01    0.3594102     0.157112  28.97  0.001483874    2.618    0.618
         4 -11.5171     80.4683    217.5356   1.0753078396e+02   1.8498632435e+01    0.3909735    0.1778608  34.74  0.001769324    2.090    0.522
         5  -9.4870     72.3061    217.3418   1.0931525831e+02   1.9679077705e+01    0.1219212    0.1004423 -29.28 0.0007042027    1.685    0.407
         6 -10.1927     88.4123    213.7716   1.0530044911e+02   1.8153295604e+01    0.1815365    0.1208993 -52.85 0.0009559045    1.661    0.398
         7  -9.1602    119.6603    213.3109   9.8149881190e+01   1.3387578704e+01    0.1428519   0.09975187  64.30 0.0004127729    1.692    0.409
         8  -9.3964    111.4351    191.7924   9.6754892920e+01   1.9372000309e+01    0.2029437    0.1315067 -44.51 0.0009535592    1.697    0.411
         9  -8.9267    118.6720    184.3237   9.3732418345e+01   1.9821552208e+01    0.1520378    0.1117548  71.11 0.0002961195    1.694    0.410
        10  -9.7388    132.5347    182.4844   9.0023475491e+01   1.7775284224e+01    0.1458508    0.1408264  30.10  0.000105116    1.008    0.008
        11  -9.5094     92.4755    181.5086   9.9796556213e+01   2.4829869913e+01    0.1418549    0.1349762  75.44 0.0003375738    1.016    0.016
        12  -9.9895     80.0029    174.0324   1.0181821127e+02   2.8532468442e+01    0.2403692      0.16242  68.16  0.001134838    1.709    0.415
        13 -10.5265    109.2585    172.2561   9.3943590255e+01   2.4243478575e+01    0.2722608    0.1862603 -52.21  0.001158075    1.472    0.321
        14 -11.2022    148.5015    167.7426   8.3283236115e+01   1.8041861288e+01    0.4576099    0.1868772 -43.55  0.001627034    2.510    0.602
        15  -9.4790    134.6842    167.6734   8.6633902074e+01   2.0693823114e+01    0.1554666    0.1194309  -9.77  0.000416051    1.672    0.402
        16  -9.5024    124.4905    166.4792   8.8952151275e+01   2.2870858053e+01     0.149124    0.1469743  51.63 0.0002325885    1.008    0.008
        17  -9.9410     86.8059    160.2019   9.7703748128e+01   3.0878317441e+01    0.2616352    0.1508415  71.65 0.0009558715    2.862    0.651
        18  -9.1991    164.3479    158.3225   7.7553755992e+01   1.6965794958e+01     0.160048    0.1186022  -1.71 0.0007049346    1.742    0.426
        19  -9.1067    113.3272    158.6565   9.0280848613e+01   2.6753500553e+01    0.1595996    0.1189742  77.21 -2.666409e-05    1.743    0.426
        20 -10.0408    127.8004    153.5999   8.5441395790e+01   2.5242095768e+01    0.2275561    0.1421157  49.37  0.000957515    1.698    0.411
        21  -9.9356    154.2161    168.5866   8.2103713870e+01   1.6757411050e+01     0.222617    0.1415794  28.43 0.0009602805    1.721    0.419
        22  -9.6128    179.0062    141.5004   7.0469751268e+01   1.7491410357e+01     0.215268    0.1307076  20.47  0.000809924    2.485    0.598
        23  -9.7492    115.4957    134.9904   8.4553983120e+01   3.2001794418e+01    0.2321358    0.1281645 -30.14    0.0008105    2.597    0.615
        24  -9.0124     53.6818    113.6601   9.8565964942e+01   4.7176908752e+01    0.1515999   0.09889882 -32.43 0.0006248619    1.710    0.415
        25  -9.8137     96.5323    111.4948   8.4269760255e+01   4.1123340321e+01    0.1534069    0.1453986 -30.27 9.778709e-05    1.023    0.023
        26  -8.8675     77.6548    105.3214   8.8650788449e+01   4.5804469230e+01    0.1500279    0.1175312  77.28 0.0007049827    1.732    0.423
        27  -9.4441    114.3057     94.3570   7.4223976638e+01   4.1452572150e+01    0.1609345    0.1209699  -4.96  0.000704065    1.722    0.419
        28  -9.9533     55.0006     90.4924   9.2596749270e+01   5.2525390894e+01    0.1908333    0.1125899  53.68 0.0006586572    2.486    0.598
        29  -9.7986    112.5079     87.4842   7.2702796133e+01   4.3252417649e+01     0.152179    0.1462332  -3.19 -1.88056e-05    1.010    0.010
        30  -9.8753     45.8125     75.3846   9.1884909067e+01   5.7025812791e+01    0.1863425    0.1242169   7.46 0.0008379092    1.723    0.420
        31 -10.6161     93.4497     71.0225   7.3303335176e+01   5.0365744492e+01    0.3659568    0.1401896 -41.45  0.001320863    2.591    0.614
        32 -11.1415    101.8631     70.3696   7.0461259304e+01   4.8800349011e+01    0.3348483    0.2599638  11.50  0.001297726    1.458    0.314
        33 -10.3290     58.8406     61.9592   8.2511901286e+01   5.8053068358e+01    0.2395875    0.1414915 -21.30  0.001087956    2.019    0.505
        34 -11.2078     94.0210     52.8824   6.6845680438e+01   5.3441139634e+01     0.427055    0.2894984  21.93    0.0013424    1.658    0.397
        35 -11.5389     95.8471     45.0367   6.3421440579e+01   5.4275738804e+01    0.3981948    0.3339853 -63.22  0.002195478    1.583    0.368
        36  -9.1217     80.3200     47.3238   6.9262033980e+01   5.7018096828e+01    0.1444907    0.1000741   7.61 0.0007045635    1.676    0.403
        37 -10.9630     96.1852     35.7648   5.9845556643e+01   5.5498832962e+01    0.4005933    0.1566966 -41.09  0.001386424    2.976    0.664
        38 -10.9169     82.6464     23.0470   5.8842943896e+01   5.9877864365e+01    0.3717123    0.1845251  40.24  0.001769962    1.818    0.450
