#   1 NUMBER                 Running object number                                     
#   2 MAG_AUTO               Kron-like elliptical aperture magnitude                    [mag]
#   3 X_IMAGE                Object position along x                                    [pixel]
#   4 Y_IMAGE                Object position along y                                    [pixel]
#   5 X_WORLD                Barycenter position along world x axis                     [deg]
#   6 Y_WORLD                Barycenter position along world y axis                     [deg]
#   7 A_WORLD                Profile RMS along major axis (world units)                 [deg]
#   8 B_WORLD                Profile RMS along minor axis (world units)                 [deg]
#   9 THETA_WORLD            Position angle (CCW/world-x)                               [deg]
#  10 FWHM_WORLD             FWHM assuming a gaussian core                              [deg]
#  11 ELONGATION             A_IMAGE/B_IMAGE                                           
#  12 ELLIPTICITY            1 - B_IMAGE/A_IMAGE                                       
         1 -16.5350    186.6828     87.0063   6.6219005614e+01   2.6083477077e+01     11.78637     3.754811 -47.27   0.03327654    3.827    0.739
         2 -18.5598    236.5576     36.8673   4.5467589425e+01   2.1728273632e+01     9.475004     6.894366  68.41   0.05300982    1.410    0.291
         3 -15.3662    197.4676     69.9273   5.9490194826e+01   2.6352509482e+01     2.365571     1.697669  68.10   0.01124703    1.481    0.325
         4 -16.9225    248.4703     76.8248   5.3685844086e+01   1.3361464219e+01     11.03651     2.928512 -26.13   0.01911533   13.135    0.924
         5 -13.6753    104.8539     25.1287   6.4524702459e+01   5.5716690519e+01    0.7323988    0.4365791 -51.62  0.003266079    2.403    0.584
         6 -11.6307    206.5208     16.1490   4.3443083243e+01   3.1491602068e+01    0.3767247    0.2381071  -4.50  0.001764931    2.324    0.570
         7 -11.3648    204.3179     12.0498   4.2592661916e+01   3.2487553718e+01    0.2285693    0.1917683 -67.49 0.0005804766    1.108    0.098
         8 -10.5411    155.9335     11.8544   4.8796400407e+01   4.4842596700e+01    0.4528791    0.1888343  -8.99  0.001541236    3.957    0.747
         9 -12.6793     48.2235      9.2381   7.6929871316e+01   6.8147590052e+01    0.3049685    0.1920951  11.82  0.001764121    1.601    0.375
        10 -10.6947    151.7032      8.9316   4.8497352764e+01   4.6203385432e+01    0.2485728    0.1768982 -45.55  0.001277874    1.541    0.351
        11 -11.6769     92.3570      6.4477   6.0063989155e+01   6.0485631720e+01      0.25377    0.1595555 -21.21  0.001364509    1.628    0.386
        12 -10.9411    197.1571      2.4548   4.0769868794e+01   3.5248718161e+01    0.1960046     0.164341  -6.64 0.0006448348    1.476    0.322
        13 -12.7174     58.2865      2.7014   6.9450736278e+01   6.7343628110e+01    0.4964848    0.1613597  38.58   0.00209159    2.918    0.657
        14 -11.9070    211.0034      1.7325   3.9264841260e+01   3.1898022782e+01    0.2083488    0.1604999  65.96 0.0008821341    1.278    0.218
        15 -12.3725    159.1491      2.1457   4.5171687232e+01   4.4924367529e+01    0.3146258    0.2486198  27.33  0.001783581    1.419    0.295
        16 -12.0623    181.8883    149.3349   8.2968026744e+01   1.5197295326e+01    0.3222058     0.213968 -37.15 0.0006295464    1.537    0.349
        17 -12.0280    172.4618    149.7860   8.5110479109e+01   1.7097347167e+01    0.3284203    0.2946588  80.15  0.001731171    1.296    0.228
        18 -10.9448    134.1234    147.6468   9.3544610192e+01   2.5455360871e+01    0.5227387    0.2048299 -54.63  0.001777524    2.861    0.650
        19 -10.9241    132.6706    140.1447   9.2289465946e+01   2.7414347463e+01    0.7199817    0.2515926 -56.65  0.002104075    3.844    0.740
        20 -11.0939    144.6079    146.7591   9.0829545491e+01   2.3539521539e+01    0.4553733    0.2984067  69.99  0.001867734    2.186    0.543
        21 -12.3203    199.6487    163.1450   8.2307260556e+01   8.9778751516e+00    0.5459319    0.3229629 -66.50  0.001861848    4.068    0.754
        22 -10.5108    166.0076    134.6499   8.3078455570e+01   2.1564695489e+01    0.2174734     0.196288  41.54 0.0005932316    1.099    0.090
        23 -11.3885    136.0000    129.9666   8.9142618253e+01   2.9008445436e+01    0.7799163    0.1756878 -47.66  0.002028087    4.444    0.775
        24 -10.9810    135.0816    121.0935   8.7231865690e+01   3.1174673826e+01    0.5185122     0.200728 -48.96  0.001558438    2.616    0.618
        25 -12.3006    134.6789    107.6602   8.3875479741e+01   3.4217238271e+01     1.607036    0.2605762 -45.35   0.00349488    6.104    0.836
        26 -11.4391    132.4711     97.4458   8.1644018821e+01   3.6896845509e+01    0.5112785    0.2786056 -39.87  0.001381148    1.839    0.456
        27  -9.7746     98.2055    132.3877   9.9562083652e+01   3.5643891966e+01    0.1890745    0.1343534  51.86  0.000293606    1.467    0.318
        28 -12.7815    161.2126    128.2641   8.2640000907e+01   2.3948669605e+01    0.6233506     0.451647  41.33  0.001826796    1.390    0.280
        29 -10.9129      7.2079    128.9840   1.2358466104e+02   4.7152080915e+01    0.1717148    0.1472653  87.60 0.0003078727    1.142    0.124
        30 -10.2762    151.7898    121.0323   8.3071468487e+01   2.7567344269e+01    0.2657753    0.1869375 -14.35 0.0006529708    2.017    0.504
        31 -12.0198    178.1740    109.7269   7.4124057739e+01   2.3840349998e+01    0.4350239    0.2673491 -43.42  0.001099968    1.611    0.379
        32 -11.0639    127.5215    104.9715   8.5036847192e+01   3.6339613498e+01    0.4499533    0.2565179 -48.18  0.001339289    1.735    0.424
        33 -11.8852    122.6132    102.9107   8.5803409624e+01   3.7822614087e+01     0.404258    0.2669138  29.21  0.001555169    1.815    0.449
        34 -10.4863    140.5054    105.2019   8.1717430151e+01   3.3465904364e+01     0.247749    0.2170399  10.80 0.0007158148    1.293    0.226
        35 -11.0486    112.4677    104.2816   8.8984708773e+01   3.9566926948e+01    0.2852819    0.2301647 -74.66 0.0009212585    1.442    0.307
        36 -13.0477    154.1379     96.7262   7.6009397794e+01   3.2101629111e+01    0.9334744    0.8978363  85.33    0.0030126    1.088    0.081
        37 -13.1013    151.7468     87.2362   7.3845858786e+01   3.4554462568e+01    0.4645915    0.3387945 -52.35  0.001336608    1.461    0.315
        38 -13.4073    167.8321     87.8116   7.0342331949e+01   3.0556508014e+01    0.9504408    0.7209631  -0.20  0.001880558    1.740    0.425
        39 -12.6074    158.9198     85.8292   7.1758634090e+01   3.3102115364e+01    0.6392342    0.4214324 -37.23  0.001655274    1.510    0.338
        40 -12.4777    163.0479     83.6473   7.0189274730e+01   3.2510013862e+01       0.4793    0.4087441 -88.11  0.001377648    1.362    0.266
        41 -11.3393    145.3880    101.9678   7.9603940929e+01   3.3050053282e+01    0.3503789    0.3079472   9.75 0.0006763252    1.282    0.220
        42 -10.8758    122.1657     97.9013   8.4544322711e+01   3.9012043782e+01    0.2407975    0.2137904 -84.10   0.00073519    1.280    0.219
        43  -9.8626    113.4880     95.0132   8.6160269996e+01   4.1422868803e+01    0.2250753    0.1466011 -45.44 0.0003356025    1.481    0.325
        44 -11.7594    138.6555     91.8294   7.8427079421e+01   3.6686743710e+01    0.3503765    0.3096403 -85.97  0.001097014    1.303    0.233
        45 -10.8600    128.9181     84.7174   7.8869069701e+01   4.0330609798e+01    0.4873194    0.2061691 -53.79   0.00150638    3.321    0.699
        46 -14.3181     68.2957    144.7824   1.0976870584e+02   3.7259798257e+01     1.494091     1.035402  60.99  0.003556962    1.506    0.336
        47 -10.1870     80.9503     81.5311   9.2242735796e+01   5.0294419962e+01    0.1984567    0.1429043  33.46 0.0003419792    1.508    0.337
        48 -11.3945     87.4627     76.0170   8.8469304855e+01   5.0394478758e+01    0.8588085    0.3233319 -56.73  0.002575951    4.111    0.757
        49 -10.5161    158.6688     73.9989   6.8284699543e+01   3.5361629539e+01    0.2403343    0.2097152  55.51 0.0004392871    1.150    0.131
        50 -11.2268    149.4810     76.4575   7.1147438540e+01   3.7157463835e+01    0.2867076    0.2467216  39.58 0.0006242164    1.178    0.151
        51 -12.3302    153.6783     75.2960   6.9810856515e+01   3.6352132090e+01    0.4256954    0.3397361  79.87  0.001127554    1.501    0.334
        52 -13.1612     37.8838    161.7804   1.1947372336e+02   3.6925091932e+01    0.7386983    0.4565225  76.17  0.004175295    1.554    0.357
        53  -9.9210    247.2063    174.1297   7.5793980805e+01  -1.5867366503e+00    0.1578652    0.1499838 -12.08 0.0003118058    1.290    0.225
        54 -13.3309     50.8936    162.6168   1.1652560620e+02   3.5276974066e+01    0.3968264     0.335545 -40.69  0.001217908    1.541    0.351
        55 -11.0078    184.1700     65.8804   6.0696094010e+01   3.0351542259e+01    0.3245675    0.2367761 -34.65 0.0007160435    1.365    0.267
        56 -14.5686     58.1568    157.7617   1.1418330662e+02   3.5518089749e+01    0.9205071    0.7673015  78.87  0.002991525    1.076    0.071
        57 -12.0230    126.2512     48.3626   6.7619888531e+01   4.7562244890e+01    0.3007599    0.2620679  37.49  0.001200005    1.111    0.100
        58 -11.7265    190.0482     35.5320   5.0903997880e+01   3.3321859223e+01    0.2712109    0.2037066 -29.51 0.0006054124    1.394    0.283
        59 -11.6392    102.6764     34.0728   6.8718169916e+01   5.4983173752e+01    0.1995243    0.1742688  -9.84 0.0006799547    1.105    0.095
        60 -11.8347    160.1583     30.0064   5.4022441567e+01   4.1730213680e+01    0.5009584    0.3275881 -33.67  0.001399148    1.582    0.368
        61 -14.2494      9.3025    192.8801   1.2795981410e+02   3.2940886561e+01     1.187449    0.5588921  64.53  0.006992607    1.807    0.447
        62 -10.3838     95.3414     25.2985   6.7329244873e+01   5.7721550840e+01    0.1451932    0.0952903  20.35 0.0003736307    1.667    0.400
        63 -11.3330    159.2967     22.1793   5.1626676642e+01   4.2882608102e+01    0.3310769    0.2438792 -72.12  0.001072772    1.579    0.367
        64 -13.5374      4.8937    175.5788   1.2777325174e+02   3.6942512160e+01    0.8672812    0.5322931 -88.12  0.005766728    1.252    0.201
        65 -13.9493    165.0745     74.0679   6.6906802702e+01   3.3760187025e+01    0.8455099    0.5677072 -25.60  0.001593232    1.640    0.390
        66 -11.0093     39.6076     18.2014   8.5152452025e+01   6.8044270993e+01    0.1800248   0.09318101 -28.55 0.0007057667    1.745    0.427
        67 -13.0629     45.5799    172.6150   1.1885180718e+02   3.3623873304e+01    0.8931516     0.448192  69.64   0.00430944    2.208    0.547
        68 -12.3882    246.6142    162.8022   7.3557125338e+01   1.9424292271e-01    0.5992667    0.3856539  -3.85  0.003017431    1.802    0.445
        69 -10.7014    202.1604    248.1705   9.6851525241e+01  -4.3711449329e+00    0.1738859    0.1278133  22.22 0.0003561139    1.136    0.120
        70 -10.3856     94.0075     30.9897   7.0083560525e+01   5.7222267920e+01     0.168236    0.1476074  -5.35 0.0004114871    1.067    0.063
        71 -13.6749     64.2914    153.4098   1.1207937378e+02   3.5751402502e+01    0.6303371    0.4141863  75.46  0.001437098    1.640    0.390
        72 -11.4859    109.5668    224.1291   1.1112593277e+02   1.4092749881e+01    0.2175384    0.1341725  39.76  0.001227943    1.465    0.318
        73 -13.1936    192.7328    194.6938   8.9927097197e+01   4.8741029477e+00     1.084187     0.586306 -64.46  0.003328947    6.102    0.836
        74 -12.6675    192.4594    152.9716   8.1562181854e+01   1.2293232136e+01    0.4325065    0.2391525 -36.29  0.001617388    1.849    0.459
        75 -12.6978    189.6912    148.6728   8.1175994685e+01   1.3679671995e+01    0.4220666    0.3090036 -76.68  0.001407228    2.177    0.541
        76 -15.0251     24.1639    178.9116   1.2405359164e+02   3.4500277228e+01    0.9672675      0.87787  39.05  0.004899209    1.450    0.311
