#   1 NUMBER                 Running object number                                     
#   2 MAG_AUTO               Kron-like elliptical aperture magnitude                    [mag]
#   3 X_IMAGE                Object position along x                                    [pixel]
#   4 Y_IMAGE                Object position along y                                    [pixel]
#   5 X_WORLD                Barycenter position along world x axis                     [deg]
#   6 Y_WORLD                Barycenter position along world y axis                     [deg]
#   7 A_WORLD                Profile RMS along major axis (world units)                 [deg]
#   8 B_WORLD                Profile RMS along minor axis (world units)                 [deg]
#   9 THETA_WORLD            Position angle (CCW/world-x)                               [deg]
#  10 FWHM_WORLD             FWHM assuming a gaussian core                              [deg]
#  11 ELONGATION             A_IMAGE/B_IMAGE                                           
#  12 ELLIPTICITY            1 - B_IMAGE/A_IMAGE                                       
         1  99.0000     30.3413     20.6102   5.9292740813e+01   6.8457491284e+01    0.9046237    0.4627301 -34.69  0.005142979    1.654    0.395
         2 -10.1133     76.5748     12.3882   3.6727013498e+01   6.2708885652e+01     1.126337    0.5357515  40.01  0.004271959    1.886    0.470
         3 -12.5403     70.4274      3.4743   3.4725306133e+01   6.4768367801e+01     1.908863    0.5017421  48.12  0.007552367    3.174    0.685
         4 -14.4820     10.0222     68.0533   8.2863048754e+01   6.0998894398e+01     1.990763     1.391774  10.47    0.0131126    1.731    0.422
         5  -9.0813     39.9504     22.1191   5.5502868043e+01   6.7135378165e+01     2.158843     1.001035   7.98  0.007832055    4.770    0.790
         6 -14.0535     11.0298     35.7461   7.4135810651e+01   6.7461604079e+01     1.683581     1.385827 -51.33   0.01237106    1.259    0.206
         7 -13.8113     79.3664     44.8860   4.9121841698e+01   5.7700070023e+01     1.524259     1.055197  27.75  0.008176786    1.449    0.310
         8 -13.6553     57.6699     33.1905   5.2646369764e+01   6.3060636041e+01     1.995164     1.185819  42.43    0.0102863    1.931    0.482
         9 -14.4101     49.9144     49.1019   6.1747795769e+01   6.1350868299e+01     3.650736    0.9304424 -38.91   0.01180368    4.248    0.765
        10 -13.0955     72.5837     24.7586   4.3479718250e+01   6.1911965343e+01    0.4531975    0.3541062  43.74 0.0006109832    1.394    0.283
        11 -10.6626     79.8623     22.0543   3.9817568942e+01   6.0951943267e+01     1.553154    0.5693999  57.44  0.003679939    5.078    0.803
        12 -12.5658    219.5498     29.3084   1.4516102529e+01   2.6875882483e+01     1.157575     0.570073 -86.56  0.004550802    2.685    0.627
        13 -12.4402    221.8400     40.3975   1.6959342245e+01   2.4872903413e+01     1.016575    0.4896953 -55.09  0.004279518    2.193    0.544
        14 -11.3358    193.7785     18.2307   1.4697624804e+01   3.4532785779e+01    0.5656004    0.3526456  37.00  0.001602547    2.121    0.529
        15 -11.7481    197.7763     30.3159   1.7404366400e+01   3.2090524955e+01      1.48323    0.9537166 -56.78  0.007383869    1.592    0.372
        16 -12.4639    190.5957     40.0361   2.1042110644e+01   3.2628010511e+01    0.8176492    0.4779262  88.16  0.001624695    2.125    0.529
        17 -13.2244     54.6982     21.9263   4.9091421236e+01   6.5180208693e+01     1.166564    0.7974132  30.09  0.005703696    1.417    0.294
        18 -12.9136    226.4692     22.3732   1.2130604293e+01   2.6093115685e+01    0.5877495    0.5252826  17.80  0.001824556    1.532    0.347
        19 -11.2635    201.4547     20.3620   1.4338078065e+01   3.2377288424e+01      0.28781    0.2692554   1.33 0.0006031452    1.339    0.253
        20 -10.2918    138.9186     17.7735   2.2983320794e+01   4.8396611418e+01     0.345266    0.2034335 -15.83  0.001516296    2.033    0.508
        21 -11.7085    236.0270      2.7298   6.8567246514e+00   2.6125491125e+01    0.2688712     0.185989 -81.14 0.0002232459    1.245    0.196
        22 -12.7702    249.4573     11.6031   7.7259506207e+00   2.2165188254e+01    0.5052028    0.1857717 -41.73    0.0023629    2.243    0.554
        23 -13.6604    243.7441      9.2816   7.6739743525e+00   2.3682482669e+01     1.130217    0.4872216 -73.81  0.004851139    2.785    0.641
        24  -9.6299    150.4702     13.5054   1.9505555147e+01   4.5968317852e+01    0.2479731    0.2280289 -23.48 0.0009412974    1.225    0.183
        25 -10.9079    146.3011      8.1162   1.8459582374e+01   4.7527459054e+01    0.4723097     0.340359 -40.61  0.002613614    1.545    0.353
        26 -10.9302    154.8070     13.2123   1.8702054306e+01   4.4910096266e+01    0.3689059    0.2830711  23.32  0.001197969    1.534    0.348
        27 -10.2003    220.9698      7.6691   9.2130696364e+00   2.9070023922e+01    0.2778485    0.2253547  78.55 0.0007632028    1.160    0.138
        28 -11.7952    223.7337     12.8684   1.0172199703e+01   2.7846409290e+01    0.3801839    0.2952281 -69.59 0.0009487652    1.125    0.111
        29 -10.4643    218.9083     11.4916   1.0300540600e+01   2.9140758438e+01    0.3118604    0.1763443 -76.58  0.001540993    1.827    0.453
        30 -11.0697    102.0207      4.8408   2.6209007430e+01   5.8263770688e+01    0.5367087    0.1912133  45.73  0.002256501    2.344    0.573
        31 -10.5944    103.0314     14.9772   3.0012884428e+01   5.7063322589e+01    0.2446942    0.1712607  25.08 0.0003477758    1.419    0.295
        32 -12.3409    101.9437     10.5999   2.8546328997e+01   5.7744550553e+01    0.2450813    0.2300547  19.39 0.0004062302    1.121    0.108
        33  -9.5005     35.8491     14.5347   5.3980717867e+01   6.8740736686e+01    0.2643155    0.1547578  42.05  0.001085183    2.259    0.557
        34 -10.3047     92.5188     13.7871   3.2409067123e+01   5.9420314901e+01    0.3317195    0.1991057  16.46  0.001644885    1.935    0.483
        35 -10.7747    131.3075     11.2422   2.2207668849e+01   5.0909566662e+01    0.3941934    0.2211573  70.29  0.001211887    1.811    0.448
        36  -9.4645    123.3836     11.7924   2.4010591631e+01   5.2750047262e+01    0.2285168    0.1297926  -1.81 0.0004179874    2.348    0.574
        37  -9.4349    124.5290      8.4969   2.2579694482e+01   5.2789874541e+01    0.1328775    0.1188759  54.62 0.0001290576    1.051    0.049
        38 -11.7687    116.1619      9.4279   2.4697483972e+01   5.4662832789e+01    0.4041706    0.2538393 -13.42 0.0005949584    1.804    0.446
        39  -9.6902     88.5054     11.2778   3.2519224503e+01   6.0503658707e+01    0.2067635    0.1646256 -38.22 0.0006467817    1.518    0.341
        40 -10.5695     84.7165      7.4391   3.1988919493e+01   6.1650668368e+01    0.3642442    0.2171116 -23.53  0.001602864    1.744    0.427
        41 -11.7725     86.6325      1.7207   2.8941801972e+01   6.1792150104e+01    0.5123711    0.1276283  49.03  0.001372951    2.992    0.666
        42 -12.3684    173.6607      4.3269   1.3364803221e+01   4.1020623328e+01    0.4548832    0.2355363 -18.53  0.001210553    2.412    0.585
        43  -9.6182     45.1401     10.1920   4.7724792716e+01   6.8117396043e+01    0.1423889    0.1194721 -12.33 0.0009112887    1.205    0.170
        44  -9.4774    227.5889      9.4905   9.0481175384e+00   2.7322650083e+01    0.1272499    0.1073272 -76.40 -0.0001175633    1.029    0.028
        45 -12.3175    193.8167      7.8735   1.1962732294e+01   3.5634185103e+01    0.3232018     0.259924  69.90  0.001144175    1.148    0.129
        46 -10.4354     48.8656      8.1302   4.5128551057e+01   6.7837064429e+01    0.2377942    0.1630139 -37.53  0.001230525    1.734    0.423
        47 -10.4815     27.6355      9.3527   5.5491583158e+01   7.0408072234e+01    0.1986816    0.1367936  19.61  0.001345876    1.405    0.288
        48  -9.7684    156.9619      7.9756   1.6736650523e+01   4.4878049153e+01    0.2078875    0.1389982  41.75 0.0004700284    1.552    0.356
        49 -10.8420    210.5643      6.0526   9.7892962049e+00   3.1722253063e+01    0.2402811    0.1792431 -81.65 0.0009993083    1.186    0.157
        50  -9.8167    150.6590      6.9701   1.7389166356e+01   4.6548649576e+01    0.1726659     0.170852   0.53 0.0007011355    1.153    0.133
        51 -10.6431      3.1860      6.2457   6.7099010685e+01   7.3011887755e+01    0.2658719    0.1598441   2.65  0.001471964    1.614    0.381
        52 -10.6080    110.3624      4.1034   2.3959322503e+01   5.6468035918e+01    0.4253766    0.1862925  58.30  0.001513044    1.960    0.490
        53 -10.9878    184.1121      3.2080   1.1808945407e+01   3.8508400829e+01    0.2711169    0.2125438  25.13 0.0009792584    1.646    0.392
        54  -9.2086    135.8214      3.9405   1.8851264586e+01   5.0477218144e+01    0.1472328    0.1027435 -16.57 0.0002890994    1.651    0.394
        55 -10.7230    218.9305      1.9961   8.0729157494e+00   3.0146767184e+01    0.2430005    0.1874646  42.38  0.001237659    1.680    0.405
        56 -10.0267    142.9813     10.0000   1.9638903984e+01   4.8173352204e+01    0.2966911    0.2011712  68.77 0.0007527753    1.353    0.261
        57 -11.4856     50.2710      1.3451   4.1178800805e+01   6.8390106970e+01    0.2038642    0.1263385  39.39 0.0004645172    1.553    0.356
        58 -11.0943     46.6715      1.6802   4.2847466257e+01   6.8899778622e+01    0.2129388    0.1365803  24.82 0.0007826517    1.363    0.267
        59  -9.4636    155.6552      1.4937   1.4929026304e+01   4.5787467075e+01    0.1274498    0.1158459  81.63 0.0007887215    1.073    0.068
        60  -9.0480    176.2512     98.2481   3.9823255382e+01   2.6534530394e+01     0.143887    0.1215538  12.54            0    1.413    0.292
        61 -11.4481     11.6500     97.4656   8.7525636042e+01   5.4363646107e+01    0.2584507    0.1692404 -50.74  0.001505273    1.330    0.248
        62  -9.6546    228.5266     97.4248   2.9973549368e+01   1.4424820271e+01    0.1428585    0.1339431 -44.58 8.344901e-05    1.019    0.018
        63 -10.9504    232.9681     94.9671   2.8695047702e+01   1.3864847562e+01    0.2609463    0.1865509 -34.62 0.0004920828    1.321    0.243
        64 -10.9802     73.3227     96.1108   6.7220765846e+01   4.8350706649e+01    0.2657748     0.211788  44.78 0.0007423753    1.388    0.279
        65 -11.9180     64.5137     91.5139   6.8943210272e+01   5.0637884603e+01    0.5704833     0.176784 -52.30  0.002042314    2.767    0.639
        66 -12.7088     62.0000     89.9940   6.9399361172e+01   5.1315818975e+01    0.7125903    0.2111198 -58.55  0.002299927    3.598    0.722
        67 -12.0053     49.1558     95.2896   7.4933646762e+01   5.1655485234e+01    0.2992308    0.2580289  21.98 0.0009110132    1.329    0.248
        68 -10.9557    189.8412     94.8261   3.6134087315e+01   2.3897214738e+01     0.300078    0.2191561 -43.28 0.0005970097    1.341    0.254
        69 -10.9566    192.8094     92.1690   3.4858119901e+01   2.3669108392e+01    0.2723947    0.2585571  18.75 0.0004000939    1.144    0.126
        70 -10.4624     67.9651     94.4012   6.8529571376e+01   4.9507981667e+01    0.2189152    0.1836574 -63.60 0.0004245794    1.184    0.156
        71 -10.1153     89.2070     93.8841   6.1590315879e+01   4.6330585013e+01    0.2375651    0.1857838 -55.57 0.0002479224    1.265    0.210
        72 -10.3715     87.0671     89.9559   6.1185658602e+01   4.7565921662e+01    0.4249472    0.2325101  47.24  0.001134337    2.074    0.518
        73 -11.3617    211.4248     92.9137   3.1680119056e+01   1.9101067527e+01    0.2437289    0.2088394  28.94 0.0008462938    1.343    0.255
        74 -12.6763     57.3336     89.2854   7.0793108333e+01   5.2070394416e+01    0.5157798    0.3034847 -41.96 0.0002636706    1.601    0.375
        75 -12.2620     52.1192     87.1536   7.2044814838e+01   5.3178030910e+01    0.5038759    0.2418515 -50.19 0.0007621316    1.773    0.436
        76 -12.4059     48.5878     85.7209   7.2912767642e+01   5.3901882078e+01    0.4392109      0.25357  27.69  0.002097518    1.970    0.493
        77 -11.0387    181.3423     83.6753   3.4800376613e+01   2.8019345663e+01    0.3836971    0.2737625 -55.16  0.001748346    1.502    0.334
        78 -10.2153    172.6622     91.2932   3.8692998618e+01   2.8740097377e+01    0.3013292    0.2388683 -87.93 0.0008932779    1.541    0.351
        79 -11.4016    175.1727     85.8018   3.6642562634e+01   2.9153199121e+01    0.8410774    0.4699709  22.89  0.002545274    4.035    0.752
        80 -11.2962     96.1842     90.3844   5.8452878580e+01   4.5873151964e+01    0.4629066    0.3904166 -84.34  0.002390137    1.468    0.319
        81 -10.3164     79.4786     91.0253   6.3909360434e+01   4.8565627652e+01    0.2609642     0.202739 -14.66 0.0005445451    1.517    0.341
        82 -12.1707     70.8445     73.3441   6.1771360650e+01   5.3712526512e+01    0.6327803    0.4998933  71.90  0.003333207    1.843    0.457
        83 -10.9636     70.9904     88.0361   6.5889857246e+01   5.0516052937e+01    0.3466565    0.2612656 -42.72 0.0009214054    1.217    0.178
        84 -12.9830     67.2285     82.5077   6.5658825722e+01   5.2274878049e+01    0.6259646    0.5230652  44.20  0.003597325    1.362    0.266
        85 -12.5372    201.4955     77.4832   2.9404917845e+01   2.4145006487e+01    0.5916672    0.3926218 -70.13  0.002570773    1.928    0.481
        86 -12.7326    194.9679     86.4392   3.2935842843e+01   2.4179197864e+01    0.8080846    0.3600062  58.80  0.002829382    2.391    0.582
        87 -11.7770    188.7511     83.3640   3.3276228412e+01   2.6248240673e+01     0.432538    0.2413591 -39.88  0.001368465    1.752    0.429
        88 -11.9348    237.2418     86.0733   2.5951921217e+01   1.4404490608e+01    0.4491413    0.2958506  72.74  0.001232296    1.804    0.446
        89 -11.5278     38.1449     86.3785   7.6678182228e+01   5.4830790538e+01    0.2553815    0.2440405 -29.51   0.00119686    1.149    0.130
        90 -11.7893      6.5461     86.7277   8.7498818144e+01   5.7088979275e+01     0.244268    0.2101561  51.42  0.001754808    1.433    0.302
        91 -12.0349    161.7700     84.4656   3.9155441553e+01   3.2695987146e+01     1.180907    0.4126189  47.31  0.003776031    2.860    0.650
        92 -12.4357    168.6790     80.4153   3.6488822572e+01   3.1745494857e+01    0.5502996    0.4228033 -25.54  0.001853394    1.432    0.302
        93 -11.3908    165.9969     76.9774   3.6072411289e+01   3.3032052159e+01    0.3751859    0.2784242  38.53 0.0003572261    1.450    0.310
        94  -9.8828    226.3464     85.2976   2.7373775057e+01   1.6962217091e+01    0.1428093    0.1131567  18.42 0.0004068676    1.677    0.404
        95 -11.9121    213.1837     83.8984   2.9104480864e+01   2.0248234024e+01    0.3217227    0.2564041  27.88  0.001062636    1.552    0.356
        96 -11.9539    250.5383     81.7195   2.3132104852e+01   1.2255576062e+01    0.3593583    0.2193021 -48.72 0.0002441106    1.496    0.331
        97 -10.9616    250.4636     74.5093   2.1503281385e+01   1.3393650890e+01    0.3763205    0.2663125 -16.84  0.001935449    1.798    0.444
        98 -10.7270     83.8293     82.1279   5.9999493160e+01   4.9809635442e+01    0.3319957    0.2369983   0.57 0.0004072086    1.868    0.465
        99 -10.3940     64.7479     74.4161   6.4225468617e+01   5.4363578759e+01    0.3269757    0.1837407 -34.44  0.001210783    1.846    0.458
       100 -12.5725     27.9874     81.0689   7.9068842407e+01   5.6919351961e+01    0.4705056    0.2817925   9.61  0.002576003    2.113    0.527
       101 -11.0624    232.7109     78.8511   2.4877754891e+01   1.6581216111e+01    0.3740608    0.2524103 -81.32  0.001131096    1.904    0.475
       102 -11.8689    224.2181     61.2916   2.1789027355e+01   2.1292978796e+01    0.4513627    0.2854517  69.42  0.002192726    1.649    0.394
       103 -12.6635    226.8434     72.7049   2.4223880528e+01   1.8902237073e+01    0.7437513    0.4369226  41.05  0.003290408    2.184    0.542
       104 -12.5357    221.4851     78.2181   2.6370203729e+01   1.9251555797e+01    0.5189615    0.3467034 -41.27   0.00237647    1.396    0.284
       105 -12.5650    213.3494     76.6179   2.7228480155e+01   2.1431281386e+01    0.6688653    0.4206678  35.60  0.002678919    2.120    0.528
       106 -13.3936    220.2838     68.2433   2.4064912113e+01   2.1140918826e+01     1.095747    0.6310454  65.28  0.004986732    1.823    0.452
       107 -12.4817    202.7753     69.3381   2.7043138043e+01   2.5185215746e+01    0.5738686    0.3783078  80.14  0.002579828    1.800    0.445
       108 -13.0819    217.8307     57.3962   2.1695484697e+01   2.3397611625e+01     1.145249    0.8191165  22.70  0.005411081    2.128    0.530
       109 -13.6600    203.2967     61.3102   2.4840497184e+01   2.6335684264e+01     1.011597    0.8015773 -16.34  0.004193221    1.522    0.343
       110 -11.8124    209.6822     58.6037   2.3165552585e+01   2.5185552663e+01    0.3759155    0.2488163 -40.80 0.0003003697    1.452    0.311
       111 -11.4792    184.4284     79.3794   3.3013986298e+01   2.8021858771e+01    0.3550645    0.1965276 -31.36   0.00142605    1.945    0.486
       112 -12.4120    192.7215     75.7014   3.0468500280e+01   2.6603891391e+01    0.5080537     0.353383  53.75  0.001266942    1.442    0.307
       113 -12.3456    191.0697     68.1280   2.8700775818e+01   2.8283030436e+01    0.4386274    0.3293492  26.76 0.0005559238    1.718    0.418
       114  -9.2935    241.4313     81.5150   2.4294947795e+01   1.4228454389e+01     0.140246    0.1237537 -51.45  0.000101393    1.013    0.013
       115 -10.9354    155.1796     76.6216   3.8358683825e+01   3.5764426173e+01    0.3306348     0.279869  46.48 0.0006666197    1.171    0.146
       116 -10.6173    112.4585     75.8097   4.9189682600e+01   4.5722360280e+01    0.2538236    0.2079217  39.92 0.0002660877    1.226    0.185
       117 -10.6771    105.3944     74.7974   5.0965408061e+01   4.7365208463e+01    0.4109801    0.3176045  18.80   0.00158191    1.462    0.316
       118 -11.7992    177.1140     70.6913   3.1997383785e+01   3.1353264081e+01     0.925687    0.4265046 -56.39  0.002980538    3.304    0.697
       119 -11.9482    165.9518     65.8396   3.2822952782e+01   3.4978100657e+01     0.757113    0.5558867  64.43  0.002007391    1.380    0.275
       120 -11.1560    145.3957     53.0621   3.3309178529e+01   4.2172480532e+01    0.6741512    0.3565505  38.97  0.002112727    2.139    0.532
       121  -9.8800    142.3660     72.7911   4.0231053463e+01   3.9564582003e+01    0.4139365    0.3119824  50.44  0.001485161    1.302    0.232
       122 -11.7251    143.9609     68.1783   3.8419300299e+01   4.0009000253e+01    0.6630845    0.5061962  67.52   0.00287562    1.441    0.306
       123 -11.8860    135.0967     72.4331   4.1938291684e+01   4.1346531173e+01    0.5316429    0.4199453  62.56 0.0003982139    1.363    0.266
       124  -9.9993    133.0373     66.7080   4.0660246252e+01   4.2863697242e+01    0.3401189    0.2525841 -18.37  0.001074088    1.551    0.355
       125 -11.2557    147.9326     63.0677   3.5896584311e+01   3.9924513877e+01    0.4763176    0.3919513  75.41  0.002035624    1.339    0.253
       126 -10.7773    144.9850     60.0099   3.5616185120e+01   4.1156352844e+01    0.4866158    0.3313081  30.95  0.001910669    1.721    0.419
       127 -12.1367    155.4720     62.0122   3.3885824661e+01   3.8238060967e+01    0.8568725    0.4429659 -25.06  0.002720556    2.416    0.586
       128 -10.0221    242.3378     73.2533   2.2246966585e+01   1.5335037496e+01    0.3477105    0.1760511  54.98  0.001571892    2.128    0.530
       129 -10.3006    151.1219     72.8430   3.8161239885e+01   3.7440712492e+01    0.2625184    0.2083102 -39.81 0.0005434161    1.280    0.219
       130 -11.3575    199.5059     82.4964   3.1072206286e+01   2.3768959700e+01    0.3921211    0.2865838 -84.08  0.001065529    1.710    0.415
       131 -11.1934    215.5879     42.4479   1.8237415246e+01   2.6094200986e+01    0.3322462    0.2587153 -43.13 0.0008848213    1.252    0.201
       132 -11.4540    234.3409     37.4238   1.4833677956e+01   2.2346319933e+01     0.993412    0.3449223 -56.61   0.00329865    3.913    0.744
       133  -9.6210    171.4732    113.0399   4.4776666449e+01   2.4731964895e+01    0.2296169    0.1549565 -37.49  0.000437489    1.501    0.334
       134 -10.1762    225.8788     50.6259   1.8961031352e+01   2.2483317580e+01    0.3111203    0.2426945 -47.16 0.0009937284    1.193    0.162
       135 -10.3656    143.3692    113.0755   5.1468439296e+01   3.1191924011e+01    0.2601398    0.2168806  33.86 0.0005404257    1.261    0.207
       136 -10.6971    229.0930     39.9091   1.5997230111e+01   2.3227864545e+01     0.366051    0.2628264 -48.52  0.001510333    1.275    0.216
       137 -10.7159    236.2030     55.6785   1.8899188718e+01   1.9362989757e+01    0.3452305     0.262028  37.90   0.00110784    1.722    0.419
       138 -12.2940    233.3831     64.9158   2.1446913700e+01   1.8620577940e+01    0.8946895    0.3578892 -42.38  0.003604044    2.220    0.550
       139 -12.6372    237.9054     60.7813   1.9891325008e+01   1.8223098717e+01    0.8747005    0.5057079  84.85  0.003963214    2.197    0.545
       140 -11.5445    230.2121     49.2537   1.8097379215e+01   2.1667611288e+01    0.5800717    0.2040242 -36.84  0.001343289    2.553    0.608
       141 -11.0500    226.9911     81.4902   2.6347917914e+01   1.7445636872e+01     0.278788    0.1876896  81.99  0.001303354    1.846    0.458
       142 -10.1647    240.5168     69.5087   2.1608266481e+01   1.6315265973e+01    0.2384588    0.1323539 -23.37 0.0008182597    2.284    0.562
       143 -11.7891    151.5047     58.7949   3.3760347145e+01   3.9751120262e+01    0.3882697    0.2658592 -50.38  0.001781761    1.602    0.376
       144 -10.6544    183.7925     69.1721   3.0301335821e+01   2.9932493226e+01    0.2056504    0.1820645  24.04  0.001060965    1.298    0.230
       145 -10.8322    238.7007     52.0234   1.7746814544e+01   1.9328189926e+01    0.3890174     0.221701 -58.68  0.001853907    1.787    0.441
       146 -11.0361    182.1490     61.4001   2.8415559647e+01   3.1615386455e+01    0.3410668    0.3031204 -61.43  0.001223321    1.126    0.112
       147 -10.1520    137.0000     62.0394   3.8171486548e+01   4.2741682610e+01    0.3815726    0.2184882 -42.99  0.001492762    1.820    0.451
       148 -10.5466    138.8376     57.2858   3.6193148058e+01   4.3094644218e+01    0.4368516     0.282147 -16.35  0.001346224    1.980    0.495
       149 -10.1531    137.7091     52.9575   3.5052818174e+01   4.4060788490e+01    0.3438937    0.3144382  -2.57 0.0006147477    1.153    0.132
       150 -11.1492    133.3067     52.7947   3.6061786056e+01   4.5140060968e+01    0.3685161    0.3434841 -13.40  0.001242156    1.106    0.096
       151 -11.1280    248.0035     56.5336   1.7717047634e+01   1.6615922003e+01    0.3337074    0.2868952 -73.64   0.00205034    1.086    0.079
       152 -11.4533    180.5540     46.9991   2.4591755966e+01   3.4205819663e+01    0.9898673    0.5777646 -24.79  0.004231698    1.999    0.500
       153 -11.5436    133.6300    112.4028   5.3797996206e+01   3.3483379692e+01    0.3560207    0.2974016 -35.38  0.001740515    1.236    0.191
       154 -13.0954    190.8447     58.9969   2.6231459878e+01   2.9800378678e+01     1.020625    0.8483884 -75.33  0.005353781    1.243    0.196
       155 -10.9729    187.4181     55.7808   2.5916590965e+01   3.1160339795e+01    0.2695232    0.2510835  47.43 0.0004813235    1.143    0.125
       156  -9.7433    210.0321    112.0013   3.6685963086e+01   1.5981373736e+01    0.2665019    0.1889416  52.49 0.0008984996    1.476    0.322
       157 -11.6846    196.9376     50.8441   2.3029791810e+01   2.9502302398e+01    0.5909063     0.309963 -35.37   0.00171527    1.903    0.474
       158 -11.7982    209.9652     46.6306   2.0038281806e+01   2.6879014927e+01    0.8800293    0.4465865 -67.00  0.003330437    2.829    0.646
       159 -11.2561    201.9265     45.5702   2.0881810873e+01   2.9015342514e+01    0.5119975    0.3395793  22.73  0.001749643    2.437    0.590
       160 -10.8639    202.0080     40.0377   1.9409098743e+01   2.9761495177e+01    0.3450454     0.283741  60.18 0.0004840259    1.225    0.183
       161 -12.2292    188.8010     45.8175   2.2916433146e+01   3.2279265563e+01    0.7556891    0.4643601  62.07  0.003533464    1.546    0.353
       162 -10.6342    195.9300    107.2332   3.8163708379e+01   2.0120311638e+01    0.3600277    0.2787958 -50.64  0.001737286    1.306    0.234
       163 -12.7688    189.0193     34.0890   1.9633754237e+01   3.3815301106e+01    0.8247585    0.4945997  86.16 0.0008171102    1.902    0.474
       164 -11.9040    127.0980     59.0053   3.9692675058e+01   4.5577339682e+01    0.5217274     0.307078  32.64  0.002170814    2.004    0.501
       165 -12.5306     24.5462     43.1549   7.0406512498e+01   6.5081310919e+01    0.5102317    0.4350022  18.15  0.001017081    1.379    0.275
       166 -10.6630    162.3859     59.2272   3.1580074733e+01   3.6960626657e+01    0.2823955    0.2552746  58.80  0.001032568    1.067    0.063
       167 -11.3230    161.9252     54.5301   3.0251323005e+01   3.7817922942e+01    0.5019174     0.371404  84.34   0.00171032    1.585    0.369
       168 -10.5434    101.1979     53.8774   4.5265078869e+01   5.2071935588e+01    0.5915516    0.2995287  38.76  0.002508054    2.011    0.503
       169 -12.1111    234.5839     46.2891   1.6880495421e+01   2.1078011398e+01    0.4115625    0.2651283 -82.44  0.000654053    1.712    0.416
       170 -10.1208    108.7562     55.6778   4.3633491078e+01   5.0201509546e+01    0.3860133    0.2175555 -44.49  0.001689172    1.903    0.474
       171  -9.8060    111.8615     52.2773   4.1556145381e+01   5.0105513742e+01    0.2267558    0.1825481  39.71 0.0002954315    1.197    0.164
       172 -11.0073    173.1753     53.9844   2.7919057556e+01   3.5049245669e+01    0.3901638    0.3180594  30.59  0.001009455    1.410    0.291
       173 -11.4520    156.0309    105.7145   4.6403831791e+01   2.9856390237e+01    0.2272035    0.2110814  47.14  0.000462327    1.077    0.072
       174  -9.0457    124.3502     54.2657   3.8826923114e+01   4.6995638151e+01    0.1523845    0.1090777  23.76 0.0006984966    1.618    0.382
       175  -9.9135    160.2435     23.9773   2.1162086514e+01   4.2376204020e+01    0.1894826    0.1744829 -48.25 0.0004309077    1.167    0.143
       176 -11.1934    168.8354     33.4571   2.2600259907e+01   3.9037731955e+01    0.3696774    0.2990994 -74.53  0.001610792    1.318    0.241
       177 -11.7778    162.3176     29.7833   2.2597100190e+01   4.1158427055e+01     0.540661    0.3449042 -81.39 0.0005877436    2.055    0.513
       178 -12.1445    174.5703     39.4215   2.3402763555e+01   3.6789542437e+01    0.5835856     0.339772  50.75 0.0005903412    1.678    0.404
       179 -12.6576    172.6586     44.7197   2.5288293954e+01   3.6544256231e+01     0.826436    0.6566671  52.17  0.003116044    1.231    0.188
       180 -12.2241    161.1887     38.1494   2.5373242346e+01   4.0371372984e+01    0.5709476    0.5522177 -20.20  0.003334909    1.126    0.112
       181 -11.0939     90.5664     51.0203   4.7604765665e+01   5.4637038796e+01    0.2348379    0.1894988  31.72 0.0002039938    1.213    0.176
       182  -8.9571    245.2704     50.3199   1.6612266977e+01   1.8106201340e+01    0.1199628    0.1053439  12.14 0.0003129683    1.564    0.361
       183  -9.9599    162.3061     48.5694   2.8359964266e+01   3.8622385416e+01    0.5477844    0.2939441  38.28  0.002169578    2.271    0.560
       184 -10.8404     98.5921     47.7426   4.3870432683e+01   5.3616702399e+01    0.5624735    0.2991447  36.95   0.00209005    1.922    0.480
       185  -9.3350    250.4819     49.5054   1.5866974997e+01   1.7083018711e+01    0.1323372    0.1137674 -61.24 7.070048e-05    1.020    0.019
       186  -9.6863    142.8589     46.0717   3.1612951187e+01   4.3854112766e+01    0.4413711    0.1986934  37.31   0.00153559    2.913    0.657
       187 -11.6256    149.9440     43.5736   2.9282003804e+01   4.2458604745e+01    0.7348422    0.3368668 -40.61  0.002918429    2.282    0.562
       188 -10.8999    132.5039     34.2894   2.9982231570e+01   4.8009811659e+01    0.5945563    0.3034339 -60.53   0.00134231    4.067    0.754
       189 -11.7551    127.7050     45.6975   3.5050493394e+01   4.7554576510e+01    0.7045146    0.3922947  64.87  0.002918357    2.149    0.535
       190 -10.7810    132.0314     40.2925   3.2152644548e+01   4.7310348792e+01    0.4055521    0.2434303  39.48  0.001607167    1.699    0.411
       191 -10.9370    247.5849     42.6802   1.4645178916e+01   1.8660467275e+01    0.5300747    0.2800132 -71.83   0.00195338    2.316    0.568
       192  -9.5563    136.1873     43.3689   3.2227751597e+01   4.5873630206e+01    0.3476756    0.2012986  62.14  0.001517441    1.785    0.440
       193 -10.4514    105.7111     43.3524   4.0136332598e+01   5.2833677957e+01    0.2245421    0.2065819 -17.84 0.0002052962    1.106    0.096
       194 -10.2577    156.0109     41.8207   2.7500826865e+01   4.1181476824e+01      0.25831    0.2199555 -36.37  0.001340145    1.241    0.194
       195  -9.8930    241.5143     40.6770   1.4822141515e+01   2.0279747654e+01    0.2657327    0.1528871 -57.64 0.0008244555    1.661    0.398
       196 -10.1131    100.5183     40.7790   4.0717904513e+01   5.4308755514e+01    0.2670524    0.1867037  43.52  0.001382099    1.370    0.270
       197  -9.8523    250.0822     38.7427   1.3522202304e+01   1.8647293836e+01    0.2018144     0.148169 -69.99 0.0007820909    1.243    0.196
       198  -9.1116    210.3069     38.6272   1.7943413769e+01   2.7901335099e+01    0.1537311   0.09403726 -63.99 0.0002740234    1.767    0.434
       199 -10.0553    125.1159     37.1436   3.2716017591e+01   4.9383960145e+01    0.2271945    0.1854367  28.57  0.001224733    1.224    0.183
       200 -11.1699    110.9594     35.0297   3.5596686257e+01   5.2898041932e+01    0.4689588    0.2917587  14.01 0.0009293947    2.190    0.543
       201 -11.6389     92.4809     32.9385   4.0175733329e+01   5.7072952398e+01    0.4106596    0.3017032   4.07  0.001319194    1.457    0.314
       202 -10.3140    241.6214     30.3090   1.2467777984e+01   2.1623088494e+01    0.2790788    0.1422585 -60.65  0.001313735    1.985    0.496
       203 -10.0355    237.3099     30.5855   1.2951628687e+01   2.2561962985e+01    0.3903025    0.2564527 -65.99  0.001612767    1.436    0.304
       204 -10.5191     75.2161     33.5870   4.6189725210e+01   6.0200545003e+01    0.2441512      0.19287  42.29 0.0007530171    1.369    0.270
       205 -10.2538    206.1927     31.7400   1.6698805869e+01   2.9817077695e+01    0.3463326    0.1980918 -46.58  0.001658271    1.693    0.409
       206  -9.3337    152.2964     33.7272   2.5659310291e+01   4.3199438852e+01    0.1400935    0.1081863 -75.54 0.0002661996    1.524    0.344
       207 -10.0345    122.3755     32.7234   3.1815725005e+01   5.0613293400e+01    0.2261024    0.1320926 -32.20   0.00034796    1.800    0.444
       208 -10.2954    104.3229     28.8315   3.5083479332e+01   5.5166801082e+01    0.3302659    0.1903646 -42.54  0.001218476    2.030    0.507
       209 -11.2749    148.1493     28.0840   2.4635258668e+01   4.4941342868e+01    0.4636571    0.3248322  71.63  0.001355965    1.434    0.303
       210 -11.6156    150.4599     22.5805   2.2423643292e+01   4.5004075693e+01    0.3684048    0.2575456  40.30  0.001891009    1.464    0.317
       211 -10.5109    113.5003     27.4824   3.2118938898e+01   5.3312380809e+01    0.4337587    0.3531133  88.81  0.002276113    1.621    0.383
       212 -11.9607     86.1805     28.2645   4.0312307847e+01   5.8946201441e+01    0.3349459    0.2336454  49.33 0.0005872687    1.495    0.331
       213 -11.3859    138.3130     26.7192   2.6135879379e+01   4.7541783126e+01    0.4602574    0.2863936  88.55  0.001982251    2.343    0.573
       214 -10.3809    131.5018     24.9379   2.6959682672e+01   4.9408018451e+01    0.2975127    0.2319986 -51.93  0.001605077    1.499    0.333
       215 -11.9342    130.1421     19.4888   2.5339421109e+01   5.0348392801e+01    0.3404601    0.2761223  60.17 0.0005798899    1.146    0.128
       216 -10.0056    128.1048     27.6967   2.8679157964e+01   4.9894452620e+01    0.2243477    0.1840219 -45.09 0.0006365977    1.374    0.272
       217 -10.6338    123.2969     26.6225   2.9402931309e+01   5.1161380112e+01    0.3242818    0.2171108 -49.63  0.001599035    1.833    0.454
       218  -9.9093    244.4883     19.5015   9.8185953850e+00   2.2326127787e+01     0.267743    0.1683738  74.98  0.001417266    1.528    0.346
       219  -9.9632    233.3033     26.4016   1.2389734555e+01   2.4008881140e+01    0.2728584    0.1662997  44.67  0.001075412    2.206    0.547
       220  -9.9735    235.8595     23.5044   1.1482395993e+01   2.3781384499e+01    0.4277276     0.163518  66.09  0.001858725    2.462    0.594
       221 -10.5312    246.4583     23.0037   1.0410576614e+01   2.1464396909e+01    0.2535965    0.2007992  80.15 0.0008156411    1.238    0.192
       222 -11.3394    241.3201     23.0876   1.0885207786e+01   2.2596740962e+01    0.2967292    0.2225631  61.80 0.0006924071    1.461    0.315
       223 -10.8695    161.8202    107.1836   4.5435167410e+01   2.8196307907e+01    0.2234252    0.1933747   1.13  0.001039816    1.351    0.260
       224 -11.5517    176.1124     23.3443   1.8481440756e+01   3.8413454943e+01    0.2919867    0.2367221 -27.70 0.0003422121    1.378    0.274
       225 -11.0797    179.4699     20.4564   1.7175300913e+01   3.7890614259e+01    0.2416196    0.1978126  59.09 9.700819e-05    1.173    0.147
       226  -9.4344     98.2783     21.8844   3.4063878099e+01   5.7310614786e+01    0.3002333    0.2811838  37.09   0.00190149    1.144    0.126
       227 -10.6932    209.4889     21.5911   1.3731195905e+01   3.0256137089e+01    0.2303652    0.1861705 -62.71   0.00134887    1.152    0.132
       228  -9.8118    205.1488     18.1074   1.3338107814e+01   3.1725314458e+01    0.2740338    0.1358781 -57.68  0.001204909    2.180    0.541
       229 -10.1710    200.2622     15.8387   1.3308335637e+01   3.3186839925e+01    0.3401463    0.1652399  70.44 0.0005570364    1.863    0.463
       230 -10.3098    118.9776     21.3834   2.8508129626e+01   5.2778564175e+01    0.2590323    0.2024247 -19.53 0.0008843479    1.375    0.273
       231  -8.9739    156.3106     24.2990   2.1934359552e+01   4.3334719501e+01    0.1446304    0.0994591  36.46 0.0003314211    1.600    0.375
       232  -9.4759    168.6015     20.5971   1.8800048709e+01   4.0636568879e+01    0.2579177    0.1348685  -4.32 0.0009662606    3.409    0.707
       233  -9.9195    163.0787     20.4518   1.9616939432e+01   4.2055424149e+01    0.2127565    0.1795316 -58.28 0.0006077097    1.257    0.205
       234 -10.5288    209.5329    104.9020   3.5020584711e+01   1.7393756909e+01      0.43196    0.2994026 -86.06  0.001839113    2.164    0.538
       235  -9.0799    156.6590     20.2918   2.0617754969e+01   4.3698304357e+01    0.1429394     0.101907 -73.89 0.0007026627    1.651    0.394
       236  -9.8923     19.3683     19.5960   6.4218337071e+01   6.9669974479e+01     0.143346    0.1400732 -61.07  0.001100895    1.629    0.386
       237 -10.7231     15.1247    106.0484   8.7727490535e+01   5.2162522663e+01    0.1906842    0.1487912 -72.07 0.0005256245    1.052    0.049
       238 -10.3227    112.2850     16.9988   2.8466065634e+01   5.4792700385e+01     0.248936    0.1889367  36.63 0.0008404668    1.198    0.165
       239  -9.9177      3.2333     16.9231   7.1472380166e+01   7.1283234246e+01    0.1484208    0.1205448 -39.81  0.000415623    1.247    0.198
       240  -9.9632    183.5226    105.0951   4.0111156139e+01   2.3463154029e+01    0.2880276    0.2183018  75.41 0.0008174639    1.597    0.374
       241  -9.9738    134.7798    105.1303   5.1563316961e+01   3.4821573482e+01    0.2285171    0.2106002 -73.75 0.0003777752    1.150    0.131
       242 -10.3639    102.9374    104.8042   6.0337679731e+01   4.1411507114e+01    0.2188071    0.1967459 -13.05 0.0002369009    1.218    0.179
       243 -11.6207    230.6772    102.4269   3.0829044414e+01   1.3096177668e+01    0.2684675    0.2332774 -37.37 0.0001995018    1.071    0.066
       244 -11.7589    145.4258    103.1235   4.8290615299e+01   3.2853515618e+01    0.5687435    0.3625614  53.07  0.002409406    1.623    0.384
       245 -10.8501    157.5490     15.4367   1.8957356762e+01   4.3992568812e+01    0.3185246    0.1806863  48.52    0.0011874    1.682    0.406
       246 -11.9436     69.5472    102.5017   6.9980243624e+01   4.7414530994e+01    0.3234859    0.2221221 -41.96 0.0005702112    1.417    0.295
       247 -10.8875    236.1964    102.0767   2.9881262057e+01   1.1966855577e+01    0.4916135    0.2336553  45.67  0.001808451    2.388    0.581
       248 -11.3898    113.2087    246.7653   8.2035568126e+01   8.9529354794e+00    0.3363892    0.1794382 -47.16  0.001788508    2.583    0.613
       249 -13.2809      5.0316     54.3078   8.1800678832e+01   6.4148637003e+01    0.8734885     0.525212 -58.03  0.003237406    1.302    0.232
       250  -9.9095    171.8188     15.0725   1.6701956619e+01   4.0419177238e+01    0.2450387    0.1741688  70.97 0.0006828408    1.258    0.205
       251 -10.6733     36.3390    248.5011   9.5992647108e+01   1.9173768590e+01    0.1803196   0.08632341 -78.91  0.001099054    2.000    0.500
       252 -10.0945     15.8808    238.3958   9.8858392541e+01   2.3269209737e+01    0.1635604    0.1019534 -83.23 0.0005467222    1.436    0.303
       253 -14.7794    122.2051     83.3903   4.8747365371e+01   4.2136785293e+01     3.635571     2.274374  53.82   0.01572916    1.728    0.421
       254 -13.4507    136.8250     81.7668   4.4350833044e+01   3.9175470104e+01       1.0287    0.8752279   1.23  0.001289073    1.356    0.263
       255  -9.5409    166.4889     13.8949   1.7121146051e+01   4.1892081350e+01    0.1825456    0.1363067 -30.05 0.0004727745    1.485    0.327
       256  -9.2930    159.5231    219.5408   6.9337225329e+01   5.9642150342e+00    0.1339893    0.1143833  42.66 7.346341e-05    1.036    0.035
       257 -14.0420    116.7164     63.7150   4.4068922075e+01   4.7087658942e+01     1.364876     1.059767  55.17  0.006885471    1.365    0.268
       258 -13.9386     94.4950     64.8192   5.1118121627e+01   5.1414662848e+01     1.553598     1.314899   2.87     0.002539    1.223    0.182
       259  -9.9679    174.1769    131.2260   4.8726975104e+01   2.0373474134e+01    0.2177805    0.2074933  17.67 0.0004021968    1.073    0.068
       260 -10.9560    153.0082    124.1160   5.1901153322e+01   2.6639874446e+01    0.2437835    0.2239987 -48.94 0.0002768519    1.092    0.084
       261 -13.0823     79.4081     58.8125   5.4106678365e+01   5.5235467464e+01     0.703736    0.4231229  32.74  0.003012273    1.736    0.424
       262  -9.5585    222.0405    122.7577   3.7106763752e+01   1.1383772879e+01    0.3978347    0.2275072 -59.97  0.001542112    2.599    0.615
       263  -9.3476    206.9694    122.5579   3.9830964051e+01   1.4706785916e+01    0.2039123    0.1488677  50.73 3.252668e-05    1.428    0.300
       264  -9.6088    171.4442     10.5205   1.5431237185e+01   4.0981114709e+01    0.1358882    0.1197775  76.98 1.794861e-05    1.006    0.006
       265 -13.7257     34.5685     56.9396   7.0453703658e+01   6.1494964345e+01     1.684351    0.7464455  29.01  0.008271073    2.509    0.601
       266 -10.1085    140.9370    119.9700   5.3854625621e+01   3.0219451111e+01    0.2323474    0.2281245  72.62 0.0003284508    1.017    0.017
       267 -12.1250     26.1663     36.0166   6.7271195556e+01   6.6264846219e+01     0.285869     0.209255 -19.01 0.0005352143    1.201    0.168
       268 -10.2663    203.8019    116.0947   3.8860544795e+01   1.6631746576e+01    0.4100609    0.2202209  71.41  0.001333333    3.571    0.720
       269 -10.3627    181.9402    115.5029   4.3127705699e+01   2.1788613657e+01    0.3023058    0.1557628  54.73  0.001141162    2.083    0.520
       270 -13.4384     54.9307     71.8299   6.6996244870e+01   5.6197972247e+01    0.6995754    0.4732967 -41.56 0.0004943911    1.302    0.232
       271 -13.1036     58.0581     59.9520   6.2218983539e+01   5.8228544539e+01    0.8724392    0.5644925 -65.42  0.002941888    2.200    0.545
       272 -10.7235    109.4299    102.9858   5.7968267503e+01   4.0583673069e+01     0.223348    0.2120596  43.25 0.0004184836    1.085    0.078
       273 -11.3858     96.6920    100.7208   6.1123492908e+01   4.3481161183e+01    0.3391489    0.2498562 -35.63  0.001007093    1.403    0.287
       274  -9.8240    218.7531     99.7602   3.2138264669e+01   1.6208658605e+01    0.2004484    0.1657339 -69.11 0.0003879997    1.328    0.247
       275 -11.7841     86.5398     98.9043   6.3754295592e+01   4.5646086990e+01    0.4578653    0.3627764  37.97  0.001465523    1.342    0.255
       276 -11.2536    169.5969     97.4316   4.1042625563e+01   2.8299863113e+01     0.457276     0.389453  73.23  0.001787422    1.274    0.215
       277 -11.9508    153.8152     96.0985   4.4295198543e+01   3.2343746815e+01    0.5392302     0.410294  38.69 0.0006077673    1.371    0.271
       278  -9.7634    149.3128     92.6818   4.4417610001e+01   3.4094933714e+01    0.2489649    0.2242144 -85.08 0.0007750615    1.224    0.183
       279 -12.5551    106.4189     96.9510   5.7206442439e+01   4.2511046926e+01     0.657114    0.3831792 -24.26  0.002041727    2.655    0.623
       280 -11.8602    106.3630     92.4278   5.5956046106e+01   4.3510928652e+01    0.5730587    0.2673816  27.70  0.001839012    3.509    0.715
       281 -11.8738    200.0576     96.2618   3.4563405597e+01   2.1183628012e+01    0.6548387    0.4652151  76.26  0.002959784    1.736    0.424
