#   1 NUMBER                 Running object number                                     
#   2 MAG_AUTO               Kron-like elliptical aperture magnitude                    [mag]
#   3 X_IMAGE                Object position along x                                    [pixel]
#   4 Y_IMAGE                Object position along y                                    [pixel]
#   5 X_WORLD                Barycenter position along world x axis                     [deg]
#   6 Y_WORLD                Barycenter position along world y axis                     [deg]
#   7 A_WORLD                Profile RMS along major axis (world units)                 [deg]
#   8 B_WORLD                Profile RMS along minor axis (world units)                 [deg]
#   9 THETA_WORLD            Position angle (CCW/world-x)                               [deg]
#  10 FWHM_WORLD             FWHM assuming a gaussian core                              [deg]
#  11 ELONGATION             A_IMAGE/B_IMAGE                                           
#  12 ELLIPTICITY            1 - B_IMAGE/A_IMAGE                                       
         1 -14.1989    230.9637     41.7437   6.3529476470e+01   2.3144785794e+01     1.500935    0.7993058 -21.00  0.006191071    3.493    0.714
         2 -13.8821    250.3133     65.7889   6.6399352201e+01   1.5407300517e+01     1.913069    0.4393606 -33.86  0.004566478    8.086    0.876
         3 -17.0654    245.7293     43.4904   6.2319379830e+01   1.9683663463e+01     5.606551     5.072138  20.89  0.008324426    1.712    0.416
         4 -11.6671    144.2991     42.0363   7.6748794012e+01   4.3641351666e+01     1.031077    0.5368114  74.33  0.003429469    2.674    0.626
         5 -10.6819    159.0223     32.8291   7.1329705383e+01   4.1311283327e+01     0.643438    0.2815287 -27.91  0.002701467    2.708    0.631
         6  -9.2886     75.0046     17.2514   8.5735315044e+01   6.1031419969e+01    0.2178411    0.1901289   7.80 0.0003745846    1.121    0.108
         7  -8.9787    155.0400     15.0485   6.7028377222e+01   4.4226982571e+01    0.2347791    0.1926739  -9.44 0.0006249807    1.521    0.342
         8  -8.4818     80.4848     12.9625   8.2437912783e+01   6.0481239915e+01    0.2476065    0.1585218 -42.13 0.0009173001    2.085    0.520
         9  -9.3988    181.2046      5.0754   6.0867429050e+01   3.9026126384e+01    0.3433057    0.2345111   8.39   0.00169853    2.399    0.583
        10  -9.0624    178.2075      2.5029   6.0592668738e+01   3.9970062273e+01    0.3804949    0.2117174  42.66  0.001951722    2.189    0.543
        11  -8.4116      3.0000      4.0289   1.0911732623e+02   7.1800851961e+01    0.1608733   0.04698224 -41.31 0.0008072555    2.976    0.664
        12  -8.2711    105.8168      2.1937   7.2116374716e+01   5.6413467235e+01    0.1766699    0.1161435  38.92 0.0008222668    1.328    0.247
        13 -10.5437     10.9990    207.3641   1.4528520939e+02   2.9613616401e+01    0.2892922    0.2134506 -45.94  0.001897878    1.975    0.494
        14 -11.2214    185.3474    247.9473   1.1510563518e+02  -4.7728094604e+00    0.4491329    0.3873365  30.13  0.002932952    1.033    0.032
        15  -9.8860    123.9995    206.0121   1.2128930370e+02   1.3955908700e+01    0.2028213    0.1828625  66.89  0.001159949    1.021    0.021
        16 -11.1770    203.1903    199.7443   1.0311032235e+02   3.8349112313e-01    0.6273789    0.3087926  39.35  0.002721722    1.985    0.496
        17 -11.9126    192.0789    194.3228   1.0432901747e+02   3.4772100484e+00    0.9332049    0.5657592 -67.50  0.003639774    2.989    0.665
        18 -10.1141    207.6152    184.1558   9.9127015402e+01   2.4757712050e+00    0.2896618     0.229982 -36.28 0.0009763216    1.233    0.189
        19  -9.8699    200.3565    248.4324   1.1227288064e+02  -7.2838556675e+00    0.3817399    0.2237092  15.94  0.001894662    2.123    0.529
        20  -9.9137    171.7953    244.9901   1.1732038219e+02  -2.0292437674e+00    0.2507342    0.1523867  28.46  0.001289447    1.656    0.396
        21 -10.2584    193.9950    247.2912   1.1331893176e+02  -6.0863016134e+00    0.3154421    0.2175908  -1.17  0.001735397    1.817    0.450
        22  -8.6289    239.2564    128.9746   8.1506239356e+01   6.7796698472e+00    0.2001035    0.1919599 -58.93 0.0002713552    1.081    0.075
        23  -9.4541    166.3727    128.8849   9.5610490477e+01   2.2642489083e+01    0.5568368    0.3236017  73.43  0.001831627    3.217    0.689
        24  -8.6304    229.3437    149.9554   8.7759949029e+01   4.8054026670e+00    0.3481961    0.2110566  57.13  0.001263807    2.016    0.504
        25  -8.7099    234.4742    126.0639   8.1650970699e+01   8.2752001711e+00     0.347041    0.2855383 -11.27  0.001859383    1.477    0.323
        26  -8.1708     70.7959    122.9865   1.1947361664e+02   4.2553559379e+01    0.2132002    0.1731656 -39.08  0.000454737    1.237    0.192
        27  -8.5784    218.4102    122.2755   8.3540392865e+01   1.2347241492e+01    0.2078564    0.1294945 -50.86 0.0003928361    1.565    0.361
        28  -7.9430    221.4359    121.3003   8.2788263963e+01   1.1885551094e+01    0.2059637    0.1890772  73.58 0.0007028463    1.157    0.135
        29  -8.7730    172.1395    121.9177   9.2611584189e+01   2.2818255703e+01    0.2415012    0.2092084 -78.61  0.000543341    1.252    0.201
        30  -9.1825    134.5249    120.9867   1.0132799454e+02   3.1447201325e+01    0.3637676    0.3096638 -57.49  0.001030216    1.181    0.153
        31  -9.5851    134.0000    115.6373   1.0010101729e+02   3.2747232077e+01    0.5828028    0.2161845 -45.59  0.001519125    2.663    0.624
        32 -10.5499    133.9595    108.7250   9.8309075030e+01   3.4259183899e+01    0.9292838    0.2855231 -41.93  0.002751175    3.370    0.703
        33  -9.5517    160.1197    117.6106   9.4242797805e+01   2.6487972355e+01    0.4483822    0.3162276  81.68  0.001856087    1.995    0.499
        34  -7.5445    141.3365    123.2730   1.0018266659e+02   2.9462685980e+01    0.1557116    0.1263953   6.13 0.0006991907    1.603    0.376
        35  -9.5172    167.2632    113.7078   9.1634604212e+01   2.5663638693e+01    0.4512811    0.4015268 -82.36  0.002223943    1.191    0.160
        36 -10.3224    220.4426    147.3654   8.8812231390e+01   7.0663421182e+00    0.3174077    0.2698672  29.85 0.0002703561    1.291    0.225
        37  -7.8248    230.7475    106.7986   7.7965070084e+01   1.2602115029e+01    0.1848459    0.1500466 -81.93 0.0003442344    1.335    0.251
        38 -11.0165    125.7526    105.6024   9.9616174151e+01   3.6689686453e+01    0.5527851    0.4433724  48.44  0.002731073    1.267    0.211
        39  -8.1514    221.9576    105.7050   7.9131743268e+01   1.4701370874e+01    0.1909173    0.1749485 -88.46 0.0002039439    1.100    0.091
        40 -10.0060    112.1622    105.1756   1.0319283119e+02   3.9564146240e+01    0.4465733     0.251146  46.33  0.001874608    1.845    0.458
        41  -9.7815    123.1186    111.1039   1.0177166084e+02   3.6048045096e+01    0.4189671    0.2742628 -88.18  0.001516459    2.919    0.657
        42  -8.1301    144.8761    104.8443   9.4547085709e+01   3.2655862935e+01    0.2336595    0.2132169  13.66 0.0009234464    1.223    0.182
        43 -10.2286    118.2735    102.5049   1.0079125762e+02   3.8908583923e+01    0.3069796    0.2646699  70.77  0.001567448    1.317    0.241
        44 -12.7150     27.3655    166.5322   1.3805285802e+02   3.7258099201e+01     1.210526    0.8487222 -49.33  0.007215306    1.577    0.366
        45  -9.0997    153.2203    100.3718   9.1361828996e+01   3.1661515525e+01    0.4240097    0.1856582  47.40  0.001524724    2.278    0.561
        46  -8.4803    130.9802     98.3685   9.6285400194e+01   3.7086207851e+01     0.264121    0.2094113 -57.47 0.0006466373    1.346    0.257
        47  -9.9756    113.8382     96.3563   1.0032512998e+02   4.1104536573e+01    0.3719736    0.2390447  56.26  0.001633987    1.809    0.447
        48 -10.6058     52.9573    153.4761   1.3000276854e+02   3.7551594973e+01     0.393117     0.321797 -57.74 0.0009399542    1.174    0.148
        49  -9.4075    164.4915     94.4972   8.7254227265e+01   3.0178752577e+01    0.3274096    0.2747436 -86.92  0.001279944    1.325    0.245
        50  -9.4608    167.8103     92.3949   8.5983075200e+01   2.9794072688e+01    0.3834404    0.3205848 -44.15  0.001046798    1.202    0.168
        51  -8.0731    137.5137     94.4744   9.3550252881e+01   3.6432006252e+01    0.1508135    0.1490866  23.37 -7.184459e-05    1.027    0.026
        52  -9.3401    150.4567     90.8801   8.9435324971e+01   3.4178683049e+01    0.2835466    0.2442226  36.42 5.467629e-05    1.220    0.180
        53  -9.0754    172.8229     89.7872   8.4248250610e+01   2.9089908367e+01    0.2800353    0.2317014  62.97 0.0003766108    1.199    0.166
        54 -10.0502    133.1457     82.7701   9.1340904592e+01   3.9679540655e+01    0.4357617    0.2603275 -27.10  0.001807121    2.058    0.514
        55 -10.7287    163.3417     80.6155   8.3767176649e+01   3.3043364691e+01    0.4143067    0.3320484  -8.75  0.000850515    1.616    0.381
        56  -9.0867    151.0414     78.6885   8.5914408647e+01   3.6313318368e+01     0.214945    0.1890085  54.48 0.0006708627    1.104    0.095
        57 -11.1964    128.2653     76.7194   9.0814346620e+01   4.1878322891e+01    0.5338918    0.4255047  30.77  0.002257678    1.322    0.243
        58  -9.9851    139.3733     67.5173   8.5381603138e+01   4.0971554387e+01    0.3810957    0.2502666  83.19  0.001576348    2.391    0.582
        59  -8.7234    121.0390     67.9391   9.0046161025e+01   4.4999206735e+01    0.2168196    0.2045305  23.13 0.0003587022    1.025    0.024
        60  -8.6303    176.2785    146.0263   9.7453391481e+01   1.6723286302e+01    0.2204865    0.1942943 -50.82 0.0003902585    1.121    0.108
        61  -8.1613    100.5165     63.0693   9.4190550742e+01   5.0036473837e+01    0.2069388    0.1340935 -36.80  0.000529141    1.556    0.357
        62  -8.2336     95.0207     53.1411   9.2565348124e+01   5.2697635277e+01    0.2250678    0.1830463 -26.98  0.000675747    1.233    0.189
        63 -11.3175    152.2148     46.0942   7.6352458101e+01   4.1217394338e+01     0.567658    0.4321502   8.88  0.002925855    1.756    0.431
        64 -11.7643    247.4096    236.8425   1.0155710483e+02  -1.2716571163e+01    0.2305606    0.1980842   4.98 0.0004608179    1.142    0.124
        65  -9.1602    166.9763     39.2881   7.1747377680e+01   3.8582245263e+01    0.2367047    0.2191485 -14.57 0.0006375836    1.279    0.218
        66 -10.3497    167.2365     33.6704   7.0180591096e+01   3.9233865956e+01    0.5367457    0.3220695 -21.18  0.002581439    2.165    0.538
        67 -10.9311    188.3561    233.9522   1.1226026256e+02  -3.0093088256e+00    0.3440464    0.2878498  43.06  0.001250849    1.183    0.155
        68  -7.5480     92.2854     36.6906   8.7727698325e+01   5.5570515582e+01    0.1164519    0.1042464 -75.52  0.000698709    1.571    0.364
        69  -7.7718     45.5793     33.2440   1.0228069090e+02   6.3523616993e+01    0.1568243   0.09647169 -24.46 0.0003841888    1.478    0.324
        70 -10.5181    133.0291     44.7053   7.9961702653e+01   4.5896332687e+01       0.3127     0.220354 -35.59            0    1.529    0.346
        71  -7.7570     93.4476     32.4316   8.5888888780e+01   5.5889234325e+01    0.1285232    0.1116935  24.09 0.0001239495    1.009    0.009
        72  -9.2010    177.6680     25.2060   6.6356976141e+01   3.7738568752e+01    0.2783458     0.217295  54.39  0.001038199    1.273    0.214
        73  -9.0830    153.6170     25.8752   7.0304309415e+01   4.3415066042e+01      0.26978    0.1460299  44.94  0.001109482    1.871    0.465
        74  -8.4786    106.8876    142.9322   1.1374487056e+02   3.1844439054e+01      0.21692    0.2070501 -71.34 0.0003114078    1.013    0.013
        75  -8.5308     84.7638     21.5548   8.4437685307e+01   5.8803693457e+01    0.2036847    0.1903749 -20.54 0.0006575455    1.283    0.221
        76 -12.6405     64.3103    146.6844   1.2589998172e+02   3.7739835199e+01     1.578654     1.160979 -22.22   0.00418273    1.898    0.473
        77  -9.2019     13.3360    234.7063   1.4673302565e+02   2.3669627056e+01    0.1942136    0.1508706  86.98  0.000481823    1.171    0.146
        78  -9.1154    160.4469    128.9148   9.6977934415e+01   2.3971490822e+01    0.4769336     0.318136 -60.29  0.002017821    1.699    0.412
        79  -8.9657      2.5939    233.7995   1.4849396120e+02   2.4952576611e+01    0.1639835   0.07738926  87.19 0.0009594588    1.738    0.425
        80  -9.3383      3.6056    224.1833   1.4775400665e+02   2.6796544739e+01    0.1581677   0.07997116 -70.85 0.0009561752    1.737    0.424
        81 -10.2216    199.8995    221.8084   1.0786608040e+02  -2.9428056965e+00     0.261519    0.2336668  83.03  0.001560136    1.531    0.347
        82  -9.5727    160.2336    215.2635   1.1491449620e+02   5.3888833955e+00    0.2428655     0.226673  42.15 0.0002385295    1.017    0.017
        83 -10.3919    191.8860    211.8659   1.0769000135e+02   2.2326287962e-01    0.4326124    0.1679518 -33.88  0.001495935    3.554    0.719
