#   1 NUMBER                 Running object number                                     
#   2 MAG_AUTO               Kron-like elliptical aperture magnitude                    [mag]
#   3 X_IMAGE                Object position along x                                    [pixel]
#   4 Y_IMAGE                Object position along y                                    [pixel]
#   5 X_WORLD                Barycenter position along world x axis                     [deg]
#   6 Y_WORLD                Barycenter position along world y axis                     [deg]
#   7 A_WORLD                Profile RMS along major axis (world units)                 [deg]
#   8 B_WORLD                Profile RMS along minor axis (world units)                 [deg]
#   9 THETA_WORLD            Position angle (CCW/world-x)                               [deg]
#  10 FWHM_WORLD             FWHM assuming a gaussian core                              [deg]
#  11 ELONGATION             A_IMAGE/B_IMAGE                                           
#  12 ELLIPTICITY            1 - B_IMAGE/A_IMAGE                                       
         1 -12.6778    249.1886     60.3567   3.5155246595e+01   1.7921029534e+01     1.250963    0.4187449 -34.64  0.005452624    2.699    0.629
         2 -12.2136    248.3302     25.7289   2.8365404461e+01   2.2459504192e+01    0.7420936    0.3239693 -44.48  0.004181403    1.751    0.429
         3 -11.2562    235.6851      2.4738   2.4604599498e+01   2.7378896683e+01    0.5204526    0.2238063 -74.93  0.002752915    2.303    0.566
         4 -10.5947    242.5343      9.4507   2.5575970264e+01   2.5351561409e+01    0.2687981    0.1660262 -27.26  0.001695786    1.922    0.480
         5  -8.8534    118.6718     21.3231   4.2082456536e+01   5.1953254136e+01    0.1372741    0.0983092 -71.49 0.0007049142    1.693    0.409
         6 -10.7960    249.2964     16.0069   2.6438925528e+01   2.3383847855e+01    0.2819167    0.2474623 -13.95  0.002008146    1.684    0.406
         7  -9.9120    142.8657     17.9743   3.6872788998e+01   4.6435324892e+01    0.3917259    0.2580713  36.18  0.002047132    1.838    0.456
         8  -9.4844    171.6735     12.6831   3.1787533100e+01   4.0084902353e+01    0.2678223    0.1899239  42.62  0.001539138    1.737    0.424
         9 -10.6323    165.7818      5.2150   3.0409677261e+01   4.2173233192e+01    0.4857999    0.4266881  11.53  0.003220681    1.505    0.335
        10 -10.0967    249.2235      3.1112   2.4021782410e+01   2.4770067866e+01    0.2789478    0.2232994  16.31  0.001942943    2.328    0.570
        11  -9.1081    221.4967      5.4711   2.6037724940e+01   2.9882812891e+01    0.1160015   0.09051894 -69.21 0.0002506544    1.009    0.009
        12 -12.4706    237.7977     16.2177   2.7185343790e+01   2.5521356711e+01    0.5983886    0.4775392  23.38  0.003982581    2.171    0.539
        13 -10.5071     16.0152    219.4256   1.1590086412e+02   2.4984662906e+01     0.495341    0.2589923  68.99  0.002675958    1.779    0.438
        14 -11.1149     15.3073    248.1950   1.1754984196e+02   1.9140330415e+01    0.7490804    0.2631539  43.19  0.003910828    2.065    0.516
        15 -11.5691      5.0109    249.1506   1.1957915897e+02   1.9930685981e+01    0.5843764    0.4804954  53.32  0.003688894    1.161    0.138
        16 -10.8403     19.5761    241.1334   1.1634927099e+02   2.0110945183e+01    0.4207734     0.340864  46.13  0.002197792    1.168    0.144
        17 -10.2384     12.7785    240.6785   1.1769417696e+02   2.0863274635e+01     0.315406    0.2834697 -59.43  0.001321032    1.464    0.317
        18 -11.3992      8.3896    238.5213   1.1847052446e+02   2.1707977163e+01    0.7007007    0.4704176 -39.16  0.002511863    2.375    0.579
        19 -11.3057     13.2767    231.9665   1.1716397322e+02   2.2586517690e+01    0.6660069    0.3775488 -62.70  0.003928162    1.966    0.491
        20 -11.4636     39.3730    223.2132   1.1098021109e+02   2.1764389173e+01    0.7366827    0.4155547 -87.82  0.003936278    1.853    0.460
        21 -13.1932     36.3050    214.8898   1.1103650117e+02   2.3924151110e+01     1.101503     0.882758  28.75  0.006954665    1.340    0.254
        22 -13.2964     32.1804    204.9461   1.1121752980e+02   2.6615109923e+01      1.20643    0.9736794  85.69   0.00760082    1.133    0.117
        23 -10.2152    210.1965    213.7874   7.1790531370e+01  -3.6865771203e-01    0.3561342    0.1350466  39.72  0.001538968    2.935    0.659
        24 -10.1724    225.5885    217.3150   6.9600897724e+01  -2.8969783814e+00    0.3229942    0.1638216 -10.15  0.001481211    2.692    0.628
        25  -9.4805    190.4966    218.4952   7.6399956467e+01   1.5880552887e+00    0.1297785    0.1078321   1.26 -0.0001312083    1.012    0.012
        26 -10.1664     48.5816    221.9227   1.0879061393e+02   2.0998688155e+01    0.3289475    0.2356382 -22.17  0.001638266    2.154    0.536
        27 -10.5505      7.0855    213.0000   1.1749721455e+02   2.7205017171e+01    0.5050147     0.221087  43.04  0.002544485    1.903    0.475
        28 -10.1630     10.4079    207.4055   1.1644741602e+02   2.8158340110e+01    0.2768132    0.1908227 -46.73 0.0007296234    1.867    0.464
        29  -9.9514    249.9719    209.0603   6.4059447108e+01  -4.6542867018e+00    0.2887924    0.2040665 -12.60  0.001958599    1.109    0.098
        30 -10.8870    246.8694    204.8434   6.3822553185e+01  -3.6947301700e+00    0.3356878    0.2272334 -15.60  0.002180353    1.203    0.169
        31 -10.2228     21.5836    217.9411   1.1458543981e+02   2.4770648099e+01    0.4185819    0.2196616  72.26  0.002172824    1.859    0.462
        32  -9.0905    199.4816    207.2607   7.2685856680e+01   2.1631117779e+00    0.2776787    0.1434631  20.83  0.001298213    2.148    0.534
        33 -10.1057    230.2466    203.0196   6.6278668944e+01  -1.3593970758e+00     0.255158    0.1352801   7.71  0.001193042    2.600    0.615
        34 -11.1198      4.3808    201.6404   1.1748904807e+02   2.9982115467e+01    0.5060543    0.3814245 -55.07  0.002220069    1.557    0.358
        35 -11.3404      4.9672    191.4829   1.1676768248e+02   3.2283273119e+01    0.5739033    0.2471897 -66.37  0.002550261    2.129    0.530
        36  -9.8365    220.0519    220.4816   7.1131127424e+01  -2.6668577075e+00    0.3112265     0.205937  10.30   0.00189833    1.388    0.280
        37 -11.0317    248.5753    197.6134   6.2267111476e+01  -2.8603065216e+00    0.4698775    0.3038995   9.77  0.002910622    1.588    0.370
        38 -10.8897    244.7528    193.6373   6.2164364301e+01  -1.8042748219e+00    0.2790852    0.1848894 -30.12  0.001745103    1.249    0.200
        39 -10.3809     14.3504    200.9757   1.1514525212e+02   2.9270357517e+01    0.2736741    0.1730615  30.30  0.001517568    1.626    0.385
        40  -9.6083    200.0216    194.5092   7.0263806037e+01   4.2335437105e+00    0.2498001    0.1798086 -48.43  0.001376913    1.644    0.392
        41 -11.6272    228.4896    190.8149   6.4358318038e+01   7.6045899945e-01    0.5054234    0.2981094   0.51  0.002545495    2.153    0.536
        42 -10.5657     20.8824    190.4253   1.1282105893e+02   3.1147562890e+01    0.2385415    0.2004051 -67.74  0.001326653    1.239    0.193
        43 -11.8853    243.6404    183.6959   6.0520149209e+01  -1.6505280785e-01    0.6570499    0.3398199 -14.59  0.003068843    2.549    0.608
        44  -9.7832      1.9689    186.5111   1.1718985175e+02   3.3691755644e+01    0.2312447     0.144237 -64.81 0.0006743402    1.564    0.361
        45 -11.1886     10.9503    187.7135   1.1507705239e+02   3.2680570499e+01    0.4887623    0.2790106 -39.35   0.00243161    2.447    0.591
        46 -12.0533    229.9260    180.9771   6.2265752015e+01   2.1270683707e+00     0.484507    0.3657788 -62.25  0.002702622    2.199    0.545
        47 -10.2363    221.1295    178.8885   6.3384421579e+01   3.7360813474e+00    0.1905585    0.1738989 -35.02  0.001236186    1.301    0.231
        48 -11.7147     11.7634    176.9769   1.1409925958e+02   3.5209492475e+01    0.4756829    0.2800942  44.74  0.002573436    1.619    0.383
        49 -12.0011      4.4273    169.4319   1.1545473559e+02   3.7637901510e+01     0.714851    0.3701751  82.05  0.003524929    1.850    0.459
        50 -11.0958      8.3406    165.6897   1.1413028754e+02   3.8273321680e+01     0.513027     0.172551  45.46   0.00209968    2.838    0.648
        51 -10.6590    213.0012    218.4933   7.2080164957e+01  -1.4642092397e+00    0.3087633    0.2267801   9.00  0.001955766    1.190    0.159
        52 -10.0307    248.5812    159.8975   5.5249412040e+01   2.8493477828e+00    0.2218175    0.1928774 -70.14  0.001453873    1.720    0.419
        53 -10.3349    246.7057    155.9849   5.4770071479e+01   3.7303212665e+00    0.2445602    0.1858452 -11.73  0.001212943    1.286    0.223
        54 -10.8191    242.6555    155.1894   5.5221946064e+01   4.4437387361e+00    0.3577129    0.1754129 -36.60  0.001807391    1.674    0.402
        55 -11.4920      5.6198    158.0700   1.1426707049e+02   4.0383219681e+01     0.373098    0.2913662 -62.78  0.002276087    1.240    0.193
        56 -10.9798    228.4738    150.3733   5.6474296990e+01   7.3986311730e+00    0.2846338    0.1971793  16.28  0.001550201    1.784    0.440
        57 -10.1029    248.5156    150.4824   5.3430425395e+01   4.3386792260e+00    0.2309716    0.1675641  -0.66  0.001387294    1.599    0.374
        58 -10.2347    246.3009    148.3385   5.3331306980e+01   5.0022445961e+00    0.1737688     0.158025 -14.19  0.001196623    1.167    0.143
        59  -9.4935      4.6671    146.6564   1.1357405241e+02   4.3338946415e+01    0.1393832    0.0831016 -47.23 0.0007050504    1.758    0.431
        60  -9.6080     81.3514    144.4257   8.9627350780e+01   3.5375401754e+01    0.2997292    0.2695978 -89.54  0.001418316    1.169    0.144
        61  -9.7465    247.2632    142.0158   5.1942011122e+01   5.8655637324e+00    0.1868616    0.1405225 -34.00  0.001169345    1.071    0.067
        62 -10.3368     11.8834    138.8923   1.1063186944e+02   4.4831523145e+01    0.2131218    0.1634755 -56.00 0.0008159342    1.241    0.194
        63 -10.3228     20.4015    135.2078   1.0750465595e+02   4.5133103300e+01     0.211444    0.1677771 -79.36  0.001136754    1.132    0.116
        64 -11.0514    229.1340    111.3635   4.8181609200e+01   1.3830886466e+01    0.5382578    0.4186478 -87.70  0.003107431    1.714    0.416
        65 -10.8884    249.8622     84.5910   3.9997495224e+01   1.4360855627e+01    0.8146545    0.3163794 -27.04  0.002930611    4.148    0.759
        66 -12.5712    240.1673    129.6286   5.0452635048e+01   8.9632170141e+00    0.7107524    0.5866519  29.17  0.004555855    1.447    0.309
        67 -13.5856    243.8623    105.5413   4.4994717118e+01   1.2202292339e+01     1.815308    0.7946653 -41.10  0.008721856    1.836    0.455
        68 -12.0014    240.5695     88.8961   4.1927753465e+01   1.5348350289e+01    0.5635377    0.2798196 -41.46  0.002457663    1.632    0.387
        69 -10.8270     56.9621    128.6189   9.4335986337e+01   4.2989685200e+01    0.6815395    0.3525445 -45.32  0.002805369    1.953    0.488
        70 -11.5312    228.5495    123.6493   5.0892659692e+01   1.1891408730e+01    0.5061481    0.2688329 -34.79  0.002474068    1.655    0.396
        71 -10.9213      7.8431    125.9084   1.1048910787e+02   4.8455491797e+01    0.3226349    0.1919076  42.26  0.001659918    1.837    0.456
        72 -10.2207    117.2291    121.5741   7.3793760204e+01   3.4536187008e+01    0.5038713    0.2958914 -54.00  0.002045862    1.787    0.440
        73 -11.5957      2.8981    110.2280   1.1031418453e+02   5.2759629022e+01    0.7138333     0.291569 -61.18  0.003224657    1.908    0.476
        74 -11.0258     14.1414     96.0758   1.0394406703e+02   5.5659391928e+01    0.6786059    0.2762287 -55.74  0.002969053    1.944    0.486
        75  -9.7291     38.1223     98.4904   9.4913164051e+01   5.2954743573e+01    0.3232545    0.2388458  20.31  0.001698749    1.468    0.319
        76 -10.1133    211.2601     90.1067   4.5993328106e+01   2.0724530157e+01    0.5094319    0.2736558 -34.24  0.002040302    1.773    0.436
        77 -10.0405    210.2935     84.9871   4.4946413652e+01   2.1750240855e+01    0.3431354    0.3008168 -17.73  0.001852972    1.312    0.238
        78  -9.6277     83.7023     82.2400   7.3223487221e+01   4.9982324017e+01    0.3798218     0.179367  31.06   0.00139264    2.486    0.598
        79  -8.6158      2.3309     78.3104   1.0570460435e+02   6.0703497186e+01    0.1413677   0.07508659 -40.36 0.0004706556    1.670    0.401
        80 -10.3536    213.6223     70.4318   4.1139183360e+01   2.3335053206e+01    0.4826662    0.3126543 -49.96  0.002436264    1.368    0.269
        81 -11.5238      5.6528     67.7069   1.0203975805e+02   6.3031562618e+01    0.7657611    0.5462078  78.26  0.004267131    1.898    0.473
        82 -12.4751    235.4022     49.7644   3.4236764572e+01   2.1911621311e+01    0.9845466    0.5411642 -66.45  0.005269058    1.915    0.478
        83  -8.5767     30.7978    249.1846   1.1452799131e+02   1.7376443120e+01    0.1381873    0.1329978  32.23 0.0006496763    1.340    0.254
        84 -11.4385    249.3810     42.8647   3.1646301972e+01   2.0185194455e+01    0.7895339    0.2275462 -33.61  0.003265346    3.272    0.694
        85 -10.6718    139.8655     64.2269   5.1694813924e+01   4.1044316688e+01    0.5786647    0.4310523 -83.70  0.002781885    1.685    0.407
        86  -9.6688    182.9398     64.3587   4.3896556808e+01   3.0911430931e+01    0.4653518    0.2460376 -22.85  0.001901683    2.616    0.618
        87  -9.6384     87.3747     64.8555   6.6208231561e+01   5.2751179210e+01    0.3106846     0.282023 -81.58  0.001696676    1.363    0.266
        88 -10.8861    235.8532     61.3259   3.6629137266e+01   2.0252770944e+01    0.2620121    0.2470018  82.07  0.001826267    1.261    0.207
        89  -9.4879     21.7582     54.8953   9.0599692435e+01   6.4708680180e+01    0.3587021    0.1493108 -39.33  0.001563533    2.200    0.545
        90 -10.7266    199.0639     44.9205   3.6884801162e+01   3.0066531379e+01    0.6782344    0.3805024 -37.07  0.003484915    1.686    0.407
        91  -8.7201     13.6091     49.2140   9.3037232293e+01   6.6598670752e+01     0.187383   0.09497029 -46.03 0.0009363127    1.628    0.386
        92 -10.4146     80.7277     45.1729   6.1188164617e+01   5.7491282256e+01    0.3588122    0.3131584   8.99  0.002071143    1.116    0.104
        93 -10.1536    140.2043     38.4615   4.3667755269e+01   4.4730293464e+01    0.3788122    0.3381595 -77.27  0.002233563    1.128    0.113
        94  -9.5706     50.6808     42.2422   7.1801761009e+01   6.3493264375e+01    0.3687775    0.2076185 -10.13  0.001504139    2.834    0.647
        95  -9.6043    172.4947     36.4618   3.8029946255e+01   3.7224381046e+01    0.3748029    0.2768524 -49.40  0.002123353    1.306    0.234
        96 -11.6098    234.7092     34.1397   3.1040572508e+01   2.4036421413e+01    0.3203509    0.2558461 -15.85  0.002100376    1.734    0.423
        97  -9.5382     40.6734     34.5166   7.3167023964e+01   6.6330877903e+01    0.2305199    0.1129872 -40.39  0.001093157    2.017    0.504
        98  -8.6822     49.4690    244.0410   1.1034251025e+02   1.6320041650e+01    0.1686933    0.1130912 -78.33 0.0007700652    1.598    0.374
        99  -9.3162    226.3242     32.2929   3.1335518638e+01   2.5919317851e+01    0.1056039   0.09273406  37.89 0.0002970198    1.617    0.381
       100  -9.5079    181.1584     25.1033   3.3989399973e+01   3.6558035930e+01    0.2969095    0.2461543  67.99  0.001864595    1.217    0.179
       101  -9.8770    109.1408     25.2422   4.5492638524e+01   5.3803533521e+01    0.3321734    0.1589447  33.92  0.001312181    2.793    0.642
       102  -9.0371     66.5056     25.0011   5.7749137550e+01   6.3223428749e+01    0.1698265    0.1098252 -54.02 0.0006342129    2.410    0.585
       103  -8.8204     42.8195    242.6389   1.1164216150e+02   1.7353504203e+01    0.1549076    0.1392299  70.91 0.0007350794    1.147    0.128
       104  -9.4688     34.4683    236.7413   1.1300576011e+02   1.9459225751e+01    0.6128702    0.3141329 -33.05  0.002360568    5.168    0.807
       105 -10.7347     25.8124    233.1086   1.1460774323e+02   2.1114900719e+01    0.6236089    0.2909721  89.23  0.002513324    2.271    0.560
       106  -9.6427    202.6048     18.3851   3.0260275420e+01   3.2496891251e+01    0.2612917    0.2148935  73.68  0.001473482    1.259    0.206
       107 -10.0029      3.3035    231.0385   1.1916097223e+02   2.3691743697e+01     0.300961    0.2229375 -28.63  0.001926449    2.167    0.539
       108  -9.2951      2.1398    226.1783   1.1918524026e+02   2.4803729029e+01    0.2271865    0.1789146  60.47  0.001005297    1.059    0.056
       109 -10.7355      7.4703    226.3347   1.1808907113e+02   2.4298482664e+01    0.3423412    0.2807891  12.38  0.002371024    1.614    0.381
       110  -9.8584     10.4113    221.2387   1.1721145864e+02   2.5114608958e+01    0.2623432    0.1609485  70.44 0.0006774086    1.406    0.289
       111 -10.8345      5.9151    218.7165   1.1804366563e+02   2.6060799440e+01    0.2623156    0.2289555 -86.87 0.0004695545    1.219    0.179
       112  -8.4616     52.1870    231.1420   1.0874990031e+02   1.8617630893e+01    0.1763406    0.1207063  58.43 0.0004543987    1.312    0.238
