#   1 NUMBER                 Running object number                                     
#   2 MAG_AUTO               Kron-like elliptical aperture magnitude                    [mag]
#   3 X_IMAGE                Object position along x                                    [pixel]
#   4 Y_IMAGE                Object position along y                                    [pixel]
#   5 X_WORLD                Barycenter position along world x axis                     [deg]
#   6 Y_WORLD                Barycenter position along world y axis                     [deg]
#   7 A_WORLD                Profile RMS along major axis (world units)                 [deg]
#   8 B_WORLD                Profile RMS along minor axis (world units)                 [deg]
#   9 THETA_WORLD            Position angle (CCW/world-x)                               [deg]
#  10 FWHM_WORLD             FWHM assuming a gaussian core                              [deg]
#  11 ELONGATION             A_IMAGE/B_IMAGE                                           
#  12 ELLIPTICITY            1 - B_IMAGE/A_IMAGE                                       
         1 -11.2335     30.8293     16.2450   6.1309058676e+01   7.0454073242e+01    0.2593835     0.191268 -18.09 0.0009245698    1.360    0.265
         2 -10.8068     84.4888      8.4740   3.8206653617e+01   6.0593462619e+01    0.1680883    0.1156486 -39.52 9.857342e-06    1.716    0.417
         3 -10.7055     54.5620     10.9263   4.8109464587e+01   6.6769418774e+01    0.2653302    0.1713981  36.59  0.001545711    1.338    0.253
         4 -10.4814    144.2950      8.6817   2.8331584067e+01   4.6706367883e+01     0.299681   0.08254104 -33.76  0.001236528    3.395    0.705
         5 -11.2462     78.6796      8.0259   3.9441546372e+01   6.1929624642e+01    0.2460333    0.1616749  63.63  0.000450328    1.345    0.257
         6  -9.8705    239.7003      5.3002   2.0308925613e+01   2.7329425129e+01    0.1116742   0.05427625 -62.45 0.0002270043    1.581    0.367
         7 -10.9120     88.3597      4.6328   3.5836731450e+01   6.0031847145e+01    0.1844038    0.1367018 -74.89 0.0009739879    1.631    0.387
         8 -10.8475     20.3354      4.3231   6.0545406490e+01   7.3510611502e+01    0.1252358    0.0751578  12.24 0.0007050744    1.711    0.416
         9 -12.1614    113.6078    231.2017   8.7584700181e+01   9.6782476818e+00    0.6581703    0.2924032 -63.68  0.001667348    3.060    0.673
        10 -11.1345    116.7320    250.5016   8.9353333355e+01   5.4990276823e+00    0.2775902    0.1201684  39.85 0.0004322607    2.126    0.530
        11 -10.9250     93.2182    249.0451   9.4538661692e+01   8.8102972979e+00    0.2151434    0.1908383 -52.39 0.0004044529    1.299    0.230
        12 -10.5451     83.6761    250.8010   9.6912388882e+01   9.6713832338e+00    0.3202774   0.08377272  30.37  0.001151828    3.118    0.679
        13 -15.0135     64.2013    242.2993   1.0058937127e+02   1.3807057635e+01     1.637407     1.037805 -75.97  0.008461184    1.805    0.446
        14 -14.9640     53.1436    225.1204   1.0163373912e+02   1.8898644693e+01      1.52813     1.211071 -80.45  0.008495524    1.319    0.242
        15 -15.5667     94.7621    194.3752   8.7003443885e+01   2.0615970943e+01     2.151425     1.556417 -76.58   0.01037289    1.644    0.392
        16 -15.6409     71.8643    209.5239   9.5188185521e+01   2.0199620295e+01     3.117242     0.716523  36.75  0.009965675    3.416    0.707
        17 -10.8829    102.6760    234.6799   9.0636211698e+01   1.0455983260e+01    0.3619471    0.2254345 -10.12 0.0007905262    2.380    0.580
        18 -10.9728    214.2269    233.3871   6.6618316027e+01  -3.6811902234e+00    0.2040431    0.1379171 -29.05  0.000284755    1.274    0.215
        19  -9.9817     98.0035    233.7065   9.1629706552e+01   1.1286172659e+01    0.1810113     0.162462  29.60 0.0005754239    1.014    0.013
        20 -11.4017    220.3116    231.2188   6.5181434081e+01  -4.0197398885e+00    0.2327946    0.1849784 -11.71 0.0004925737    1.093    0.085
        21 -11.0205    181.4366    232.4607   7.2752281013e+01   3.3885090584e-01    0.2742903     0.162166   6.07  0.001417687    1.835    0.455
        22 -10.2951    130.4719    232.4877   8.3821708609e+01   7.0978109399e+00     0.276724    0.1198753  29.75  0.001185225    2.077    0.519
        23 -10.3048    132.7674    240.1367   8.4376488204e+01   5.3243868567e+00    0.2867834    0.1538172  38.69  0.001309398    1.784    0.439
        24 -10.9269    193.7542    229.6051   6.9849012228e+01  -7.0674231093e-01    0.2364516    0.1269478 -31.58 0.0008171253    1.727    0.421
        25 -11.3138    214.9819    226.5005   6.5364131616e+01  -2.7064068612e+00    0.1938703    0.1526165 -36.88 0.0003889411    1.407    0.289
        26 -17.1395     68.3951    188.3252   9.3366321284e+01   2.5883336198e+01     4.502293     3.392938  16.02   0.02256388    1.452    0.311
        27 -11.6868    125.7939    222.3357   8.3432348281e+01   9.7853309499e+00    0.4200921    0.2902243 -67.35  0.001343716    1.899    0.473
        28  -9.7205     99.2472    223.9151   9.0077817148e+01   1.3196940010e+01    0.1593056    0.1203013 -63.35  0.000558089    1.490    0.329
        29 -11.1499    185.7090    227.3297   7.1067167915e+01   6.6980205610e-01    0.2640782    0.1382756   7.09 0.0009895295    2.519    0.603
        30 -11.1396    159.5194    221.7788   7.5645988097e+01   5.1308401844e+00    0.2752379    0.1977229  -3.23 0.0009572714    1.419    0.296
        31 -11.1562    223.3043    220.2334   6.2854624390e+01  -2.6727440613e+00    0.1974837    0.1732724  -0.09 0.0003693614    1.294    0.227
        32 -11.6774    173.3737    220.0103   7.2390732394e+01   3.5631607102e+00    0.2916846    0.2288614 -46.10  0.001093072    1.439    0.305
        33 -10.5597    193.4642    219.5007   6.8238207997e+01   1.0192368266e+00    0.1285635    0.1054877 -10.18 5.172471e-05    1.014    0.014
        34  -9.2557    128.3076    235.3199   8.4720456301e+01   6.8436256060e+00    0.1366119   0.09573843 -10.48 0.0003230261    1.638    0.390
        35 -10.1150    207.8051    218.3876   6.5324753537e+01  -5.7276855883e-01    0.1649796    0.1040871  12.77 0.0004708567    1.593    0.372
        36 -10.9257    184.1798    213.8211   6.9121168647e+01   3.2221980526e+00    0.2287255    0.1701343 -21.92 0.0003220617    1.205    0.170
        37 -12.1166    183.5210    210.4747   6.8678864452e+01   3.9128569252e+00    0.4374348     0.208882  30.90  0.002048342    2.096    0.523
        38 -11.6409    142.2873    212.7567   7.8058092958e+01   9.3555985198e+00    0.4046711    0.2106723 -40.15  0.001587484    1.978    0.494
        39 -12.1218    138.6716    209.3248   7.8339693827e+01   1.0597369524e+01    0.4416188    0.3444281 -29.45  0.001598361    1.289    0.224
        40 -11.9006    124.9919    212.7356   8.2159651729e+01   1.1911856967e+01    0.3881797    0.2532006 -49.84   0.00118099    1.607    0.378
        41 -10.9277    102.9999    213.9648   8.7779109786e+01   1.4855814092e+01    0.2093693    0.1919463  19.14 0.0003385489    1.030    0.030
        42 -12.0675    153.7607    210.7383   7.5099051454e+01   8.0793228685e+00    0.3758217    0.2764247 -13.28   0.00200668    1.417    0.294
        43 -10.6016    209.5081    211.4873   6.3836345669e+01   3.5567284510e-01    0.1253866    0.1026147 -15.87 0.0002291278    1.051    0.048
        44 -11.5886    228.8490    207.3333   5.9725045166e+01  -1.2859846387e+00    0.2781286    0.1945642 -16.60   0.00178401    1.210    0.174
        45 -11.3245    169.5155    205.9664   7.0815348485e+01   6.7193778743e+00    0.2036272    0.1252005 -41.37 0.0005706995    1.563    0.360
        46 -11.2899    124.2760    205.6310   8.1202755669e+01   1.3553421726e+01    0.2679383    0.2325506   0.75 0.0006723024    1.137    0.120
        47  -9.8460    248.0070    205.6807   5.6360867926e+01  -3.1570502363e+00    0.1486548   0.09001912  53.65 0.0007046403    4.255    0.765
        48 -12.6185    140.9405    197.7111   7.5823574402e+01   1.2702122896e+01    0.8211539    0.4516583  64.42  0.002275005    6.196    0.839
        49 -11.2249    149.3374    204.3420   7.5014175922e+01   1.0025082687e+01    0.3358976    0.2025372 -28.89  0.001550387    1.840    0.457
        50 -12.0528    146.4809    203.4981   7.5528517912e+01   1.0631109536e+01    0.5079387    0.3007114 -21.29  0.002193004    2.206    0.547
        51 -10.8970    121.4850    200.1586   8.0998140485e+01   1.5191183253e+01    0.2675986    0.2026405 -44.41 0.0009899489    1.347    0.258
        52 -12.6951    124.2696    195.9458   7.9591094359e+01   1.5703121056e+01    0.5069586    0.4221186  -0.40  0.002639162    1.250    0.200
        53 -11.4088    225.2991    199.2943   5.8929072597e+01   4.2557971715e-01     0.261068    0.2025706 -55.40  0.001614943    1.804    0.446
        54 -10.4921    212.4035    200.2173   6.1341710499e+01   1.8829228929e+00     0.174517    0.1079659 -46.60  0.000827181    1.690    0.408
        55 -12.0090    134.6812    198.5514   7.7473229282e+01   1.3497256944e+01    0.3069688    0.2510681   7.71 0.0004479509    1.225    0.184
        56 -10.0088    245.2961    197.6772   5.5417977234e+01  -1.6486165353e+00    0.1042615    0.0854428 -49.33 0.0002012051    1.620    0.383
        57 -11.9387    152.3516    196.5528   7.2950965598e+01   1.1170282673e+01    0.2908801    0.2035561  47.95  0.001438364    1.701    0.412
        58 -12.8982    190.6794    194.5187   6.4402887850e+01   5.8327126963e+00    0.6095285    0.3398234  25.55  0.002989962    1.939    0.484
        59 -10.5081    212.5857    193.3844   6.0085954288e+01   3.0268212616e+00    0.2425626    0.1072846 -52.87  0.000958843    3.294    0.696
        60 -10.8691    163.7089    193.0229   6.9754932801e+01   1.0135150333e+01    0.2004721    0.1741319 -22.55 0.0007216476    1.059    0.055
        61 -11.5889    111.8000    192.3679   8.2170790959e+01   1.8481911574e+01    0.2847821    0.2498785 -61.40 0.0006476555    1.224    0.183
        62 -12.3184    110.5956    188.1946   8.1777579556e+01   1.9654279688e+01    0.5849751    0.2505367 -53.41  0.002207658    2.343    0.573
        63 -10.9167    234.1313    191.7356   5.6139741093e+01   5.8116692605e-01    0.2476746    0.1290273 -21.41  0.001241865    2.125    0.529
        64 -14.9827      4.5706    221.2051   1.1302080610e+02   2.4786135257e+01     1.177559     0.555282 -87.11  0.005831418    2.038    0.509
        65 -15.4972     22.1156    220.2031   1.0881150005e+02   2.3401089233e+01      1.83245    0.7665805  50.27  0.008269747    2.159    0.537
        66  -9.5845     14.2745    181.2806   1.0789743262e+02   3.3723169753e+01    0.1765959    0.1443686  68.91  0.001018964    1.132    0.117
        67 -10.1063     17.3918    179.8355   1.0689873063e+02   3.3827371816e+01    0.2268674    0.1676767 -51.65 0.0007244109    1.428    0.300
        68 -11.5681      7.4151    189.4540   1.1038920176e+02   3.2206190841e+01    0.5319411    0.3933312 -39.04  0.002408085    1.636    0.389
        69 -15.0461     15.9783    239.7692   1.1143836518e+02   1.9611345973e+01    0.9230521    0.3977042  89.42  0.004340197    2.514    0.602
        70 -10.2732     17.6717    188.4286   1.0755408531e+02   3.1589836566e+01     0.353071    0.2013545  36.69  0.001751181    1.674    0.403
        71 -11.8213     10.4126    183.6876   1.0915762937e+02   3.3427375925e+01    0.2978186    0.2365247  75.91 0.0003816049    1.141    0.123
        72 -11.3298    173.2857    189.0106   6.6939180313e+01   9.4619357233e+00    0.2436141    0.1806197  46.68  0.001281847    1.634    0.388
        73 -10.8453    123.9409    187.7105   7.8234599148e+01   1.7627274242e+01    0.2965536     0.223051  48.03  0.001052632    1.445    0.308
        74 -12.3487    128.5323    184.2552   7.6445175095e+01   1.7669698380e+01     0.422364    0.2946827 -38.18 0.0008446687    1.459    0.315
        75 -10.5739    248.3648    185.8975   5.2914786965e+01  -1.7306032172e-01    0.1995235     0.153261  -0.59 0.0005959719    1.336    0.252
        76 -11.1081    186.1547    185.2955   6.3586916479e+01   8.2265494841e+00    0.2146723     0.159676   4.40 0.0006118548    1.442    0.306
        77  -9.7964    220.2643    187.6577   5.7707468118e+01   2.9980516220e+00    0.1152408   0.09350353 -55.07 0.0003936032    1.599    0.374
        78 -11.5760     23.5947    178.1660   1.0497718620e+02   3.3698518363e+01    0.5855526    0.2695617  84.90   0.00195181    2.668    0.625
        79 -10.9045    189.6664    180.7044   6.2017807066e+01   8.5709836110e+00    0.1403016   0.09723961 -10.09 0.0005031243    1.643    0.391
        80 -12.3505     96.3361    176.6840   8.3656798701e+01   2.4719949147e+01    0.5028435    0.3502349 -56.92  0.002108887    1.454    0.312
        81 -13.4876     91.2124    167.8086   8.3535198921e+01   2.7772796165e+01    0.9253566    0.6127316 -82.61  0.003855986    2.049    0.512
        82 -12.4689    164.0474    177.3028   6.6696656704e+01   1.3305530514e+01    0.4842639    0.2846505  53.31  0.002057927    2.401    0.583
        83 -17.3166     29.7113    234.5610   1.0800615855e+02   1.9376061412e+01     3.124536     2.354482  60.62   0.01934838    1.167    0.143
        84 -12.5913     50.0978    165.8973   9.5593053041e+01   3.4108063762e+01    0.7161905    0.3082078  41.67  0.002142706    2.311    0.567
        85 -11.2809     78.0890    229.1068   9.5911591592e+01   1.4904994397e+01    0.4323702    0.2912527 -26.72   0.00215267    1.992    0.498
        86 -11.7171     45.6339    176.5301   9.8364879706e+01   3.1813863721e+01    0.5262577       0.3606  30.79  0.002592932    1.465    0.318
        87 -12.5455     47.4304    171.2998   9.7151291994e+01   3.2987803932e+01     0.490115    0.3679414 -83.70  0.001300985    1.353    0.261
        88 -10.7735     32.9863    177.4884   1.0218863015e+02   3.2950033369e+01    0.2413253    0.1978724 -13.61  0.001301222    1.477    0.323
        89 -11.7974     27.3880    173.6151   1.0341170955e+02   3.4533159851e+01    0.7067478    0.3290709  60.04  0.002437472    2.580    0.612
        90 -11.3551     83.6152    227.7104   9.4395713531e+01   1.4487375262e+01    0.4549331    0.2677054  82.89  0.001957595    2.698    0.629
        91 -11.9508    137.0317    177.0129   7.2957512821e+01   1.7896483541e+01     0.234919    0.2191935 -16.33 0.0005795427    1.022    0.021
        92 -11.5871     38.4348    176.3054   1.0045875846e+02   3.2683513088e+01     0.255655    0.2317999 -60.26 0.0003366463    1.122    0.109
        93 -11.3209    101.0496    175.9918   8.2220913865e+01   2.4139284877e+01    0.2167379    0.2143788  14.54            0    1.014    0.014
        94 -10.3332     95.2322    237.6174   9.2763931964e+01   1.0845318357e+01    0.2872855    0.2205427  17.75  0.001506474    1.263    0.208
        95 -13.4287    124.6677    169.2581   7.4579431280e+01   2.1807565046e+01    0.5383351    0.4215754 -57.08  0.001844721    1.336    0.252
        96 -13.0308    131.3271    169.2502   7.2863346733e+01   2.0652395144e+01    0.5338959    0.2967139  31.28  0.002213797    1.873    0.466
        97 -13.5314    153.6983    166.9892   6.6973538231e+01   1.7251174447e+01     0.669637    0.3673013 -36.31  0.002818128    1.889    0.471
        98 -10.9411    197.1708    170.6077   5.8625300369e+01   9.3336791847e+00    0.1853656    0.1240426  20.98 0.0005895486    1.745    0.427
        99 -12.1537     99.2804    168.1756   8.1289480878e+01   2.6375015911e+01    0.3395742    0.2609673 -42.20  0.001001539    1.327    0.246
       100 -11.3058     90.9373    236.9299   9.3703864437e+01   1.1553710067e+01    0.3639038    0.2721229  62.31   0.00108403    1.523    0.343
       101 -11.8456    172.4099    167.0644   6.2849079645e+01   1.4025408305e+01    0.3863573    0.1626467 -47.87  0.001498976    2.300    0.565
       102 -10.3662     32.7039    167.5238   1.0113699898e+02   3.5622099449e+01    0.3000115    0.2195479  87.86  0.001523464    1.375    0.273
       103 -11.5707    137.7885    166.1571   7.0616971854e+01   2.0230250720e+01    0.2856295    0.1992867 -29.67 0.0006900084    1.560    0.359
       104 -11.4640    112.7121    167.0789   7.7340968432e+01   2.4391370754e+01    0.2098624    0.1937222 -45.38 0.0003073452    1.080    0.074
       105 -10.2052     18.9403    167.0300   1.0524313304e+02   3.7057876105e+01    0.2271254    0.1512403 -39.76  0.001121306    1.706    0.414
       106 -11.1739    205.8142    164.8738   5.5928490910e+01   9.0741560028e+00    0.2103138    0.1628978 -18.09 0.0007145517    1.270    0.213
       107 -12.0391    103.8456    164.5791   7.9314574588e+01   2.6514703831e+01    0.5144358    0.2366075 -62.23   0.00179925    2.583    0.613
       108 -13.0306     96.2805    159.3576   8.0468855544e+01   2.9097493129e+01    0.6988703       0.3315 -47.60  0.002622822    2.101    0.524
       109 -11.5786     88.2432    231.1597   9.3673673991e+01   1.3127599061e+01    0.4216563    0.2813079 -72.24  0.002162104    1.788    0.441
       110 -11.0134     35.9430    162.9983   9.9583841290e+01   3.6497820940e+01    0.2203717    0.2018324  81.75 0.0004160606    1.050    0.048
       111 -13.1308    170.2821    159.7559   6.1800891280e+01   1.5892879913e+01    0.4755677     0.422929 -60.39  0.002664426    1.258    0.205
       112 -12.0610     12.3486    142.8372   1.0474131113e+02   4.4072402273e+01    0.6384629    0.4465988 -76.77  0.003130396    1.295    0.228
       113 -11.6677     28.1161    160.3735   1.0170043258e+02   3.7996134000e+01     0.316347    0.2492212 -76.16 0.0005985108    1.181    0.153
       114 -14.0121     21.8764    152.8413   1.0278331744e+02   4.0602083445e+01     1.064875    0.9459375  -7.50  0.004600616    1.284    0.221
       115 -10.5308    210.5102    160.5256   5.4258239643e+01   9.1517528347e+00    0.1339725    0.1116174 -29.03 0.0008098799    1.029    0.028
       116 -11.2053     46.3145    158.9202   9.5767361336e+01   3.6435103393e+01    0.4568997    0.2523471 -13.59  0.001637407    3.136    0.681
       117 -12.0481    127.0470    156.2748   7.1302307860e+01   2.4450483089e+01    0.3033436    0.2638891  61.51 0.0003258552    1.305    0.233
       118 -12.3159    113.5263    157.5072   7.5195950563e+01   2.6586094133e+01    0.3944171    0.2430382  59.59  0.001536724    2.259    0.557
       119 -11.5300     81.7240    155.9258   8.4159737497e+01   3.2340583985e+01    0.3189922     0.221188  40.61 0.0009089675    1.451    0.311
       120 -10.3581    109.1894    237.4039   8.9443295459e+01   9.0251534727e+00    0.2947858    0.1294386 -40.95  0.001216111    2.793    0.642
       121 -12.5126     88.6244    153.7048   8.1631935615e+01   3.1810325064e+01    0.4039751    0.3385543 -70.30  0.001664449    1.257    0.205
       122 -10.2134      2.6506    154.5276   1.0902343896e+02   4.1627666364e+01     0.257871    0.1506445 -79.18 0.0009095318    1.517    0.341
       123  -9.4019      5.6422    152.7478   1.0793311713e+02   4.1898886225e+01    0.1961089     0.132579   9.51 0.0005721733    1.745    0.427
       124 -11.4114    212.1961    153.9628   5.2680453509e+01   1.0080049393e+01    0.2084531    0.1942117  24.28 0.0006360236    1.245    0.197
       125 -10.2511    141.3027    154.6766   6.7348316615e+01   2.2206852082e+01    0.1499029    0.1225051  86.77 0.0003735648    1.636    0.389
       126 -10.4913    103.6034    245.1127   9.1695932193e+01   8.2381480199e+00    0.2044002    0.1314539 -64.09 0.0009222023    1.890    0.471
       127 -11.1913     24.8993    144.8443   1.0078935161e+02   4.2492931689e+01    0.2801327    0.2362683 -55.04 0.0004621785    1.133    0.117
       128 -12.2178    126.2137    151.5712   7.0514232068e+01   2.5713532080e+01    0.3632518    0.2746332  30.72  5.63883e-05    1.369    0.270
       129 -13.3893    109.0259    148.7392   7.4609018228e+01   2.9543718736e+01    0.9083619    0.3654094 -45.21  0.003085422    2.524    0.604
       130 -13.6355    102.4700    142.4760   7.5141870829e+01   3.2278225160e+01     0.874379    0.4948278  47.77  0.002347919    1.933    0.483
       131 -10.5016      2.6541    170.7364   1.1033808623e+02   3.7368572654e+01    0.3052603    0.1757769 -11.59  0.001411334    2.480    0.597
       132 -12.1903    146.7379    150.2632   6.5077661829e+01   2.2189630336e+01    0.3462121     0.263611  87.05  0.001563913    1.955    0.489
       133 -11.6657     60.1431    150.2154   8.9927871049e+01   3.7023297799e+01    0.3292316    0.2585125 -59.69  0.000935205    1.226    0.184
       134 -11.3667     44.6824    149.7996   9.4919486221e+01   3.9090884794e+01    0.4428612    0.1659842 -64.83  0.001569429    2.472    0.596
       135 -10.8779    180.5038    150.5003   5.7757952555e+01   1.5988085898e+01    0.1432399    0.1285188 -31.72 0.0008106746    1.008    0.008
       136 -13.0425     80.5682    142.4325   8.1852762738e+01   3.6043437839e+01    0.6310296    0.4182022  62.17  0.002618636    1.962    0.490
       137 -10.6934     34.1838    149.5563   9.8345229208e+01   4.0313156741e+01    0.2478036    0.1929147 -25.60 0.0003921353    1.466    0.318
       138 -11.6562    154.2009    149.0772   6.3073232765e+01   2.1058639235e+01    0.2580203    0.2179212  34.28 0.0007033612    1.240    0.194
       139 -10.4998    223.9507    148.1519   4.9650489025e+01   9.3138692889e+00    0.1953292    0.1546474 -54.18 0.0006900724    1.329    0.248
       140 -12.9347    101.5346    156.0521   7.8285615293e+01   2.9042513504e+01    0.5190858    0.3520234  64.11  0.001567689    1.979    0.495
       141 -11.2563    128.8086    147.1842   6.8873442808e+01   2.6260659057e+01    0.2240413    0.2106757  78.54 0.0003440803    1.178    0.151
       142 -10.3007    116.3150    146.3319   7.2040624811e+01   2.8798759320e+01    0.1629212    0.1218305 -15.63 0.0007046086    1.683    0.406
       143 -12.2210     54.7424    145.2214   9.0828224755e+01   3.9083838797e+01    0.5719028    0.3055455  51.14  0.002244156    2.212    0.548
       144 -10.8008     57.5235    143.5222   8.9598156182e+01   3.9172332598e+01    0.3396137    0.2444773  59.74  0.001564916    1.597    0.374
       145 -11.7033     36.7222    143.8678   9.6664628687e+01   4.1588616726e+01    0.5353946    0.2355562 -33.67  0.001770676    3.424    0.708
       146 -11.2758     93.8445    141.6582   7.7548578238e+01   3.4012271989e+01    0.3342164    0.1765409 -53.80  0.001190211    1.859    0.462
       147 -10.5853     82.2223    234.7337   9.5539097418e+01   1.3153399457e+01    0.2537205    0.2370644  82.27 0.0009223084    1.167    0.143
       148 -10.3946    139.6722    141.2921   6.4792497431e+01   2.5541789223e+01    0.1516834    0.1227113  83.40 0.0003425938    1.622    0.384
       149 -11.8124     84.7997    149.4718   8.1958764485e+01   3.3528992393e+01    0.3395559    0.2701813 -47.60 0.0006946917    1.242    0.195
       150 -12.2304     38.9635    137.8103   9.4938900953e+01   4.2985564293e+01    0.4938314    0.3013354  -5.92  0.002069572    2.246    0.555
       151 -11.4332    159.2569    137.5408   5.9369310684e+01   2.2576714875e+01    0.2885148    0.1960766 -44.85 0.0008874714    1.383    0.277
       152 -10.5991     50.9163    138.1323   9.0859679615e+01   4.1482373879e+01    0.2226245    0.2111322 -80.75 0.0002910836    1.055    0.052
       153 -11.3160     53.6399    135.7276   8.9476727050e+01   4.1776312259e+01    0.4633011    0.2158106  43.42  0.001745241    2.323    0.570
       154 -11.8124    133.7583    131.3585   6.3963770257e+01   2.8944415170e+01    0.3193847    0.2483545  22.99 0.0008911822    1.471    0.320
       155 -12.1718    138.6717    132.0136   6.2889982570e+01   2.7819081362e+01    0.5723469    0.3869712 -75.60  0.001587306    2.255    0.557
       156 -12.0357     61.4449    134.4028   8.6532929059e+01   4.1064410443e+01    0.5238555    0.2862825  31.26  0.001951099    1.859    0.462
       157 -10.0224      2.6052    134.1077   1.0707299165e+02   4.7062535555e+01    0.3224662     0.107256 -70.29  0.001222256    2.448    0.591
       158 -12.6474    103.9103    133.1724   7.2605030212e+01   3.4313489151e+01    0.5276364     0.290286  36.07  0.002096173    1.855    0.461
       159 -12.2122     96.2433    133.3912   7.4965803678e+01   3.5666610593e+01    0.5227355     0.324325   1.01  0.001052339    2.967    0.663
       160 -11.7211     80.3105    148.0660   8.3075632959e+01   3.4615854320e+01    0.3175205    0.2515893  62.76 0.0003222809    1.437    0.304
       161 -10.7970     70.9760    133.7360   8.3165415661e+01   3.9828433154e+01    0.2126395    0.1955657  29.53 0.0002002434    1.113    0.102
       162 -10.7059     28.9822    133.9955   9.7834830437e+01   4.5046197264e+01    0.1704722    0.1653845 -57.64  0.000455399    1.054    0.051
       163 -11.9273     35.6677    131.9403   9.5126291112e+01   4.4925505115e+01    0.2735298    0.2204439 -81.17 0.0009606948    1.259    0.206
       164 -13.2404    157.8958    128.6554   5.7627811585e+01   2.4713689664e+01    0.5697381    0.3923697 -45.66  0.002361808    1.370    0.270
       165 -11.3580     12.7845    133.4788   1.0347340723e+02   4.6554785169e+01    0.4057066     0.268163  49.09  0.001176378    1.652    0.395
       166 -11.6018     30.3629    129.8452   9.6686309519e+01   4.6030526890e+01    0.3908059    0.2277409  74.52  0.001588757    2.366    0.577
       167 -10.1858     69.7107    129.9443   8.2780917628e+01   4.1012878541e+01    0.2152516    0.1966041 -54.83 0.0004529827    1.067    0.063
       168 -11.1209     92.5038    129.0035   7.5104518521e+01   3.7433850827e+01    0.2420208    0.1533492 -52.81 0.0003780906    1.556    0.357
       169 -11.6093     84.4744    128.4658   7.7539838117e+01   3.8981448336e+01    0.3401661    0.1532731 -55.17  0.001219005    2.202    0.546
       170 -10.9955     15.3753    127.3357   1.0173978423e+02   4.8008431384e+01    0.4007972    0.2442073 -76.97  0.001785273    1.564    0.361
       171 -10.9681     10.8090    123.5737   1.0289385451e+02   4.9342834673e+01    0.3449809    0.2384328  36.06  0.001629234    1.580    0.367
       172 -11.7085     59.2023    126.8329   8.5759414045e+01   4.3379699013e+01    0.3363859    0.2135735 -54.99  0.001491167    1.490    0.329
       173 -12.8188    144.0946    132.1077   6.1595268714e+01   2.6719250363e+01    0.4172758    0.3280686 -12.08  0.001210949    1.569    0.363
       174 -10.5900    100.5461    125.4733   7.1779561075e+01   3.6821640297e+01    0.1559484    0.1521499 -28.07 2.372505e-05    1.013    0.012
       175 -11.2655    189.9074    121.9503   4.9811280347e+01   1.9833976271e+01    0.3641664    0.2497611 -77.24  0.001704321    2.159    0.537
       176 -11.4988     67.4434    122.4987   8.1911917205e+01   4.3289947400e+01    0.2656407    0.2575223 -35.64 0.0005899438    1.005    0.005
       177 -11.7834     41.9539    120.7648   9.0792664977e+01   4.7209908161e+01    0.5622237    0.3778878 -17.50  0.001954468    1.820    0.451
       178 -10.7778     37.0465    120.6897   9.2616874658e+01   4.7784596005e+01     0.357019    0.2350694  39.59  0.001684253    1.624    0.384
       179 -12.1511     54.2105    117.0897   8.5459537272e+01   4.6615157888e+01    0.5431569    0.3020115  46.61  0.002219801    2.065    0.516
       180 -10.8823     49.1885    115.8461   8.7060029948e+01   4.7606759356e+01    0.3781189    0.2810746 -11.10  0.001122881    1.568    0.362
       181 -11.0024    205.4230    121.6015   4.7152206068e+01   1.7063731625e+01    0.2415024     0.182582 -47.57  0.000571059    1.153    0.133
       182 -10.7724     24.0000    120.0017   9.7422904373e+01   4.9257401984e+01    0.3578292    0.1869942 -78.51  0.001337702    2.097    0.523
       183 -10.8774     23.3794    115.7360   9.6937766074e+01   5.0441454320e+01    0.3086622    0.1897796 -45.63   0.00146512    1.520    0.342
       184 -10.8408      1.9670    121.0096   1.0582018108e+02   5.0572349199e+01    0.2115679    0.1987977 -13.23 0.0006978691    1.185    0.156
       185 -12.0808    101.5033    120.1113   7.0165101623e+01   3.7929734534e+01    0.6377541    0.3111684  53.79   0.00217789    2.747    0.636
       186 -11.0548     31.5230    118.8893   9.4371085615e+01   4.8840910399e+01    0.2653813    0.2185568  19.38  0.001420962    1.299    0.230
       187 -11.0697    155.2006    117.2057   5.5495819794e+01   2.7631971435e+01    0.2063572    0.1750359 -79.56 0.0004585417    1.339    0.253
       188 -10.8767    105.1465    114.8326   6.7725159591e+01   3.8462001851e+01     0.235064    0.2152327 -87.23 0.0005525343    1.207    0.171
       189 -10.6912     49.0962    122.8861   8.8576394256e+01   4.5777066838e+01    0.4699961    0.2706844  85.86  0.001196592    3.001    0.667
       190 -11.4519    191.1141    112.7663   4.7565707944e+01   2.1308529420e+01    0.4256783    0.2919245  11.23 0.0007963395    2.670    0.625
       191 -11.2302     50.5011    107.6451   8.4702443552e+01   4.9535291473e+01    0.3488535    0.2513997  -6.12  0.001598028    1.651    0.394
       192 -11.8073     53.5444    110.7935   8.4276349320e+01   4.8322132284e+01    0.3674754    0.3031493 -63.33  0.000769195    1.229    0.186
       193 -12.0587     55.9451    106.3309   8.2294386446e+01   4.9108618581e+01    0.3909875    0.2974513  65.92  0.001523921    1.691    0.408
       194 -10.9666    242.2557    111.1243   3.9959836305e+01   1.2688366552e+01    0.1854489    0.1655988 -71.38 0.0003478648    1.235    0.191
       195 -10.7825     82.6794    113.9042   7.4603655303e+01   4.2917857153e+01    0.3422237    0.1954191 -59.53  0.001364424    1.916    0.478
       196 -10.3174    159.6621    108.7086   5.2480231428e+01   2.8411266761e+01    0.1440665    0.1170528   5.18 0.0006623946    1.643    0.391
       197 -11.8240    153.2118    107.0223   5.3420592482e+01   3.0104922082e+01    0.3186379    0.2455985  83.15   0.00133532    1.615    0.381
       198 -10.2375    117.0304    103.6817   6.1359059028e+01   3.8526127985e+01    0.2182835    0.1979071  38.57 0.0006144742    1.118    0.105
       199 -11.7042     78.8482    100.7735   7.2439833722e+01   4.6736438444e+01    0.4151416    0.2903301  62.86  0.001744756    1.913    0.477
       200 -11.1410     54.0066     92.5030   7.9462126364e+01   5.2754045585e+01    0.2714383    0.2049062  45.19  0.001012242    1.465    0.317
       201 -11.5000     59.4249     92.1682   7.7221963569e+01   5.2013126676e+01     0.318556    0.2351913  33.35   0.00157185    1.366    0.268
       202 -11.7790     57.9759     99.7940   7.9855010098e+01   5.0419716401e+01    0.4269802    0.3920909  -6.48   0.00183578    1.078    0.073
       203 -10.8209     59.6457     95.7424   7.8125148300e+01   5.1137815811e+01    0.4040974    0.2638516  43.67  0.001039172    1.653    0.395
       204 -11.0617     21.7512     99.1780   9.4505399952e+01   5.4873025379e+01    0.3690524     0.288759 -50.22  0.001373693    1.138    0.121
       205  -9.9370    237.5606     98.5476   3.8080438779e+01   1.5423991984e+01    0.1242964   0.09524071 -52.95 3.638713e-05    1.073    0.068
       206 -10.0260    173.3027     98.3264   4.7323568392e+01   2.7523618065e+01    0.1366172     0.112961  -0.47 0.0004309006    1.642    0.391
       207 -10.2286    197.2604     96.2328   4.2896292200e+01   2.3048411430e+01    0.1800678    0.1391489 -66.00 0.0003216861    1.290    0.225
       208 -11.0572    149.9799     95.9960   5.1307036644e+01   3.2952113993e+01    0.2222226    0.2121649 -69.31 0.0004154405    1.004    0.004
       209 -10.6932     34.5331     94.4684   8.8037128943e+01   5.4791332004e+01    0.1449835    0.1300855 -33.34 7.897532e-05    1.022    0.021
       210 -10.2340    104.7031     91.3602   6.1408118779e+01   4.3738291038e+01    0.1551331     0.121256 -85.56 0.0007033441    1.708    0.415
       211 -13.7926     53.2908     85.2804   7.7710531724e+01   5.4537273781e+01    0.9776682    0.7083361  35.75  0.004915276    1.411    0.291
       212 -12.5418     50.9497     79.4663   7.6954230983e+01   5.6192181670e+01    0.7075332    0.2154629  40.04  0.002307529    3.457    0.711
       213 -10.2101     21.4936     91.4973   9.3000416896e+01   5.6820576153e+01    0.1396435    0.1258801 -41.23 0.0008105655    1.021    0.021
       214 -11.4524      3.6698     88.8241   1.0039993801e+02   5.8753318592e+01    0.5003237    0.1397223 -57.08  0.001911333    2.552    0.608
       215 -10.3136     95.3469     89.4225   6.3689389681e+01   4.6083802481e+01    0.2697291    0.1448972  38.91 0.0003469623    1.882    0.469
       216 -10.3243     11.7761     87.8299   9.6561864749e+01   5.8491927071e+01    0.3627881    0.1614427 -78.49  0.001312781    2.955    0.662
       217  -9.9461    208.5058     86.5226   3.9186834812e+01   2.2490523051e+01    0.1299351     0.110226 -56.06 7.425313e-05    1.015    0.015
       218 -10.7499     62.5697     83.3245   7.3404213033e+01   5.3514822086e+01    0.2632943    0.1441457 -54.32 0.0006790614    1.959    0.489
       219 -10.4370    172.0255     81.9941   4.3572039204e+01   3.0673175480e+01    0.1661218    0.1494002 -63.72 0.0003418508    1.016    0.015
       220 -11.0430    212.7122     80.9669   3.7462957010e+01   2.2572411495e+01    0.2580642    0.1731178  45.10  0.001441733    1.965    0.491
       221 -10.6267    207.7204     79.0822   3.7681553531e+01   2.3821642362e+01    0.2166121    0.1636161 -31.56  0.000720665    1.457    0.314
       222 -10.7456    183.3622     78.3072   4.0871914910e+01   2.8869406146e+01    0.3074321    0.2439314 -19.10  0.001703488    1.631    0.387
       223 -10.5713    153.1213     80.2004   4.6535507487e+01   3.5142520751e+01    0.1990091    0.1936737  34.93 0.0003185659    1.165    0.142
       224 -12.3675     29.0362     79.9400   8.6788768348e+01   5.8875271769e+01    0.3674846    0.2058389  34.55  0.001486423    1.903    0.474
       225 -10.5428     87.9866     78.9777   6.2866239193e+01   4.9724148334e+01    0.2354333    0.2270605  26.82  0.001317851    1.015    0.015
       226 -10.9410    112.1005     76.1058   5.4773178091e+01   4.5130575617e+01    0.2903615    0.2481554  20.60 0.0007084767    1.327    0.247
       227 -10.9253    115.5268     74.9466   5.3515307507e+01   4.4577749959e+01    0.2948113    0.2492677  -5.77  0.001281418    1.436    0.304
       228 -11.3286     74.8921     75.6003   6.6312668120e+01   5.2963730039e+01    0.3397156    0.2490635  29.24 0.0008158914    1.372    0.271
       229 -10.9291     50.7156     74.0228   7.5359926545e+01   5.7413275565e+01    0.2729761    0.2034073  19.20 0.0005977066    1.346    0.257
       230 -10.1577    219.6102     72.7439   3.4931144620e+01   2.2531952937e+01     0.180298   0.09236566 -49.08 0.0006205713    1.626    0.385
       231 -11.5294    100.9422     69.5093   5.5829826476e+01   4.8791296858e+01    0.3803362    0.2147929 -40.02  0.001668554    1.851    0.460
       232 -11.2791    197.8215     66.5345   3.6161890322e+01   2.7709954059e+01    0.3674927     0.282849  14.18   0.00133111    2.261    0.558
       233 -13.3182     28.3534     64.1269   8.2504857686e+01   6.2487073650e+01     1.119669    0.3519005  32.10   0.00419723    3.067    0.674
       234 -10.1148    188.4627     65.7844   3.7202658110e+01   2.9759891621e+01    0.2633199    0.1059734 -44.00  0.001136421    2.196    0.545
       235 -11.6576    177.7607     64.7867   3.8457784916e+01   3.2197786712e+01    0.2717796    0.2098001 -40.94 0.0006464345    1.296    0.228
       236 -12.6802     32.1462     74.3308   8.3780102344e+01   5.9817800925e+01    0.4645222    0.2505285   6.09  0.001971859    2.349    0.574
       237 -10.6934    207.9063     62.1829   3.4008622809e+01   2.6326957655e+01    0.2181128    0.1677832  -7.97  0.001239219    2.113    0.527
       238  -9.8097    113.7850     62.8862   5.0242965031e+01   4.7060336245e+01    0.1876555    0.1613837 -83.91 0.0003007103    1.292    0.226
       239 -10.6170     45.7384     60.9795   7.3178407445e+01   6.0846634229e+01    0.1989577    0.1750634 -14.11 0.0007381358    1.053    0.050
       240 -10.5036    101.7945     63.2172   5.3547098792e+01   4.9702950520e+01    0.1966868    0.1648462  21.84 0.0004056565    1.323    0.244
       241 -10.4882    198.3818     59.2084   3.4452775702e+01   2.8669398822e+01    0.1834128   0.09849347 -48.89 0.0005152518    1.628    0.386
       242 -10.3286    153.5505     57.5998   4.0418772935e+01   3.8695854595e+01    0.2137926     0.194223  -4.09  0.001264561    1.399    0.285
       243 -11.8857     51.5967     56.0599   6.8792992444e+01   6.0868248596e+01    0.5456097    0.3004369  53.74  0.002258589    2.721    0.633
       244 -10.7246    224.4873     56.6660   3.1144790822e+01   2.3928518178e+01    0.1933832    0.1051681  69.94  0.001091092    1.986    0.497
       245 -10.2761    192.3306     56.6884   3.4608113568e+01   3.0281791038e+01    0.1365552   0.08437052 -68.48 0.0003480051    1.672    0.402
       246 -10.7705     28.4190     55.7230   7.9677605151e+01   6.4222772913e+01    0.3682468    0.1788188  44.08  0.001557151    2.767    0.639
       247 -10.7110      3.7732     59.2315   9.3901378921e+01   6.5702180780e+01    0.2888871    0.1789056 -10.58  0.001199443    1.609    0.378
       248  -9.9864     93.9831     51.5285   5.1830643720e+01   5.3323616668e+01    0.2073175    0.1065815  33.51 0.0008093332    2.501    0.600
       249 -10.3265    174.8376     50.3649   3.5338161625e+01   3.4933193452e+01    0.1873283    0.1088314  56.76 0.0009527795    1.776    0.437
       250  -9.8168    152.7288     50.6880   3.8686738832e+01   3.9884807574e+01    0.1248376    0.1047762  28.36 0.0001888225    1.551    0.355
       251 -11.4283     45.5882     49.8563   6.9127841835e+01   6.2963510401e+01    0.2492343    0.2040948  33.19 0.0005544911    1.224    0.183
       252 -10.3115     30.5596     50.5405   7.6712291827e+01   6.4978231975e+01    0.2639603    0.1214999  28.62  0.001188193    2.101    0.524
       253 -10.6416     18.5311     48.4295   8.2374222057e+01   6.6764304843e+01    0.3779892    0.1559219 -36.48  0.001117981    2.419    0.587
       254 -10.6790      1.9106     47.0499   9.1488775347e+01   6.8420823191e+01    0.2029226    0.1557447 -29.33  0.001281835    1.068    0.064
       255 -11.3416    195.4921     44.2583   3.1430469440e+01   3.1322017327e+01    0.3495105    0.1842215 -86.01  0.001145532    2.275    0.560
       256 -10.1378    122.5128     41.5509   4.1523831877e+01   4.8194935207e+01    0.1360302    0.1224725  70.96 1.595835e-05    1.005    0.005
       257 -11.4266     34.7481     39.9191   7.0357156783e+01   6.6331452363e+01    0.4992462    0.2214918  27.85   0.00220166    2.270    0.560
       258 -10.6555     60.3253     38.6701   5.8305217890e+01   6.2221685598e+01    0.2345366    0.1962619  19.66  0.001005894    1.103    0.093
       259 -11.9790     55.3778     37.1369   5.9659393243e+01   6.3373167060e+01    0.4836853    0.2910053  35.65  0.001093073    1.519    0.342
       260 -11.3517      9.8876     36.9122   8.3135143898e+01   6.9804999026e+01     0.242372    0.1718363 -13.33 0.0008260413    1.247    0.198
       261 -10.0392    169.5250     36.4781   3.2579095816e+01   3.7939708088e+01    0.1299235    0.1079702 -78.17 0.0001883156    1.044    0.042
       262 -11.7372     31.8879     32.1296   6.8450519251e+01   6.8022045808e+01    0.3790964     0.216945 -33.04  0.002008175    1.765    0.433
       263 -10.5929    106.7857     32.2491   4.1835686196e+01   5.3045393748e+01    0.2185077    0.1730676 -47.67 0.0009442861    1.398    0.285
       264 -10.8775     44.0997     33.2554   6.2916376330e+01   6.5934432093e+01    0.3051323    0.1586093  23.78  0.001374157    2.248    0.555
       265 -11.3206     77.7209     31.0526   4.9084443900e+01   5.9726203837e+01    0.2746654    0.1835662 -69.84  0.001166207    2.593    0.614
       266 -10.3425    232.2385     30.9498   2.5465003696e+01   2.5807771946e+01     0.155218    0.1140527 -58.35 0.0003059054    1.069    0.065
       267  -9.5493    169.4811     31.4339   3.1325393698e+01   3.8563315502e+01    0.1265125    0.1068096 -83.27 9.355597e-05    1.010    0.010
       268 -10.9457     71.7609     29.9795   5.0564739043e+01   6.1122878738e+01    0.1621135    0.1116233 -27.61  0.000717011    1.612    0.380
       269 -10.3460     38.7853     29.0427   6.3539596386e+01   6.7431731969e+01     0.209989    0.1333681  -3.41 0.0009332488    1.924    0.480
       270 -10.5441    119.0261     25.6095   3.7135138379e+01   5.0937834605e+01    0.2205113    0.1792494  15.51 0.0006477731    1.570    0.363
       271 -11.4935     84.3849     23.7292   4.4249073905e+01   5.9130384493e+01    0.4232577    0.2815156 -65.95  0.002122556    2.251    0.556
       272 -10.0298    250.0020     22.2399   2.2746548860e+01   2.3699175381e+01    0.1247856   0.07675967  85.94 0.0007550097    1.586    0.369
       273 -10.0673     54.9696     21.6981   5.3013835469e+01   6.5517071416e+01    0.1800464    0.1409405  42.10 0.0003845862    1.142    0.124
       274  -9.9511     20.6926     22.6899   7.0267490138e+01   7.1022973858e+01    0.1272041   0.08174964  -3.49 0.0006976282    1.617    0.382
       275 -10.6123    238.1215    248.6775   6.4873101835e+01  -8.2938719165e+00    0.1805881     0.125419 -29.72 0.0007217207    1.348    0.258
       276 -11.0150    215.6717     15.5345   2.3617509670e+01   3.0691713674e+01    0.1899045    0.1579436 -71.09 0.0005376433    1.148    0.129
       277 -10.0362     83.1315    245.9054   9.6531889783e+01   1.0718203194e+01    0.2048527    0.1471216  46.19  0.001059595    1.289    0.224
       278 -10.7835     83.1897    241.0751   9.6004701879e+01   1.1698452903e+01    0.3446386    0.2981659 -51.98    0.0021521    1.310    0.236
       279 -10.9431    213.7379     10.4398   2.2734244336e+01   3.1611375586e+01    0.2068988   0.09284858  85.27  0.001137384    2.108    0.526
       280 -11.6977    179.7335    244.6337   7.4982930353e+01  -1.4603743923e+00     0.222352    0.1825032   5.27 0.0004001948    1.082    0.076
       281  -9.6992    115.5141    245.5231   8.9009829104e+01   6.5950549784e+00    0.1315834    0.1129456  20.58 0.0001160347    1.005    0.005
       282  -9.8732    198.4898    242.6220   7.1000558768e+01  -3.3321309922e+00    0.1207351   0.09356705  -1.90 1.932738e-05    1.032    0.031
       283 -12.4567    116.1460    240.0880   8.8169162610e+01   7.5597213241e+00    0.2506939    0.2416097 -23.72 0.0005537363    1.165    0.141
