#   1 NUMBER                 Running object number                                     
#   2 MAG_AUTO               Kron-like elliptical aperture magnitude                    [mag]
#   3 X_IMAGE                Object position along x                                    [pixel]
#   4 Y_IMAGE                Object position along y                                    [pixel]
#   5 X_WORLD                Barycenter position along world x axis                     [deg]
#   6 Y_WORLD                Barycenter position along world y axis                     [deg]
#   7 A_WORLD                Profile RMS along major axis (world units)                 [deg]
#   8 B_WORLD                Profile RMS along minor axis (world units)                 [deg]
#   9 THETA_WORLD            Position angle (CCW/world-x)                               [deg]
#  10 FWHM_WORLD             FWHM assuming a gaussian core                              [deg]
#  11 ELONGATION             A_IMAGE/B_IMAGE                                           
#  12 ELLIPTICITY            1 - B_IMAGE/A_IMAGE                                       
         1 -11.6649    103.5060     12.2156   7.1456082263e+01   5.7284343054e+01     0.369839     0.316634  59.15  0.002075793    1.287    0.223
         2 -11.7076     95.0562     12.7961   7.3992218121e+01   5.9031721377e+01     0.463544    0.3215142 -29.09  0.002527973    1.453    0.312
         3  -9.5422    171.7924      2.5956   5.5145991589e+01   4.1378122810e+01    0.2024145     0.126243  86.66  0.000740018    1.719    0.418
         4  -9.6960     90.1410    246.1154   1.2667337396e+02   1.5168813342e+01    0.2010544    0.1181698  56.59 0.0008491639    1.317    0.241
         5 -16.2437    148.9033    182.8348   1.0809871269e+02   1.6467470683e+01      1.74517    0.4896388  39.98  0.005886172    3.505    0.715
         6 -19.0288    145.0731    163.4975   1.0552352325e+02   2.0748229268e+01     6.297237     5.486489 -65.88   0.01683329    1.247    0.198
         7 -10.1298    246.7306    159.9224   8.5327801967e+01   1.6821709674e+00    0.2285109     0.212793   0.00 0.0006016879    1.205    0.170
         8 -11.3122    105.0031    231.5004   1.2282600848e+02   1.5360466472e+01    0.4397561    0.2770301  63.68   0.00181978    1.466    0.318
         9  -9.5874      6.0979    171.1372   1.3625610732e+02   3.8336004583e+01    0.1546089    0.1214994 -79.23 0.0005395805    1.268    0.212
        10  -9.2295    108.1901    222.1914   1.2130294224e+02   1.6401449909e+01    0.2083992    0.1354673  56.08 0.0007231869    1.282    0.220
        11  -9.7578    250.2547    146.6959   8.1961252794e+01   2.8435209027e+00    0.5839127    0.1522257 -35.49  0.002033697    3.537    0.717
        12 -10.3988    248.0488    137.8811   8.0389347880e+01   4.4834626228e+00    0.7417869    0.2280007 -40.35   0.00259829    3.483    0.713
        13 -11.6229    244.6758    127.0553   7.8491621427e+01   6.6880267873e+00     2.507326    0.6265157 -45.04  0.005089446   10.358    0.903
        14 -10.9856    241.5384    119.5825   7.7262060813e+01   8.4133938612e+00     1.112759    0.2724807 -45.04  0.002342336    9.130    0.890
        15 -10.1283     74.5085    140.0877   1.1776418961e+02   3.7578512856e+01    0.3908145    0.2368685  79.48  0.001683466    2.118    0.528
        16 -10.7171    235.2626    136.3622   8.2140034968e+01   7.1835646970e+00    0.5977507    0.4031948  75.28  0.001781433    2.733    0.634
        17 -10.4753    240.3267    134.2023   8.0814862475e+01   6.5024389003e+00    0.6383114    0.2933235 -49.57  0.002336412    3.456    0.711
        18 -11.0417    221.9322    130.3360   8.3051109196e+01   1.0819465307e+01    0.5214314    0.3959437  14.98  0.001683981    1.417    0.294
        19  -8.6477     24.4190    133.2203   1.2913608989e+02   4.4791550680e+01    0.1729733   0.09293614 -85.79 0.0009498909    1.682    0.405
        20 -10.9302    101.0063    229.0071   1.2328642676e+02   1.6340229781e+01    0.3439807     0.261485  52.82 0.0009515834    1.079    0.073
        21  -8.7265      2.4567    212.7731   1.3904153795e+02   3.0786223448e+01    0.1246687   0.07399788 -76.99 0.0006782861    1.578    0.366
        22 -11.9058    240.9157    242.6486   1.0101111565e+02  -6.9861694148e+00     0.204477    0.1634093  19.51  0.000426325    1.160    0.138
        23 -11.0290     10.9294    206.5616   1.3735071952e+02   3.1129643174e+01    0.3225875    0.2213553  37.98  0.002480458    1.707    0.414
        24 -11.8509     47.1796    201.6739   1.3061937036e+02   2.8260915974e+01    0.7459139     0.342115  87.31  0.003936551    2.402    0.584
        25 -11.2611    221.1488    238.0770   1.0352653315e+02  -3.6141890088e+00    0.3124165    0.2529264  48.85  0.002261193    1.538    0.350
        26  -9.3452    231.3485    118.3175   7.8614579441e+01   1.0713825745e+01    0.2420716    0.2321567 -34.67 0.0003968029    1.150    0.130
        27  -8.4161      5.4655    236.4253   1.3952535306e+02   2.6488839150e+01   0.09564046   0.06471682  69.67 0.0001611654    1.038    0.036
        28 -10.3256     96.9230    102.9580   1.0445866604e+02   4.2429761954e+01    0.2698446    0.1970145 -58.05 0.0003567094    1.327    0.246
        29 -11.5022    204.4750    200.4693   1.0042922380e+02   3.6654669536e+00    0.4923462    0.3165191  19.55  0.001699909    1.676    0.403
        30 -10.7748    205.6140    102.7921   7.9231709075e+01   1.8902334638e+01     0.395577     0.303835 -87.09  0.001854726    1.830    0.454
        31 -11.8728    214.8601    199.1097   9.8343128373e+01   2.0505114024e+00    0.4726226    0.3492905 -40.46   0.00258235    1.651    0.394
        32  -8.8085     60.8992     88.9676   1.1169554006e+02   5.0961173666e+01    0.1900637    0.1659879 -57.07 0.0002986885    1.002    0.002
        33  -9.4783    174.2115     87.9530   8.1313746784e+01   2.8931815629e+01    0.2905742    0.2138752  42.37 0.0006321486    1.384    0.277
        34 -11.0304    212.1001    189.0328   9.7034097428e+01   3.9018279145e+00    0.4813202    0.4358338 -32.65  0.002376929    1.321    0.243
        35  -9.9887    235.8280     82.9765   6.9203778499e+01   1.5090175803e+01    0.2472939    0.2122897  56.46 0.0009674181    1.258    0.205
        36 -10.6183     25.4759    201.1586   1.3452149888e+02   3.0714270468e+01    0.2870207    0.1698021 -64.45  0.001943973    1.844    0.458
        37  -9.8871    231.2394     80.0466   6.9127814008e+01   1.6564118066e+01    0.2624703    0.2377413  24.11 0.0005948446    1.171    0.146
        38  -9.4316     70.2860    198.2201   1.2595201882e+02   2.6053306857e+01    0.2299471    0.1486139  89.70 0.0007161884    1.505    0.336
        39  -9.9800    235.8096     77.2188   6.7744835756e+01   1.5937256417e+01    0.2756088    0.1794069 -41.11  0.001337708    1.451    0.311
        40 -10.0115    227.0796    195.1745   9.5510667835e+01   4.7227171970e-01    0.2191879    0.1771295 -10.76 0.0002885891    1.224    0.183
        41  -9.6146    232.4247    193.9044   9.4363886723e+01  -2.7034062699e-01     0.441498    0.2381871   8.68  0.001971461    2.798    0.643
        42 -11.1029     60.4363    186.9033   1.2677818741e+02   2.9519223643e+01    0.3510353     0.279771  41.89  0.002122929    1.399    0.285
        43  -9.6336     60.9448    194.0958   1.2736555632e+02   2.8046965413e+01     0.286402     0.139555 -62.16  0.001591449    2.093    0.522
        44 -11.2245     52.6183    186.5506   1.2829860652e+02   3.0545693330e+01    0.5026987     0.268565 -88.58  0.001646277    1.874    0.466
        45 -10.6352    167.4958     66.4449   7.6363149271e+01   3.4286889816e+01    0.3042008    0.2670914 -42.33  0.001020742    1.148    0.129
        46  -8.4660     96.5082    215.4910   1.2273977404e+02   1.9259240406e+01    0.1897533   0.09634239  44.20 -0.0001258995    1.656    0.396
        47 -10.1133     90.6803    203.0927   1.2252208298e+02   2.2318275120e+01    0.3687223    0.2073939 -77.17   0.00173621    2.020    0.505
        48  -9.9366    228.4765     60.9743   6.4554400197e+01   1.9967820821e+01    0.2581373    0.1991084 -82.88 0.0007019635    1.523    0.344
        49  -9.4845     92.6069    214.7195   1.2338172354e+02   1.9956827109e+01    0.2858097    0.1904312 -88.48  0.001807025    1.612    0.380
        50 -10.0585    223.8078    180.1193   9.3279531999e+01   3.0426807150e+00    0.2728778    0.2414688  45.37  0.001026644    1.322    0.244
        51  -8.5994    220.4348    177.2081   9.3314893071e+01   4.0577056941e+00    0.2156128     0.166017  44.61 0.0003732696    1.336    0.251
        52  -9.6252     24.0140    173.7478   1.3290979372e+02   3.6209300941e+01    0.2897528    0.1114614  47.42  0.001293518    2.280    0.561
        53  -9.9890    231.6645    171.3155   9.0185622580e+01   2.8410527829e+00    0.2339361    0.2107002  56.22 0.0008432688    1.448    0.310
        54 -11.2769    230.2630    167.0950   8.9579549760e+01   3.6830327410e+00    0.3802345    0.2428285 -40.31  0.001192522    1.762    0.433
        55  -8.9797     62.0246    168.9724   1.2455133629e+02   3.2975602192e+01     0.185651    0.1546691 -89.58 0.0006547018    1.068    0.064
        56 -11.7576    114.9799    235.4976   1.2147870909e+02   1.3269879709e+01    0.7942809    0.2048535  44.43  0.003398262    2.930    0.659
        57 -10.5262    129.8744     49.5678   7.9276473200e+01   4.6198638450e+01     0.262924    0.2352184 -13.60 0.0003249058    1.106    0.096
        58  -9.0499    182.4370     45.9796   6.7261958735e+01   3.3601238647e+01    0.2428316    0.1936436  63.61 0.0006171573    1.252    0.201
        59 -11.1494     16.6539    161.6666   1.3348417884e+02   3.9369167918e+01    0.5298272    0.1459316 -75.27  0.001255365    3.000    0.667
        60 -10.7074    147.4287     43.3218   7.3058960182e+01   4.2917439059e+01    0.3009825    0.2510523  16.78  0.001296822    1.286    0.222
        61  -9.8343    221.5327     40.0584   5.9871432781e+01   2.4463205524e+01    0.2605081     0.193095 -79.63 0.0005967101    1.498    0.333
        62 -10.3907    138.3410     38.6499   7.3412098840e+01   4.5829415906e+01    0.2896044    0.2454421  35.03 0.0007992352    1.159    0.137
        63  -8.7061    246.0216    165.0007   8.6488090880e+01   1.1293628499e+00    0.1897543    0.1616802   7.64            0    1.031    0.030
        64  -9.4384    225.1557     31.7836   5.7221024961e+01   2.4604782229e+01    0.3006357    0.1944297 -22.36  0.001119666    1.621    0.383
        65  -8.7908     66.7084    232.5606   1.2953035178e+02   2.0404251108e+01    0.1475245   0.07586525  52.38  0.000648969    1.492    0.330
        66 -11.2702     97.7603    221.0021   1.2307400253e+02   1.8134628184e+01    0.8389869    0.3032472 -56.42  0.004082375    3.172    0.685
