#   1 NUMBER                 Running object number                                     
#   2 MAG_AUTO               Kron-like elliptical aperture magnitude                    [mag]
#   3 X_IMAGE                Object position along x                                    [pixel]
#   4 Y_IMAGE                Object position along y                                    [pixel]
#   5 X_WORLD                Barycenter position along world x axis                     [deg]
#   6 Y_WORLD                Barycenter position along world y axis                     [deg]
#   7 A_WORLD                Profile RMS along major axis (world units)                 [deg]
#   8 B_WORLD                Profile RMS along minor axis (world units)                 [deg]
#   9 THETA_WORLD            Position angle (CCW/world-x)                               [deg]
#  10 FWHM_WORLD             FWHM assuming a gaussian core                              [deg]
#  11 ELONGATION             A_IMAGE/B_IMAGE                                           
#  12 ELLIPTICITY            1 - B_IMAGE/A_IMAGE                                       
         1 -14.3250    165.5154     80.9110   8.8522510033e+01   3.2612853880e+01     2.711953     1.526549  24.84   0.00885231    3.357    0.702
         2 -15.9782    206.7498    127.8980   9.2614588182e+01   1.4116523920e+01     4.892124      3.35032  88.02   0.01469155    2.598    0.615
         3 -18.2627    226.6003     27.9624   6.4219412978e+01   2.5076298586e+01     10.01507     8.660495 -82.82   0.06057926    1.060    0.056
         4 -13.6449    196.7602     52.0643   7.4408384900e+01   2.9329162597e+01    0.9934555    0.8941884  49.96   0.00546702    1.175    0.149
         5 -12.2713    142.0879     14.4636   7.1663439118e+01   4.8242174823e+01     0.267828    0.2361789 -19.25  0.001555277    1.243    0.196
         6 -10.7570    140.2552      9.4232   7.0208649570e+01   4.9196879339e+01    0.3061145    0.2237626  85.04   0.00160789    1.467    0.318
         7 -11.0551    145.4146      9.7488   6.9446789669e+01   4.7854256477e+01     0.386185    0.2439193 -59.63  0.001836125    1.947    0.486
         8 -10.9478    144.7801      4.5293   6.7747402659e+01   4.8488160115e+01    0.3002214    0.2254758  17.63  0.001133073    1.539    0.350
         9 -11.1471    156.7806      8.9632   6.7398208448e+01   4.5004443510e+01     0.414367    0.2247587 -10.33  0.001378495    2.378    0.580
        10 -11.7741    153.7058      2.8229   6.5829675947e+01   4.6349848966e+01    0.4050287    0.2772979 -59.34  0.001697904    1.649    0.394
        11 -11.9617    107.7637     11.5610   7.7718980222e+01   5.6874008971e+01    0.3546013    0.1707822  45.69  0.001610581    1.845    0.458
        12 -10.9239     42.1699     10.1780   9.9460424558e+01   6.9319113171e+01    0.1488004    0.1347497 -16.17 0.0004536785    1.329    0.248
        13 -14.9290    162.4419     56.6938   8.1821774863e+01   3.7505762772e+01      3.07672     1.275327 -49.82  0.005404776    3.093    0.677
        14 -11.1103    128.4053      2.8959   6.9940611032e+01   5.2735431532e+01    0.3393956    0.1359086 -17.25   0.00136755    2.892    0.654
        15 -11.5138    199.1593      1.8881   6.0226645368e+01   3.4740896540e+01    0.2216653    0.1656454 -47.75   0.00119003    1.322    0.243
        16 -10.0358    183.0779      3.9107   6.2451654315e+01   3.8660024591e+01     0.206644    0.1590681 -69.24 0.0004552045    1.278    0.217
        17 -11.7173     56.4680      2.2489   8.9228107823e+01   6.8089103166e+01    0.3038504    0.1427358  41.08  0.001573975    1.958    0.489
        18 -10.9238    131.9553     95.1600   1.0069769228e+02   3.7859525422e+01    0.2756269    0.2421809 -64.31 0.0004983983    1.205    0.170
        19 -12.5699     67.6933    144.4106   1.2935131123e+02   3.8161898872e+01    0.6488065    0.3680467  62.77  0.002399511    2.052    0.513
        20 -10.9525    148.0896     69.3333   8.8901806494e+01   3.9028013597e+01    0.2891752    0.2198513 -47.28 0.0005352325    1.362    0.266
        21 -10.4343    130.7106     65.6337   9.1958869246e+01   4.3883224294e+01    0.2739946    0.1847483 -24.88 0.0008480151    1.661    0.398
        22 -13.5194    182.9135     64.3958   8.0246939346e+01   3.1006679260e+01     1.033517    0.5220814  30.64  0.003225758    3.810    0.738
        23 -11.0841    136.6754     65.1853   9.0308494790e+01   4.2543242793e+01    0.2466106    0.1949405 -54.01   0.00119305    1.381    0.276
        24 -11.4188    192.3150    194.2422   1.0946052393e+02   5.5344214788e+00    0.8374605    0.4419823 -64.00  0.002512021    6.409    0.844
        25 -11.7289    144.1509     62.9091   8.7772587296e+01   4.1113418179e+01     0.379584     0.248522 -44.55 0.0009074833    1.585    0.369
        26 -11.1241    135.8691    129.6871   1.0863767321e+02   2.9566989475e+01    0.5465081    0.2055806 -51.11  0.001652042    2.831    0.647
        27 -11.7151    135.1122    118.8086   1.0619648438e+02   3.2108324926e+01     1.082874    0.2074967 -44.88  0.002578676    5.307    0.812
        28 -12.1026    192.6333     46.1198   7.3353359099e+01   3.1239569194e+01    0.5752279    0.2805009 -51.36  0.001594609    2.286    0.562
        29 -13.5717     54.4454    179.1171   1.3704400539e+02   3.1974093732e+01    0.4531543    0.4068966 -47.56  0.001456913    1.492    0.330
        30 -11.3453    202.9573     50.3129   7.2998344141e+01   2.7999960871e+01    0.2176988    0.2102575  35.61 0.0002445826    1.160    0.138
        31 -11.5835    141.4507     58.0162   8.6806197867e+01   4.2598173946e+01    0.3210745     0.202531  39.48  0.001390877    1.685    0.407
        32 -10.1159    213.1741     53.6101   7.2445477054e+01   2.4959440095e+01    0.2202503     0.170591 -52.67 0.0003096661    1.238    0.192
        33 -11.7100    144.3924     51.9815   8.4129963829e+01   4.2832703927e+01    0.5121213    0.2665342 -44.96 0.0009625986    2.080    0.519
        34 -10.1346    123.9658     53.9923   8.9771301599e+01   4.7461015779e+01    0.2446807    0.1876558 -80.37  0.001140941    1.814    0.449
        35 -11.9151    134.5706    107.8377   1.0350773272e+02   3.4599612768e+01     1.324308      0.26605 -44.26  0.003227132    4.987    0.799
        36 -11.8006    214.1935     48.2711   7.0893049580e+01   2.5463572586e+01     0.364282    0.2398449 -77.71  0.001700284    1.759    0.431
        37 -11.0286    176.4176     44.1097   7.5357276694e+01   3.5739133474e+01    0.7574171    0.2733723 -28.82  0.002589919    2.976    0.664
        38 -10.2333    176.3417     39.2504   7.3895401655e+01   3.6423117674e+01    0.2383024    0.1905818 -63.40  0.000256026    1.311    0.237
        39 -11.3866     66.8863     48.9156   1.0600324675e+02   5.9574124801e+01    0.2157944    0.1688993 -11.15  0.001155471    1.297    0.229
        40 -11.6320    218.9370     44.0148   6.9171063102e+01   2.4876244460e+01    0.4591982     0.254664 -61.80 0.0006674004    2.064    0.516
        41 -14.0359    207.5843     42.3575   7.0186107370e+01   2.7932581120e+01    0.7715974    0.5341771  47.31  0.002186623    1.597    0.374
        42 -12.2547    160.7560    128.0141   1.0227085714e+02   2.4477749852e+01    0.4875167    0.4359125 -61.99  0.001799509    1.179    0.152
        43 -10.0766    131.3298    123.6372   1.0834467114e+02   3.1854722040e+01    0.1632857     0.121255  88.91 0.0007039073    1.803    0.445
        44 -13.5249    167.9399    112.8993   9.6840758506e+01   2.5890408491e+01    0.7844192    0.7395698  20.87  0.002370188    1.109    0.099
        45 -10.9267    122.1320    113.1480   1.0815366267e+02   3.6098024550e+01     0.327684    0.2106955  72.69  0.001274911    2.376    0.579
        46 -12.0955    120.7137    102.8763   1.0584889305e+02   3.8653747421e+01    0.3657433    0.3548424 -54.51  0.001987598    1.016    0.016
        47 -13.5354    202.4592     35.2654   6.8926274843e+01   3.0170048799e+01    0.5704473     0.512623 -19.91   0.00198558    1.264    0.209
        48 -10.3858    111.5283    103.9135   1.0867155271e+02   4.0300067812e+01    0.2346128    0.1459966 -48.50 0.0009309668    1.569    0.363
        49 -10.2060    178.8697     26.4604   6.9637904174e+01   3.7374610032e+01     0.184699    0.1767937  80.11 0.0003379585    1.057    0.054
        50 -11.6132     93.6470     24.7236   8.7072577679e+01   5.8473409559e+01    0.2412251    0.1697691 -35.54 0.0008876948    1.509    0.337
        51 -12.5124    101.3365     22.2940   8.3836802716e+01   5.7132939351e+01    0.4183095    0.2394888  27.06  0.001902002    2.027    0.507
        52 -10.3007    139.8189    102.9313   1.0084657415e+02   3.4464720419e+01    0.2363782     0.213015   2.42 0.0006392729    1.258    0.205
        53 -14.8429     60.7643    173.4915   1.3499282162e+02   3.2409195435e+01     1.844758     1.373101 -18.59  0.002848963    2.448    0.591
        54 -14.9976     27.5519    201.7126   1.4455720521e+02   3.0302627230e+01    0.9158532    0.7200539  77.04   0.00363242    1.087    0.080
        55 -14.4430     65.2564    167.4950   1.3321715161e+02   3.3158701046e+01     1.219773     1.004469 -25.30  0.001738085    1.820    0.451
        56 -11.6888    230.0422    166.6327   9.6950943825e+01   2.8772789220e+00    0.2921105    0.1843652 -47.95  0.001305677    1.944    0.486
        57 -11.3235    144.8017     98.0599   9.8254051045e+01   3.4325645043e+01    0.3464666    0.2960649  -6.99 0.0006714487    1.378    0.274
        58 -10.1628     53.5228     13.5203   9.6175013820e+01   6.7223517144e+01    0.1229815     0.102639  -1.63 -4.291217e-05    1.039    0.037
        59 -14.5908     42.3939    189.2101   1.4061280896e+02   3.1248174369e+01     2.041396       1.7224 -61.87   0.01419658    1.461    0.315
        60 -14.1854      7.7068    212.7466   1.4885551469e+02   3.0112855044e+01     1.254544    0.6748912  81.87   0.00669093    1.451    0.311
        61  -9.1641    113.3222     95.2577   1.0580639998e+02   4.1835010276e+01    0.1473176    0.1198837   4.40 0.0002071699    1.547    0.354
        62 -11.7498    205.3803     90.2749   8.3408585827e+01   2.1071028416e+01    0.5731915    0.3917578  74.76   0.00169918    1.782    0.439
        63 -10.5236    198.1523     86.5364   8.3692795245e+01   2.3472648406e+01    0.4508964    0.2715381  33.61  0.001382025    2.189    0.543
        64 -11.7791    137.9117     87.3798   9.6901470232e+01   3.8082057731e+01    0.3519444    0.3188134 -75.55 0.0007826133    1.199    0.166
        65 -12.9580    150.5059     79.7910   9.1556194887e+01   3.6536299189e+01    0.3836072    0.3021604 -32.49 0.0008163266    1.310    0.237
        66 -10.3993    248.2597     78.2393   7.3962595046e+01   1.3119746898e+01      0.26614    0.2307468   1.92  0.001049452    1.373    0.272
        67 -10.5130    132.5662    140.4257   1.1188391576e+02   2.7890919791e+01    0.5569223    0.1441688 -54.32  0.001379207    5.331    0.812
