#   1 NUMBER                 Running object number                                     
#   2 MAG_AUTO               Kron-like elliptical aperture magnitude                    [mag]
#   3 X_IMAGE                Object position along x                                    [pixel]
#   4 Y_IMAGE                Object position along y                                    [pixel]
#   5 X_WORLD                Barycenter position along world x axis                     [deg]
#   6 Y_WORLD                Barycenter position along world y axis                     [deg]
#   7 A_WORLD                Profile RMS along major axis (world units)                 [deg]
#   8 B_WORLD                Profile RMS along minor axis (world units)                 [deg]
#   9 THETA_WORLD            Position angle (CCW/world-x)                               [deg]
#  10 FWHM_WORLD             FWHM assuming a gaussian core                              [deg]
#  11 ELONGATION             A_IMAGE/B_IMAGE                                           
#  12 ELLIPTICITY            1 - B_IMAGE/A_IMAGE                                       
         1 -12.0025     77.1642     22.2804   8.0293330416e+01   5.9517772290e+01    0.4095876    0.3730055  34.52  0.002039506    1.194    0.163
         2 -10.5101     59.1309     24.3176   8.6777492592e+01   6.2375371890e+01    0.3184801    0.1849634  18.23  0.001768325    1.828    0.453
         3 -11.7091     40.3002      9.2128   8.7562927687e+01   6.6814513637e+01    0.4032741    0.2103759 -15.04   0.00237497    2.021    0.505
         4 -11.9404     35.1626     12.7255   9.1049532127e+01   6.7155039335e+01    0.3152644    0.2508085 -16.91 0.0009747978    1.322    0.243
         5 -11.8705     30.2113      7.1097   9.0681367539e+01   6.8389673941e+01     0.315006    0.2563786  18.20  0.001213022    1.271    0.213
         6  -9.8313      2.2561      2.7671   1.0159054770e+02   7.1906097707e+01    0.2158243    0.1324901 -10.47  0.001158517    1.270    0.213
         7 -10.5272      9.9023      1.8495   9.7413014714e+01   7.1281178553e+01    0.3743424    0.1740371  -5.72  0.001984578    2.807    0.644
         8 -10.8990     14.2545     16.0290   1.0148899201e+02   6.9187884093e+01    0.3286571    0.1755353  28.73   0.00152913    1.845    0.458
         9 -10.6865     14.9116      8.8616   9.8159280770e+01   6.9985133541e+01    0.2887264    0.1720904   9.41 0.0003881237    1.443    0.307
        10 -10.8805     11.1734      6.5330   9.8897294471e+01   7.0633692379e+01     0.243245     0.202613 -31.39  0.001900655    1.725    0.420
        11 -11.1734      4.1832      9.9742   1.0376623113e+02   7.0875382505e+01    0.2905501    0.1667403  18.33 0.0003442344    1.571    0.363
        12 -10.6699      2.5009      6.4777   1.0310275758e+02   7.1448013083e+01    0.2831383    0.1270105  14.46 0.0007843476    2.182    0.542
        13 -11.8025     40.3905     21.1112   9.2398839273e+01   6.5510382590e+01    0.7739086    0.3548792 -16.18   0.00368476    2.919    0.657
        14  -9.8853     28.4680      1.4039   8.8899763070e+01   6.9173977750e+01    0.1958565   0.08651719  38.57 0.0005895968    2.038    0.509
        15 -11.4249    190.6499     14.1415   5.7090764216e+01   3.6022305643e+01    0.3376158    0.1730229 -51.34   0.00172076    1.952    0.488
        16 -11.6006     88.5888     13.8216   7.4173771295e+01   5.8192031290e+01    0.4205583    0.3405063  70.47  0.001598193    1.484    0.326
        17 -10.5824     93.0882      8.6633   7.1306280333e+01   5.7755653765e+01     0.281362    0.1786265   0.69  0.001430296    1.925    0.480
        18 -11.2706    155.3907     14.4063   6.1542255789e+01   4.3860640277e+01    0.3427848    0.2351757  44.24  0.001434696    1.574    0.365
        19 -11.4826    150.9105      7.1443   6.0326530878e+01   4.5536837623e+01    0.3114859    0.2402966 -27.13 0.0007589278    1.595    0.373
        20 -10.9020    162.4962     13.2682   6.0277903050e+01   4.2377883251e+01    0.2272679    0.1828341  81.02 0.0001970797    1.059    0.056
        21 -10.2851    119.1152     12.1401   6.6903304518e+01   5.2074833158e+01    0.1818973    0.1369625  45.06 0.0002958675    1.190    0.159
        22 -10.2793     56.4805     10.5166   8.2309112133e+01   6.4232136581e+01    0.3293785    0.1514758  15.84   0.00142006    3.534    0.717
        23 -10.4367     55.4925      7.4472   8.1413232607e+01   6.4672966211e+01    0.3088821    0.1662817  40.69   0.00150386    1.537    0.349
        24 -11.5108     57.6489      2.4047   7.8691706708e+01   6.4749366068e+01    0.3696743    0.2388817  17.65 0.0001561443    1.420    0.296
        25 -10.9343     22.6086      9.5953   9.5000984982e+01   6.9055117398e+01    0.2894222    0.1729702  19.01  0.001482737    1.414    0.293
        26 -10.6878    210.1747      7.4430   5.3787955286e+01   3.2522327998e+01    0.1810747    0.1228116 -54.67  0.001189751    1.395    0.283
        27 -10.8807     71.2152      6.3889   7.6160185435e+01   6.2079346989e+01    0.3072782    0.2222711  31.39  0.001377902    1.125    0.111
        28  -9.8356     64.7943      6.8943   7.8241118046e+01   6.3166145834e+01    0.1741958    0.1265294  22.43 0.0006083684    1.173    0.147
        29 -11.3501    194.7453      4.3117   5.4582449103e+01   3.6135759446e+01    0.1930875    0.1624624 -66.78  0.001393973    1.206    0.171
        30  -9.8835    235.4983      4.5175   5.1202907304e+01   2.7653678869e+01    0.1128545   0.08425074 -80.50 7.213142e-05    1.030    0.029
        31 -11.3409    130.2652      3.7623   6.2516431044e+01   5.0368169308e+01    0.2786295    0.1691051  72.53  0.001208748    1.493    0.330
        32 -10.2195    120.9517      4.0622   6.4170370544e+01   5.2355017739e+01    0.1781185     0.144193  54.97 0.0003820061    1.038    0.036
        33 -10.3951     20.1225      2.3342   9.2903511943e+01   7.0113253091e+01    0.1867559    0.1281211   0.44 0.0008360643    1.131    0.115
        34 -10.0823     16.5462      3.5194   9.5050765348e+01   7.0397983238e+01    0.1930012    0.1546522 -38.04  0.001461995    1.971    0.493
        35  -9.6778    176.5275      2.5194   5.6061461915e+01   4.0277428517e+01    0.1933007    0.1799882  31.94  0.001428572    1.441    0.306
        36 -10.5229    172.9691      2.7863   5.6514931598e+01   4.1036112853e+01    0.2330077    0.1451107  82.33 0.0008624951    1.379    0.275
        37 -11.2314    160.6916      2.0386   5.7780516894e+01   4.3813836114e+01    0.2635517    0.1966965  63.74   0.00175861    1.171    0.146
        38  -9.9089    100.2778      1.9226   6.7472000803e+01   5.6840388498e+01    0.2006242    0.1538856  86.24  0.001054576    1.616    0.381
        39 -11.7339     80.1961      1.7055   7.2021844473e+01   6.0795977282e+01    0.3176931    0.1354183  54.82  0.001058303    1.954    0.488
        40 -10.0163     50.3800      1.9763   8.0902383391e+01   6.5962635919e+01    0.2419667    0.1048192  33.82   0.00132213    1.979    0.495
        41 -10.1110    203.9509      1.4822   5.3158971503e+01   3.4446379735e+01    0.1727501   0.09252105  75.32 0.0003802772    1.534    0.348
        42  -9.3099    187.0219      1.1724   5.4676137502e+01   3.8109299187e+01    0.1565336   0.07133786  72.45 0.0003606111    1.792    0.442
        43 -11.0781     90.2220      2.4692   6.9864561997e+01   5.8809587054e+01    0.3342995    0.1730861  58.62  0.001022072    1.679    0.404
        44 -10.9260    145.0370      5.9841   6.0860609466e+01   4.6940789095e+01    0.1816737    0.1726573 -42.54  0.000333357    1.272    0.214
        45  -9.7081     67.0637      1.4890   7.5487527634e+01   6.3208925067e+01    0.1616609   0.09176871  47.99 0.0003914134    1.462    0.316
        46 -10.0564     28.9345    128.2664   1.2662540887e+02   4.6329271967e+01    0.1752206    0.1595134 -55.54 0.0004102585    1.084    0.078
        47 -10.5905     11.9546    249.9994   1.4358945866e+02   1.9405343454e+01    0.1649709    0.1262612 -57.47  0.001130561    1.735    0.423
        48 -11.9720      6.3245    241.3173   1.4404162861e+02   2.1797182924e+01    0.2779911    0.2053899 -84.46  0.001302018    1.200    0.167
        49 -11.5243      1.8567    248.4194   1.4525366924e+02   2.0781088334e+01    0.3677631    0.1727698 -81.28  0.002135274    1.781    0.438
        50 -10.8316      6.5151    249.0023   1.4448097851e+02   2.0184417660e+01    0.2083019     0.141057 -72.11 0.0007012509    1.472    0.321
        51 -12.0268     11.2649    244.2861   1.4334630179e+02   2.0661193089e+01    0.3073699    0.2327845  20.15  0.001921708    2.045    0.511
        52 -11.6517     23.2638    121.1136   1.2709422515e+02   4.8543285423e+01    0.5454876     0.325017  87.22  0.000742322    2.386    0.581
        53 -10.9082     20.2484    112.9725   1.2657087692e+02   5.0700552228e+01    0.2424683    0.1923754  47.27 0.0005594899    1.546    0.353
        54 -10.9915     65.2707    111.0125   1.1171757940e+02   4.6204912904e+01    0.4464993    0.1889641 -52.36 0.0009952887    2.137    0.532
        55 -10.6445      5.8254    113.3522   1.3115100265e+02   5.1645784358e+01    0.1479009    0.1098198 -15.91 0.0003443733    1.564    0.361
        56 -10.1176    248.9937    111.9620   7.0331285007e+01   9.2113434137e+00    0.1676436    0.1342144 -53.04  0.001007159    1.035    0.033
        57 -10.9596      4.1192    109.3575   1.3103036115e+02   5.2665125259e+01    0.2674994    0.2069007  33.08  0.001645269    1.601    0.375
        58 -10.7920     12.0702    108.6725   1.2839522596e+02   5.2303072945e+01    0.1729576    0.1493354 -43.39 0.0007979478    1.109    0.098
        59 -10.5339     57.7305    107.8567   1.1337535641e+02   4.7949374432e+01    0.2373712    0.1885152   2.24  0.001300082    1.414    0.293
        60 -10.8325     51.6858    107.8003   1.1532426437e+02   4.8726691680e+01    0.2287941    0.2106509  24.82  0.001390217    1.208    0.172
        61 -10.9297     88.3847    102.3649   1.0229668340e+02   4.4502571593e+01    0.4105726    0.2708151 -70.39  0.001107921    2.224    0.550
        62  -9.2606    186.9837    103.2496   7.8325657054e+01   2.3501628121e+01    0.1813031    0.1252421  56.61 0.0005405908    1.493    0.330
        63  -9.8558    113.5310    102.4968   9.5031555680e+01   3.9755673770e+01    0.1485249     0.144833 -18.25 9.396172e-05    1.010    0.010
        64 -10.6104     57.5214    101.9997   1.1201535608e+02   4.9292606453e+01    0.2600614    0.1928037  46.82  0.001383402    1.614    0.380
        65 -10.5301     24.8253    101.8885   1.2290582136e+02   5.2851719136e+01    0.1923018    0.1894034  56.87 0.0002912111    1.240    0.194
        66 -10.3330     72.1310    112.9963   1.1004044274e+02   4.4752194160e+01    0.2098781     0.192797 -40.98 0.0003769609    1.010    0.010
        67 -10.0210     62.4879     98.9411   1.0960587122e+02   4.9294540995e+01    0.2109099    0.1280059 -51.08 0.0003703164    1.538    0.350
        68 -11.5033     18.6167     95.0194   1.2356645357e+02   5.4878722819e+01    0.3414858    0.2072566  30.61  0.001793281    1.937    0.484
        69  -9.5841    101.0748     95.9518   9.6765874375e+01   4.3550788233e+01    0.3110447    0.2013974 -72.87  0.001228463    2.680    0.627
        70 -10.1810     91.5934     95.3421   9.9408895573e+01   4.5424388392e+01    0.2673949    0.1371887 -49.73 0.0007177034    1.983    0.496
        71  -9.7867     36.6277     96.1841   1.1763306033e+02   5.3011132615e+01    0.2035188   0.09822648 -46.99 0.0009552169    1.738    0.425
        72  -9.8465      3.1153     95.6466   1.2896413402e+02   5.5785336016e+01    0.1635221    0.1347258 -37.15 0.0008355001    1.141    0.123
        73 -10.1721     78.8688     94.8166   1.0320572699e+02   4.7706923002e+01    0.2069936    0.1779412 -14.37 0.0002435206    1.163    0.140
        74 -10.2279     10.6115     91.2236   1.2553991052e+02   5.6280073324e+01    0.3676501    0.1826707 -67.61  0.001839011    2.012    0.503
        75 -10.8515     11.0739     85.4627   1.2415775504e+02   5.7477928730e+01    0.4127679    0.2102978 -75.22  0.001896893    2.769    0.639
        76 -10.5975     58.0299     91.5930   1.0916145896e+02   5.1475767754e+01    0.2803282    0.2003019 -12.72 0.0009213334    1.581    0.368
        77 -10.1409     29.1938     92.1627   1.1926247579e+02   5.4605552921e+01    0.2743898    0.1821188  34.44  0.001040535    1.772    0.436
        78 -10.2889     25.0821     90.0000   1.2020242400e+02   5.5436652005e+01    0.2162367    0.2084567  24.65  0.001495436    1.273    0.214
        79 -10.5471    107.8508     89.1044   9.2904077283e+01   4.3606974398e+01    0.2395271    0.2342159  27.77 0.0003787777    1.045    0.043
        80 -10.7782     76.5459     89.2791   1.0240569512e+02   4.9225353779e+01    0.2686603    0.2319359  17.49 0.0006870722    1.167    0.143
        81 -10.7696     99.0550     89.2786   9.5478243393e+01   4.5278409657e+01     0.209254     0.191437  30.93  0.001173067    1.092    0.084
        82 -10.7087     18.4574     87.1713   1.2190214916e+02   5.6581518661e+01    0.3592838    0.1953712 -43.06  0.001955008    1.509    0.337
        83  -9.5276    124.4916     86.5376   8.7708654699e+01   4.0662803547e+01    0.1445982    0.1413794  31.99 0.0002139635    1.007    0.007
        84 -11.2899     54.9473     85.1429   1.0846180896e+02   5.3218883709e+01    0.2979917    0.2508236 -70.69 0.0009009789    1.519    0.342
        85  -9.7346     72.5430     84.3027   1.0228647980e+02   5.0858433989e+01    0.2973923    0.1753682 -21.05  0.001287338    2.258    0.557
        86 -10.7848      3.6889     82.3549   1.2614126092e+02   5.8593545295e+01    0.4569233    0.1876978 -64.00  0.002202492    2.216    0.549
        87  -9.6300     42.7579     82.5197   1.1203046703e+02   5.5239924231e+01    0.3405751    0.1098843 -56.50   0.00120317    3.508    0.715
        88  -9.9734    100.3856     83.1922   9.3334351213e+01   4.6201757484e+01    0.1964063    0.1335503 -51.17 0.0004998764    1.612    0.380
        89 -11.2607     64.1615     79.6582   1.0373736807e+02   5.3035714490e+01    0.4608981     0.264823 -48.43  0.002250812    1.725    0.420
        90  -9.8040    250.4841     80.9973   6.4054471028e+01   1.4224501579e+01    0.1919132    0.1075187 -45.25 0.0005187723    1.539    0.350
        91 -10.2752     89.7535     79.8731   9.5524200513e+01   4.8808048343e+01    0.4331584    0.2351485 -26.87  0.001795209    2.345    0.574
        92  -9.7326     85.2000     78.6183   9.6556540901e+01   4.9852273481e+01    0.1854496    0.1640374 -36.87 0.0008672035    1.146    0.127
        93 -10.3570    177.0110     76.9472   7.3782916976e+01   3.0531287250e+01    0.2242705    0.2045356 -89.97 0.0007980158    1.017    0.017
        94  -9.7699     28.2451     77.0326   1.1585362574e+02   5.7842474196e+01    0.1678407    0.1356225 -39.12 0.0002252574    1.072    0.067
        95 -10.5926     15.8625     76.0886   1.2023366795e+02   5.9071442657e+01     0.266492    0.2074781 -17.39  0.001771163    1.220    0.180
        96 -10.8896     56.4009     75.3841   1.0516324306e+02   5.4950188796e+01    0.4329628    0.2379705  24.31  0.001798573    1.974    0.493
        97  -9.6832      3.1253     73.6298   1.2443666758e+02   6.0412750444e+01    0.2646561    0.1330713  -8.77  0.001223265    2.388    0.581
        98 -11.4676      6.8652     74.8354   1.2330861007e+02   5.9944293936e+01      0.32019    0.1915232 -63.80  0.001862148    1.666    0.400
        99  -9.5807     70.3114     75.3468   1.0038229259e+02   5.2928689762e+01    0.1428656   0.09831043 -10.60 0.0003057055    1.711    0.415
       100  -9.9138     37.3056     75.3361   1.1203970519e+02   5.7274510590e+01    0.2086758    0.1576626 -26.69 0.0009077421    1.162    0.139
       101 -10.5285     32.1433     72.9845   1.1330528760e+02   5.8266970204e+01    0.1848241    0.1571691 -27.78 0.0003397384    1.048    0.046
       102 -10.9361     35.9942     71.9773   1.1158119936e+02   5.8066492489e+01    0.3716131    0.2275214 -16.16 0.0004701204    1.811    0.448
       103  -9.4298    136.5884     74.2441   8.1314609974e+01   4.0219669728e+01    0.1853724    0.1397314 -25.75 0.0003259069    1.516    0.340
       104  -9.5026     81.5169     72.9995   9.6015595158e+01   5.1521253903e+01    0.1798245    0.1213918 -65.94 0.0008085844    2.425    0.588
       105 -10.1453    105.6476     71.6168   8.8404977810e+01   4.7258331589e+01    0.2406189    0.1985302  34.29 0.0004476828    1.170    0.145
       106  -9.9232     92.5995     72.4646   9.2430766466e+01   4.9632821331e+01    0.2367436    0.1319376  46.01 0.0008071388    1.823    0.451
       107  -9.4174     54.3252     70.5689   1.0445582949e+02   5.6134534816e+01     0.283039    0.1136902  17.57 0.0008049833    5.996    0.833
       108  -9.2444     46.8300     69.3672   1.0680336449e+02   5.7320758285e+01    0.1778593    0.1131474  13.96 0.0009494011    1.696    0.410
       109 -10.2768    134.0694     66.4977   7.9713170454e+01   4.2061432428e+01    0.3192081    0.2158658 -74.01  0.001432033    2.220    0.550
       110 -10.3551     34.7750     64.6323   1.0989923939e+02   5.9576914994e+01    0.2537473    0.1707297 -29.22 0.0009428594    1.301    0.231
       111 -10.4997     38.9975     62.9528   1.0777732639e+02   5.9419002130e+01    0.2304945     0.162025 -15.35 0.0003273593    1.355    0.262
       112 -10.3849     40.6759     59.3174   1.0600214916e+02   5.9869807271e+01    0.2880441    0.2144389 -20.56  0.001758718    1.176    0.150
       113 -10.9994     13.9745     63.8658   1.1780338285e+02   6.1601072616e+01    0.2123701    0.1537296 -56.02   0.00033824    1.429    0.300
       114  -9.0648     76.0021     64.5199   9.5139804154e+01   5.3935999473e+01     0.185145       0.1248  35.83 0.0009836123    1.449    0.310
       115 -11.5647     19.1770     32.0306   1.0548904981e+02   6.6528701621e+01    0.7905427    0.3365131   4.58  0.003068584    4.625    0.784
       116 -10.5087     25.9128     29.7577   1.0172506227e+02   6.6164107962e+01    0.1845642    0.1533478 -23.58 0.0004353458    1.302    0.232
       117 -11.8459      3.7378     61.6358   1.2129028035e+02   6.2716825703e+01    0.4309793    0.3338485  56.81  0.001670753    2.085    0.520
       118 -10.9516      9.9811     60.0776   1.1836635860e+02   6.2600782459e+01     0.279167    0.1936773 -20.77 0.0003485135    1.268    0.211
       119 -13.4240      5.9107     50.8905   1.1745261047e+02   6.4545638439e+01    0.5096792    0.2925856 -17.91 0.0006918331    1.649    0.394
       120 -11.4609     17.3741     44.8431   1.1071715502e+02   6.4698922273e+01      0.52886    0.4506769  49.79  0.003692528    1.908    0.476
       121 -11.3527     26.0581     43.3964   1.0657963561e+02   6.4115751129e+01    0.3843441    0.2533863  36.82  0.002333684    1.906    0.475
       122 -10.8436     22.8958     38.4275   1.0618365237e+02   6.5207396586e+01    0.2114614     0.174872 -10.29 0.0004769526    1.131    0.115
       123 -11.2469     26.7411     35.1026   1.0336027285e+02   6.5311252057e+01    0.3228249    0.1821006 -17.43 0.0009927053    1.764    0.433
       124 -10.4665     62.6785     62.6560   9.9032600358e+01   5.6360721966e+01    0.2498727    0.1685567 -32.68  0.001386435    1.406    0.289
       125 -10.0359     66.1621     60.6500   9.7181715972e+01   5.6170104063e+01    0.2540197    0.1758034  24.68 0.0009196765    1.412    0.292
       126  -9.2511     17.6466     63.7392   1.1631655416e+02   6.1339690447e+01    0.1242336   0.07356471 -23.00 0.0002268672    1.615    0.381
       127 -10.2434    100.7920     62.0175   8.6824423707e+01   4.9810996893e+01    0.2239253     0.187365  45.33 0.0005269026    1.175    0.149
       128 -10.1963     54.6166     61.1769   1.0141583982e+02   5.7770414820e+01    0.3867593    0.1700911  25.82  0.001041941    2.603    0.616
       129  -9.3250     54.1873     55.8276   9.9824649174e+01   5.8728144325e+01    0.3056536    0.1417288 -45.29  0.001012444    2.247    0.555
       130 -13.3103     20.3015     57.2209   1.1337694514e+02   6.2315326474e+01    0.4149404    0.2342662 -49.55  0.002397798    1.636    0.389
       131 -11.1594     83.6733     56.9460   9.0257430657e+01   5.3836365931e+01     0.235218    0.2123142  35.85 0.0005328236    1.161    0.139
       132 -11.6900     88.5983     53.1395   8.7519157542e+01   5.3514576745e+01    0.4887621    0.3355485  38.38 0.0009849353    1.354    0.261
       133  -9.1989     48.4533     58.4179   1.0278277960e+02   5.9065445179e+01    0.1256411    0.1059307  -9.35 0.0001665486    1.012    0.012
       134 -10.6248    105.0345     56.8732   8.4053896199e+01   4.9757671395e+01    0.1918508    0.1799004  86.13  0.001166942    1.269    0.212
       135 -10.4412     34.3642     53.4759   1.0657684002e+02   6.1588656968e+01    0.2904324    0.1643259 -23.03  0.001078185    1.785    0.440
       136 -10.1346     15.2813     58.0093   1.1564067955e+02   6.2587272590e+01    0.1783853     0.142413 -27.55 0.0004083514    1.035    0.034
       137 -10.3887    225.1952     54.7085   6.1752513742e+01   2.3373967783e+01    0.3277425    0.2621102  -1.40  0.001842382    2.280    0.561
       138  -9.4577    174.0538     55.6768   6.9030654750e+01   3.4570738157e+01    0.1861585    0.1606198  76.79 0.0004233513    1.056    0.053
       139  -9.1844    158.3340     56.6597   7.2019553868e+01   3.8049532295e+01    0.1452865    0.1014434 -76.81 0.0007051321    1.752    0.429
       140 -11.1839    114.6525     54.0076   8.0674459494e+01   4.8188658130e+01    0.3141022    0.2791593  40.98 0.0009298246    1.035    0.034
       141 -11.9237     66.0447     52.6178   9.4562017559e+01   5.7479789565e+01    0.4990402    0.2029562  36.98  0.001686048    2.386    0.581
       142  -9.2312    169.5168     52.5392   6.8998998217e+01   3.6067914126e+01    0.1352402     0.121445  79.78 -2.349112e-05    1.018    0.017
       143  -9.7271    123.5455     52.0058   7.7930227276e+01   4.6565896697e+01     0.214438    0.1824767  84.01 0.0007362189    1.353    0.261
       144 -10.0003     60.2110     57.8572   9.8337397916e+01   5.7531783678e+01    0.2118295    0.1613322 -44.22 0.0007703078    1.456    0.313
       145 -10.2923     76.1005     49.0945   9.0036488724e+01   5.6350363203e+01    0.3697994    0.2202683 -13.50  0.001798806    2.147    0.534
       146 -10.1454     78.8643     45.8593   8.8062852540e+01   5.6330710442e+01    0.1831535    0.1670814  43.33 0.0002505823    1.257    0.205
       147  -9.6818     46.4674     48.5081   1.0021976757e+02   6.0942643914e+01    0.3513149     0.158524 -18.22  0.001234543    4.484    0.777
       148 -10.2204     53.9594     48.0037   9.7257118914e+01   5.9999183623e+01    0.1878729    0.1555632  -3.02 0.0003564093    1.019    0.019
       149  -8.9879    154.7411     47.6619   7.0302101852e+01   4.0146996173e+01    0.1278559    0.1021307  25.55 0.0001930825    1.580    0.367
       150  -9.5283    135.3399     46.0633   7.3610868883e+01   4.4770628926e+01    0.1757664    0.1658918  75.79 0.0004834323    1.071    0.066
       151  -9.5264    104.4192     46.2556   8.0871740879e+01   5.1397369138e+01    0.1745864      0.12322 -43.63 0.0009487771    1.624    0.384
       152 -10.6994    180.8402     41.3588   6.4514091554e+01   3.5001427050e+01    0.3019421    0.2491708 -19.44  0.001444349    1.601    0.376
       153 -10.2452     95.0217     42.2412   8.2093771109e+01   5.3806925222e+01    0.1959414    0.1753863  -3.06 0.0005880973    1.134    0.118
       154 -10.1738     36.0827     41.1134   1.0168311763e+02   6.3368946892e+01    0.2458797    0.1573511  -7.64  0.001464572    1.555    0.357
       155  -9.0823     51.0000     39.9046   9.5484432499e+01   6.1609265186e+01    0.1865352   0.06379604 -38.21 0.0007956207    2.895    0.655
       156  -9.8894    132.8253     38.8903   7.2069330202e+01   4.6250938752e+01    0.8057885    0.1805501  59.52  0.002421217    4.467    0.776
       157  -9.9732    129.2777     30.5582   7.0368492222e+01   4.8018852878e+01    0.3375854    0.1736708  51.43  0.001429494    1.679    0.404
       158 -12.2430    121.7526     37.5143   7.4000036710e+01   4.8856575552e+01    0.5904527    0.4305092  68.71  0.002281347    1.432    0.301
       159 -12.1590    123.1384     32.8836   7.2312451085e+01   4.9101814391e+01    0.2695126    0.2145425  51.74  0.000321887    1.100    0.091
       160 -10.2823     70.1301     41.6148   8.9398763837e+01   5.8418435997e+01    0.3002239     0.188295  20.15 0.0009111354    1.680    0.405
       161  -9.1329    168.3890     38.4927   6.5666437036e+01   3.8214813989e+01    0.1280293     0.114351  80.64 0.0001045366    1.036    0.035
       162 -11.3974      2.7676     34.8058   1.1381649731e+02   6.7459084002e+01    0.4234011    0.1725555 -37.17  0.002373014    1.923    0.480
       163 -10.2202    145.0371     33.0996   6.8124777809e+01   4.4200361246e+01    0.1854464    0.1807416 -75.05 0.0003713267    1.140    0.122
       164 -10.6864    139.7337     40.6556   7.1200553223e+01   4.4481972639e+01    0.2371085    0.2017825  85.31 0.0005536663    1.218    0.179
       165 -11.1686    134.1149     34.3637   7.0513901033e+01   4.6508188419e+01    0.2084913     0.176766  36.40  0.000396296    1.222    0.181
       166 -10.0567     91.7066     33.0213   7.9928232373e+01   5.5595554206e+01    0.2115713    0.1574302  -6.70 0.0007475654    1.475    0.322
       167  -9.9610     87.7653     31.6232   8.0541663403e+01   5.6516273110e+01    0.3410017    0.1144354  51.37  0.001385902    2.772    0.639
       168 -11.4089     38.7133     30.8809   9.6866542251e+01   6.4501341672e+01    0.2914414    0.1756273   8.40 0.0004166107    1.707    0.414
       169 -11.6356     43.5715     29.2173   9.4327051715e+01   6.4080772472e+01    0.5471254    0.3230421  -8.81  0.002827199    1.850    0.459
       170 -10.5478    166.3026     31.1661   6.4159978166e+01   3.9586453063e+01    0.2082853    0.1831039 -77.53 0.0003907979    1.119    0.106
       171  -9.6709     77.2363     30.9682   8.3382927202e+01   5.8539162544e+01    0.1944218    0.1409176 -26.78  0.000326686    1.469    0.319
       172 -11.4955     18.0875    248.9342   1.4242845285e+02   1.8955221188e+01    0.2370424    0.1998906  -1.38  0.001599335    2.115    0.527
       173  -9.8036    205.1658     30.3990   5.8975885931e+01   3.0968916689e+01     0.180608    0.1017037  84.38  0.000753579    1.731    0.422
       174 -10.0381    147.0116     26.3033   6.5945094030e+01   4.4521714867e+01    0.1945914    0.1648352 -61.05 0.0002058327    1.285    0.221
       175 -12.3738      8.5121     29.2391   1.0925345890e+02   6.7885162639e+01    0.2166028    0.1905816  -9.67  0.001721294    1.357    0.263
       176  -9.7225     69.8500     28.8228   8.4910222472e+01   6.0084466715e+01    0.1850559    0.1411311  16.24 0.0004903639    1.174    0.149
       177  -9.4455     96.8460     28.2211   7.6960124404e+01   5.5128786635e+01    0.1651686    0.1247716  26.82 0.0002673526    1.273    0.214
       178  -9.5320    229.0461     26.4998   5.5776161588e+01   2.6396320163e+01    0.1638905     0.100475  74.03 0.0004864745    1.479    0.324
       179 -10.2976    100.9367     25.8826   7.5165264379e+01   5.4557108723e+01    0.1836598     0.150125 -78.00  0.001118721    1.703    0.413
       180  -9.4296     18.3764     26.2853   1.0368886009e+02   6.7425177153e+01    0.1184279   0.06805225  -7.28 0.0007015772    1.720    0.419
       181  -9.6332    153.7857     25.5957   6.4658983395e+01   4.3066343808e+01    0.1808383    0.1087983  76.37 0.0007342224    1.639    0.390
       182 -10.6132    113.9139     24.2399   7.1654916601e+01   5.2029800681e+01    0.2730462    0.2241587  14.82  0.001093627    1.343    0.255
       183  -9.9245    229.7809    247.9847   9.9758222218e+01  -1.1882770397e+01    0.1887894    0.1383278  -9.86 0.0008975689    1.218    0.179
       184  -9.5259    187.3189    246.3166   1.0775278555e+02  -5.5161373009e+00    0.1337166   0.09353429  -1.34 0.0002763771    1.656    0.396
       185  -9.6323    136.4951    245.5644   1.1823788580e+02   2.7703134817e+00    0.2113099    0.1319965 -69.81 0.0007253007    2.159    0.537
       186  -9.3512     45.0338    244.2592   1.3701914066e+02   1.6730629362e+01    0.1494535    0.0965771  42.85 0.0004301665    1.492    0.330
       187 -10.1838     89.4820     23.5925   7.7314891141e+01   5.7070240049e+01    0.2026481    0.1767718  20.23 0.0005608813    1.087    0.080
       188  -9.4758    238.4893     22.9820   5.4289918308e+01   2.4921451070e+01    0.1601402   0.09869997 -48.30   0.00100133    1.499    0.333
       189 -10.8521      1.8942     21.1586   1.0936697549e+02   6.9572491927e+01    0.2468765     0.131156 -43.45  0.001593894    1.792    0.442
       190  -8.7431      5.9955     13.9935   1.0455692993e+02   7.0210421930e+01     0.151134    0.1054897 -16.42  0.001003818    1.092    0.084
       191 -11.2484     13.5774     20.9592   1.0378801387e+02   6.8612132458e+01    0.2381285    0.2110747   2.58  0.001130299    1.457    0.314
       192  -9.5132     60.7155    241.1611   1.3361097866e+02   1.5324943666e+01    0.2408854   0.08020467  38.19 0.0009851798    2.734    0.634
       193  -9.6517    202.4975    240.0862   1.0366030127e+02  -6.7674471460e+00    0.1851227    0.1215574 -38.35 0.0007322999    1.538    0.350
       194 -10.2932     20.1567     16.8709   9.9153851861e+01   6.8476330793e+01    0.1527329    0.1220659   4.25 0.0004578927    1.189    0.159
       195 -11.4322     14.6220    239.2459   1.4239783397e+02   2.1366113927e+01    0.2969504    0.1271068  63.15  0.001131569    2.205    0.546
       196 -12.0485     26.3358    236.0720   1.3995817801e+02   2.0751720293e+01    0.3508413    0.2452179 -77.37  0.001405524    1.295    0.228
       197 -11.9694      4.1369    232.5089   1.4387452913e+02   2.3888084142e+01     0.363453    0.1972689  68.87 0.0002758693    1.578    0.366
       198 -13.4212      9.8772    228.6795   1.4254542468e+02   2.4142258640e+01    0.8160397    0.4917456  73.27  0.004440767    1.402    0.287
       199  -9.1949    210.6716    235.7107   1.0129144225e+02  -7.2502162136e+00    0.1328441   0.09070893  -1.80 0.0003682317    1.618    0.382
       200  -9.8945     84.5328     21.2809   7.7847601365e+01   5.8254801981e+01     0.253715     0.106683  41.88 0.0008533911    2.053    0.513
       201  -9.8893     31.0716     20.3111   9.5844731186e+01   6.6804415195e+01    0.1918206    0.1214846 -16.46 0.0006414598    1.417    0.294
       202  -9.3460    131.8326     20.4201   6.6960119683e+01   4.8528312416e+01    0.1813789   0.09554321  51.93 0.0007371171    1.620    0.383
       203 -10.3940    100.4214     19.2210   7.3102300260e+01   5.5336462312e+01    0.2595121    0.2092624 -79.05  0.001231976    1.726    0.421
       204 -10.0018    249.2067    234.0247   9.3809276028e+01  -1.2279843945e+01    0.1926413    0.1515036   6.80 0.0004606901    1.165    0.142
       205  -8.8837    209.4998    229.5104   1.0042831812e+02  -6.0178603830e+00     0.131143      0.11531  -2.71 -1.470358e-05    1.021    0.021
       206  -9.7548    199.8095     17.2175   5.6774450531e+01   3.3685571399e+01    0.1534618    0.1283833  66.10 0.0004922941    1.296    0.228
       207 -10.1508    140.1751    227.4777   1.1469078948e+02   5.7886311624e+00    0.2656034    0.1909008 -77.78  0.001164393    1.839    0.456
       208 -11.2567    108.4490     16.2872   7.0344606812e+01   5.3959549732e+01    0.1956951    0.1691524  52.38 0.0002845207    1.058    0.055
       209  -9.0024    104.3340     17.2915   7.1572246113e+01   5.4719609370e+01    0.1286801   0.07825076  34.24 0.0004609916    1.635    0.388
       210  -9.7150     26.6206     16.5557   9.6194214634e+01   6.7788756254e+01    0.1596944    0.1339712   6.77 0.0006444984    1.273    0.214
       211  -9.4848    109.7670    226.9741   1.2137799510e+02   1.1013649647e+01    0.1791374    0.1149466 -59.57 0.0008779126    1.629    0.386
       212  -9.8753     33.2281    225.4469   1.3770624298e+02   2.2303054577e+01      0.29901   0.07044379  42.89  0.001143435    3.404    0.706
       213 -10.0483     49.0704     16.0766   8.7108734661e+01   6.4834035832e+01    0.1694494    0.1402698  15.42  0.000539293    1.121    0.108
       214  -9.3895    200.3488    235.8298   1.0335637837e+02  -5.7156077305e+00    0.1828386    0.1115763 -31.13 0.0009174154    1.678    0.404
       215 -12.1299      7.9680    217.2726   1.4208588252e+02   2.6861843687e+01    0.4122441    0.2615744  88.14  0.002538305    1.275    0.216
       216 -10.7439    231.7737     14.0960   5.3216603092e+01   2.7325877740e+01    0.1869271    0.1316695 -88.55 0.0004243433    1.140    0.123
       217  -9.9537    174.1821     14.1854   5.9000826395e+01   3.9669666454e+01     0.175054    0.1245149 -80.46 0.0005083606    1.353    0.261
       218 -10.5359     20.6952    209.7637   1.3889449902e+02   2.7289964445e+01     0.232193    0.1664887  76.97 -0.000275831    1.195    0.163
       219  -9.1669     95.2631     13.6720   7.2481512438e+01   5.6891605785e+01    0.1064145   0.09168454 -73.81 0.0006961193    1.568    0.362
       220  -9.2859    247.0000    207.0428   8.9303733824e+01  -7.6473070445e+00    0.2132822   0.06324229 -41.58 0.0008037764    2.952    0.661
       221  -9.7697    203.0134     11.7719   5.5322446813e+01   3.3587315568e+01    0.1538908   0.08230499  74.59 0.0002729405    1.585    0.369
       222  -8.7996    100.3209     11.3241   7.0532697855e+01   5.6078517314e+01    0.1273357   0.07565085  33.12 0.0007046303    1.678    0.404
       223 -10.2890      2.7710    205.4204   1.4222727473e+02   3.0040008176e+01    0.1405466    0.1206843   9.60 0.0009607032    1.731    0.422
       224  -9.8694    195.9627    203.2346   9.8295809235e+01   1.0357013968e+00     0.456508    0.2817668  67.74  0.001693783    3.614    0.723
       225 -10.8932      9.5954    203.6312   1.4068353852e+02   2.9821929153e+01    0.2066912    0.1781912  82.40 0.0007296847    1.150    0.130
       226 -10.3046     23.0615    197.4173   1.3723362980e+02   2.9950010953e+01    0.2323564    0.1490664 -62.38 0.0004398462    1.453    0.312
       227 -10.7294     13.6111    193.5873   1.3894585473e+02   3.1799666909e+01      0.32656     0.121982 -69.49 0.0008533582    2.142    0.533
       228  -9.2800      6.3370    191.6772   1.4035707005e+02   3.2917326626e+01    0.1324521   0.07566765  70.00 0.0007050778    1.715    0.417
       229  -9.5943     15.3650    185.1515   1.3774311991e+02   3.3652051653e+01    0.1894238   0.09995992 -85.46 0.0009402513    1.736    0.424
       230 -10.9106      5.4194    167.7650   1.3829793237e+02   3.8705102838e+01    0.2928289      0.17376  86.13  0.001340041    1.614    0.380
       231  -9.7673     14.5905    164.2026   1.3567459464e+02   3.8812382924e+01    0.1964243   0.09298152 -61.29 0.0009550414    1.712    0.416
       232  -9.0412     41.2975    157.6786   1.2788439832e+02   3.7795237816e+01    0.1401788   0.09780111  76.54  0.000320647    1.620    0.383
       233  -9.1102    247.4815    155.4902   7.9249647233e+01   1.5046129722e+00    0.1358083    0.1138441 -39.00 0.0001854272    1.019    0.019
       234 -10.1631      2.7457    153.6014   1.3743445625e+02   4.2318433243e+01    0.1602242    0.1092005  44.14 0.0009593534    1.685    0.406
       235 -10.5136     24.0204    150.8747   1.3154017310e+02   4.1250608775e+01    0.1999565    0.1671388 -65.52  0.000424442    1.051    0.048
       236 -10.1929     22.5002    143.0473   1.3083745386e+02   4.3312496416e+01      0.20829    0.1099979 -66.31 0.0006622068    1.559    0.358
       237  -9.3010      6.6334    142.2845   1.3507021213e+02   4.4763397277e+01    0.1261104   0.08497889  69.00 0.0005172915    1.694    0.410
       238 -10.4242     12.1055    141.1916   1.3344192846e+02   4.4621469736e+01    0.1907372    0.1446034 -55.00 0.0003881428    1.177    0.151
       239 -10.0767      2.4683    138.4917   1.3571334033e+02   4.5958394589e+01    0.1270165   0.09967062 -68.62 3.505229e-05    1.004    0.004
       240 -10.4508      9.0102    135.5340   1.3352490495e+02   4.6213669451e+01    0.1997229    0.1387531 -68.05 0.0003107661    1.156    0.135
       241  -9.8012    212.8024    134.0657   8.0622171780e+01   1.1953259170e+01    0.2235072    0.1855931 -73.44 0.0008025219    1.303    0.233
       242 -10.2170      2.4454    132.7988   1.3498521580e+02   4.7313050499e+01      0.27941    0.1328673  43.25  0.001390444    2.557    0.609
       243  -9.8642     35.3082    130.6680   1.2514357656e+02   4.5130280360e+01     0.230637    0.1271772 -47.64 0.0005402081    1.629    0.386
       244 -10.8226     12.0748    129.6279   1.3180847732e+02   4.7402899543e+01    0.2724837    0.1783787  75.58 0.0008140276    1.888    0.470
       245 -10.3526    247.9792    128.9792   7.3875421064e+01   6.3170617668e+00    0.2727292    0.1491616 -73.66 0.0004374777    4.137    0.758
