#   1 NUMBER                 Running object number                                     
#   2 MAG_AUTO               Kron-like elliptical aperture magnitude                    [mag]
#   3 X_IMAGE                Object position along x                                    [pixel]
#   4 Y_IMAGE                Object position along y                                    [pixel]
#   5 X_WORLD                Barycenter position along world x axis                     [deg]
#   6 Y_WORLD                Barycenter position along world y axis                     [deg]
#   7 A_WORLD                Profile RMS along major axis (world units)                 [deg]
#   8 B_WORLD                Profile RMS along minor axis (world units)                 [deg]
#   9 THETA_WORLD            Position angle (CCW/world-x)                               [deg]
#  10 FWHM_WORLD             FWHM assuming a gaussian core                              [deg]
#  11 ELONGATION             A_IMAGE/B_IMAGE                                           
#  12 ELLIPTICITY            1 - B_IMAGE/A_IMAGE                                       
         1 -14.0008    246.6057    146.7275   8.8227503063e+01   1.8082268304e+00     1.326297    0.5401376 -46.59  0.005107319    2.532    0.605
         2 -12.9767    190.9808     18.5350   6.6045440885e+01   3.5359775672e+01    0.3808016    0.3268667 -17.08  0.001405082    1.463    0.316
         3 -11.7776    165.1447    246.4068   1.2269776875e+02  -2.2612834922e-01    0.3222795    0.3000108 -59.97  0.001454035    1.296    0.228
         4 -10.8970    190.8154    249.7985   1.1833555036e+02  -5.1228329382e+00    0.1720444    0.1345465  52.83 0.0008640412    1.364    0.267
         5 -12.5244    175.2281    246.7015   1.2081805226e+02  -2.0112799796e+00    0.5470853    0.3481355 -54.00  0.003058061    2.011    0.503
         6 -16.0351    126.6847    226.7457   1.2747860606e+02   9.9699895829e+00     3.147632     2.137865  66.37    0.0170383    1.515    0.340
         7 -19.3329     19.4863    134.3589   1.3900658832e+02   4.5536815403e+01     18.28242     1.290675 -68.49   0.03260241   14.487    0.931
         8 -15.5429    103.9292    243.1109   1.3392879505e+02   1.0699960424e+01     1.793563    0.7692003  46.32  0.008699145    1.925    0.480
         9 -17.3786     78.9263    221.5100   1.3632377003e+02   1.8809446906e+01     4.626389     2.584927  69.01   0.02380036    1.839    0.456
        10 -13.2119    182.1692    220.7459   1.1536113803e+02   9.9683339095e-01     1.224475    0.4048836  48.81  0.004297258    3.216    0.689
        11 -12.4833    169.4809    234.6360   1.2011632929e+02   9.3637628941e-01    0.7225716    0.3898577  61.36  0.003099369    2.716    0.632
        12 -12.4684    204.8100    231.3507   1.1273202428e+02  -4.7525678965e+00    0.4483519    0.3718845 -64.39  0.002718118    1.710    0.415
        13 -11.9612    180.8018    230.9597   1.1731767641e+02  -4.7371236626e-01    0.4472565    0.2951587 -72.89   0.00211924    2.700    0.630
        14 -11.0200    123.5058    250.5465   1.3112274348e+02   6.1759291631e+00    0.2563897    0.1020594  43.65  0.001159916    2.066    0.516
        15 -11.4723    241.2330    229.7991   1.0570525987e+02  -1.0501302606e+01    0.2811007    0.1401751 -40.90  0.001428521    2.275    0.560
        16 -11.9587    223.3248    229.4628   1.0891807982e+02  -7.5912312172e+00    0.2928352    0.2392749 -58.49  0.001583892    1.799    0.444
        17 -12.8561    249.5488    213.6825   1.0129165464e+02  -9.5423471302e+00     1.167639    0.2847468 -34.08  0.003940309    4.456    0.776
        18 -12.8130    235.0703    216.6917   1.0445759524e+02  -7.6538713921e+00    0.5822531    0.3936438 -24.09  0.003326471    1.487    0.327
        19 -14.0305    155.3573    209.4329   1.1894320906e+02   8.0822998765e+00     2.018584     1.011097 -55.33  0.008746379    2.325    0.570
        20 -12.5110    190.0408    231.8553   1.1566010164e+02  -2.2584189050e+00    0.9721248    0.5580698 -67.50  0.003796862    4.171    0.760
        21 -12.2230    140.5822    205.5079   1.2141744963e+02   1.1646137502e+01    0.5430952    0.3526992 -57.51  0.002703633    1.680    0.405
        22 -13.5645    164.7024    214.6034   1.1786826111e+02   5.3405113934e+00    0.9509578     0.761234  35.75  0.004303501    1.179    0.152
        23 -11.4296    186.2345    245.5997   1.1856199619e+02  -3.7281173792e+00    0.2791701    0.2024677  44.86  0.001685054    1.227    0.185
        24 -12.0510    127.5501    203.2235   1.2384211985e+02   1.4530320821e+01    0.6159274     0.283801  57.93  0.002346433    2.666    0.625
        25 -12.5512    179.7559    199.4159   1.1207090144e+02   5.2994389704e+00    0.4078627    0.3424593 -22.48  0.002222989    1.338    0.253
        26 -11.6389    169.1029    196.7812   1.1381956465e+02   7.8924991431e+00    0.3160989    0.2117236 -41.66  0.001538802    1.632    0.387
        27 -13.1448    128.6353    193.8733   1.2209055733e+02   1.6313371303e+01    0.6832751    0.5128013 -40.35  0.003516838    1.604    0.377
        28 -11.7052    242.0214    188.9831   9.7866191634e+01  -4.5305346774e+00    0.2846386    0.1797725 -34.32  0.001485549    1.515    0.340
        29 -13.3027     74.8178    188.5569   1.3320246509e+02   2.6558903130e+01    0.4482029    0.3121502  34.69  0.002039923    1.678    0.404
        30 -12.4159    130.0652    184.1850   1.2010512053e+02   1.8153110255e+01    0.4007246    0.3253084 -26.78  0.002038325    1.619    0.382
        31 -11.5366    206.8441    185.2189   1.0377898034e+02   2.6332261501e+00    0.4163688    0.1864048  43.00  0.001679205    2.170    0.539
        32 -13.1875     83.3235    182.2699   1.3043374606e+02   2.6712484465e+01    0.4336262    0.3094357 -38.08  0.001372857    1.945    0.486
        33 -12.6886     86.2974    177.3362   1.2901807020e+02   2.7387358212e+01    0.3346417    0.2345697 -51.05  0.001047321    1.541    0.351
        34 -11.3087    200.8271    243.4835   1.1547538514e+02  -5.8827659870e+00    0.2391387    0.1914366  11.63  0.001517221    1.248    0.199
        35 -14.1759    141.3137    157.9201   1.1239675637e+02   2.1804514981e+01     0.785282    0.5469997 -64.54  0.003560097    1.590    0.371
        36 -14.2768    135.1134    172.5176   1.1679332884e+02   1.9767588940e+01     1.023118    0.6536636 -40.92  0.004582216    1.790    0.441
        37 -12.9952    144.4811    167.3657   1.1360341449e+02   1.9036281441e+01    0.4418443    0.3676375  48.46   0.00226245    1.168    0.144
        38 -12.4866    249.1432    177.3117   9.4242839236e+01  -3.8701534949e+00    0.3919745       0.2876 -60.38  0.002049669    1.945    0.486
        39 -11.4849    199.9811    177.0019   1.0347775404e+02   5.5317754214e+00     0.234766    0.2235716  18.01  0.001334875    1.008    0.008
        40 -13.6792    154.7435    170.5515   1.1189602565e+02   1.6225316955e+01    0.7862145    0.3306537 -43.08  0.002816956    2.591    0.614
        41 -11.8119    170.8844    171.0738   1.0840091521e+02   1.2745092233e+01    0.4053439    0.2267707  48.19  0.001696398    1.757    0.431
        42 -12.0000     92.9422    167.0515   1.2579638626e+02   2.8720824193e+01    0.2193891    0.1963708 -86.45 0.0004322006    1.013    0.013
        43 -13.1958    235.8774    160.0791   9.2978882002e+01   1.5137509030e+00    0.8075801    0.4956926 -46.49  0.003846569    1.665    0.399
        44 -12.5636     81.7903    162.9966   1.2781099429e+02   3.1450804414e+01    0.3727692    0.2513837 -40.75  0.001295732    1.837    0.456
        45 -11.0496    120.3247    164.3209   1.1870888838e+02   2.4500740981e+01    0.1463835    0.1209677 -13.05 0.0007046605    1.680    0.405
        46 -12.3238    162.5524    161.8479   1.0831168718e+02   1.6469046634e+01    0.3990189    0.3217688 -57.64  0.001970799    1.295    0.228
        47 -11.5430     97.0726    161.1287   1.2376120417e+02   2.9428300471e+01    0.2133735    0.1985196 -42.23 0.0005239103    1.241    0.194
        48 -11.2959    155.6841    248.3431   1.2477151242e+02   1.0939302427e+00    0.2769828    0.1873464  66.63  0.001531616    1.768    0.434
        49 -13.0920    177.4020    148.4004   1.0202013215e+02   1.6112375426e+01    0.3717187     0.318821   3.32  0.001835404    1.391    0.281
        50 -13.4275    161.6918    146.7265   1.0516373030e+02   1.9945708807e+01    0.4947287    0.2842466 -40.36  0.002006094    1.831    0.454
        51 -11.9328     67.5021    142.4959   1.2791076825e+02   3.8404051917e+01    0.3462092    0.1790967  61.26  0.001407112    2.733    0.634
        52 -13.4623    201.5556    210.6368   1.0972449903e+02  -8.4253350353e-01    0.7547963    0.6035979  89.38   0.00401688    1.946    0.486
        53 -11.5290     97.4385    143.7631   1.2036390060e+02   3.3486074277e+01    0.2445892    0.2316976   3.98 0.0004071449    1.254    0.203
        54 -12.2707     54.5314    173.9865   1.3581388468e+02   3.2682113156e+01    0.2145405    0.1965129   1.64  0.001285982    1.559    0.359
        55 -14.4986    159.4155    124.8506   1.0047279395e+02   2.5220773754e+01    0.5655913    0.4464999  28.09  0.002633065    1.468    0.319
        56 -14.5089    191.4831    214.6818   1.1245107850e+02   3.2351114173e-01     1.446595     1.152346  75.78  0.007878079    1.739    0.425
        57 -14.0313    175.6044    130.9008   9.8292985868e+01   2.0215889898e+01     0.639838    0.4112141 -24.64  0.002561943    2.071    0.517
        58 -12.9128    247.5042     78.7406   7.2975556057e+01   1.3415952486e+01    0.3745098    0.1309755 -35.66  0.001365353    2.843    0.648
        59 -12.8403    239.1500     54.3208   6.8573621850e+01   1.9100495735e+01    0.3041839    0.1551757 -83.57  0.001173013    3.002    0.667
        60 -13.0626    244.9075     36.0690   6.3941444633e+01   2.0401156230e+01    0.3439431     0.146145 -47.01  0.001569177    2.080    0.519
