#   1 NUMBER                 Running object number                                     
#   2 MAG_AUTO               Kron-like elliptical aperture magnitude                    [mag]
#   3 X_IMAGE                Object position along x                                    [pixel]
#   4 Y_IMAGE                Object position along y                                    [pixel]
#   5 X_WORLD                Barycenter position along world x axis                     [deg]
#   6 Y_WORLD                Barycenter position along world y axis                     [deg]
#   7 A_WORLD                Profile RMS along major axis (world units)                 [deg]
#   8 B_WORLD                Profile RMS along minor axis (world units)                 [deg]
#   9 THETA_WORLD            Position angle (CCW/world-x)                               [deg]
#  10 FWHM_WORLD             FWHM assuming a gaussian core                              [deg]
#  11 ELONGATION             A_IMAGE/B_IMAGE                                           
#  12 ELLIPTICITY            1 - B_IMAGE/A_IMAGE                                       
         1 -13.2149     10.9767     24.5289   9.6174332777e+01   6.9996313072e+01    0.7351817    0.3008178 -24.00  0.003446196    2.707    0.631
         2 -13.6482    247.0708      6.7380   3.1929074258e+01   2.3528489157e+01     1.061963    0.5011498 -46.63  0.005854588    1.769    0.435
         3 -12.2593      8.3205      1.8911   8.7621759169e+01   7.3832340925e+01    0.8096226     0.176614  25.76  0.003306676    4.498    0.778
         4 -13.0599      5.7276     11.2873   9.3707462200e+01   7.2594397325e+01    0.7713627    0.3781936 -28.37  0.004206401    1.673    0.402
         5 -12.1048     12.8539     13.0133   9.0304160344e+01   7.1779709022e+01    0.3558106    0.1934314 -17.98  0.001613131    1.691    0.409
         6 -12.2772     15.4353      7.0927   8.5983856705e+01   7.2451574907e+01    0.4937467    0.2677167  -5.37  0.002531096    1.893    0.472
         7 -12.9685     24.1585      4.3520   7.9624178671e+01   7.1927100127e+01    0.5808972    0.3631391   4.37  0.003691436    1.428    0.300
         8 -12.2096     19.4583     14.1647   8.7104396467e+01   7.1015262491e+01     0.370681    0.1880641 -20.53  0.002015471    1.938    0.484
         9 -11.9923     32.8277      8.3916   7.7125602228e+01   7.0352534203e+01    0.3459038    0.1300273  27.24  0.001576029    2.780    0.640
        10 -11.7045     47.6429      5.3333   6.8500137902e+01   6.8615054037e+01    0.2630955    0.1438565  11.48  0.001353535    2.057    0.514
        11 -11.4640    186.9812      4.2336   3.6456025738e+01   3.7440735164e+01    0.1806183   0.09490103  73.82 0.0007386249    1.661    0.398
        12 -11.7991     40.8403      2.7365   7.0242023053e+01   6.9939024574e+01    0.3658102    0.1775635  25.86  0.001919946    1.974    0.494
        13 -11.1432    170.0065      2.0000   3.7751554395e+01   4.1805204587e+01    0.2231565   0.06488004  70.69 0.0008034318    2.949    0.661
        14 -11.0093     33.7430      1.5748   7.3074842466e+01   7.1075043317e+01    0.2183985   0.09483596  32.03  0.001135665    2.101    0.524
        15 -11.7911     56.5758    241.8484   1.1790413561e+02   1.7315628574e+01    0.4114136     0.157068  52.06  0.002031474    2.191    0.544
        16 -12.8383    234.7267    244.2033   8.3011333544e+01  -9.2923424741e+00    0.4838609    0.2596222   8.62  0.002531425    2.042    0.510
        17 -12.6809    241.7525    237.7155   8.0680908766e+01  -9.4264755123e+00    0.6170812    0.2871671  -2.47  0.002400926    4.152    0.759
        18 -12.3840    247.6068    239.1717   7.9890390156e+01  -1.0370304371e+01    0.4648987    0.2448744 -14.82  0.002011315    1.948    0.487
        19 -11.8077    249.9971    232.6973   7.8377968400e+01  -9.8879051190e+00    0.3213028    0.1984723  -9.88  0.001982373    1.464    0.317
        20 -11.1312    249.4576    249.9062   8.1330464460e+01  -1.1864842012e+01     0.417905    0.1824594  28.51  0.002316161    1.937    0.484
        21 -11.0741    248.8667    244.9043   8.0619474376e+01  -1.1213074763e+01    0.3004318    0.1945008  -1.00  0.001978893    1.301    0.232
        22 -12.6882    243.0964    245.4169   8.1715624675e+01  -1.0537738743e+01    0.6148491    0.2980291 -16.82  0.003246828    2.305    0.566
        23 -12.6158    212.9691    247.8485   8.7598916230e+01  -6.7507663668e+00    0.4612262    0.2556734  11.69  0.002443294    1.991    0.498
        24 -10.8103    168.8162    250.3821   9.6511298110e+01  -5.4009180240e-01    0.1895959   0.09676838  28.82 0.0009573101    1.755    0.430
        25 -10.8058     74.4999    250.4907   1.1516658324e+02   1.3416510265e+01    0.2266193    0.0730755  45.67  0.001036371    2.353    0.575
        26 -11.0305     50.4516    250.1536   1.1964387444e+02   1.6532452376e+01    0.3567266    0.1116439  39.95  0.001726288    2.440    0.590
        27 -11.3853     36.7113    248.7666   1.2204672943e+02   1.8391514914e+01    0.3731103    0.1582512  59.21  0.002063503    1.994    0.498
        28 -11.3678     20.1650    249.1196   1.2497262175e+02   2.0121219064e+01    0.2913461    0.1605502  57.65   0.00194287    1.358    0.264
        29 -11.1362     12.0488    248.9613   1.2634886939e+02   2.0973857915e+01    0.3149009    0.1434939  56.56  0.001770287    1.633    0.387
        30 -10.6350      3.0860    250.5224   1.2790445426e+02   2.1561789275e+01    0.2386936   0.08367493  35.11  0.001335945    2.628    0.619
        31 -11.3837     29.1891    240.4173   1.2291492411e+02   2.0774962784e+01    0.3585179    0.1591033  65.03  0.001983552    2.021    0.505
        32 -11.7668     15.8425    240.3549   1.2529558142e+02   2.2179105759e+01    0.4669815    0.1837618  51.07   0.00269468    1.910    0.476
        33 -11.2764    107.4477    240.2969   1.0765244722e+02   1.0583387052e+01    0.2392488    0.1222029  51.71  0.001203128    1.813    0.449
        34 -11.4791     72.4028    240.1070   1.1468840040e+02   1.5600775886e+01    0.2846799    0.1278953  42.64  0.001479081    1.788    0.441
        35 -10.4565     38.0155    240.0516   1.2127383155e+02   1.9864978839e+01    0.1966881   0.09850198  62.18  0.001136089    1.712    0.416
        36 -10.8563     45.1292    237.4053   1.1976266763e+02   1.9546273142e+01     0.236873    0.1050148  64.74  0.001199797    2.248    0.555
        37 -11.2337      6.3574    236.1642   1.2675907755e+02   2.3890179525e+01    0.2930598    0.1566435  75.31  0.001638729    1.504    0.335
        38 -10.4624     81.6686    236.3370   1.1249092301e+02   1.5049823436e+01    0.1331329   0.07671727  62.76 0.0007052072    1.736    0.424
        39 -11.7434    231.9779    234.4957   8.1903663164e+01  -7.6901861462e+00    0.2382354    0.1464247 -12.14  0.001390672    1.612    0.380
        40 -10.0887    238.3057    234.3279   8.0727770466e+01  -8.5379709651e+00    0.1258494   0.07560442   2.46 0.0007036404    1.652    0.395
        41 -10.7499     13.9407    231.7715   1.2520726617e+02   2.4000128105e+01    0.3092827    0.1378381  53.97   0.00183391    1.754    0.430
        42 -10.4406     39.7085    230.9803   1.2035411952e+02   2.1421899973e+01    0.1695478    0.1286376  75.72  0.001179777    1.096    0.087
        43 -11.7157     25.5979    228.4610   1.2287694525e+02   2.3463616196e+01    0.4141541    0.1678037  75.61  0.001992478    2.697    0.629
        44 -12.4525    226.2666    240.7820   8.3994970629e+01  -7.7086749262e+00    0.3053198    0.1822982  -9.69  0.001743718    1.771    0.436
        45 -11.4144      4.4480    228.0916   1.2673361138e+02   2.5611768043e+01    0.3484401     0.164275  64.21  0.002128341    1.699    0.411
        46 -11.6508    237.1707    228.0646   7.9862143525e+01  -7.5702294067e+00    0.3034433    0.1613462 -10.20  0.001516963    2.251    0.556
        47 -12.0709    249.1962    225.0355   7.7192779382e+01  -8.8160609754e+00    0.3456553    0.1675242 -25.36  0.001844004    1.970    0.492
        48 -10.6007     11.0711    225.7678   1.2542516958e+02   2.5447171110e+01     0.280961    0.1279795  65.71  0.001615483    1.858    0.462
        49 -10.8738     18.5644    221.7021   1.2380908306e+02   2.5526492110e+01    0.2093845   0.09704303  54.54  0.001197233    1.762    0.432
        50 -11.1817      2.0630    220.7398   1.2682703903e+02   2.7266943353e+01    0.2670233     0.130835  89.65  0.001627331    1.713    0.416
        51 -10.1932     43.6507    221.3336   1.1887878913e+02   2.2898709134e+01    0.1329912   0.06916702  63.25 0.0002843663    1.776    0.437
        52 -11.3980     11.8515    216.5932   1.2479754802e+02   2.7206337339e+01    0.3694954    0.1580207  56.37  0.002055443    1.941    0.485
        53 -11.7506    248.7926    214.4181   7.5373971594e+01  -7.3641293773e+00    0.3521902    0.1716806 -24.53  0.001809173    1.983    0.496
        54 -11.2712      2.3720    212.4849   1.2637748012e+02   2.8896605358e+01    0.2906279    0.1412064  79.54  0.001708949    1.747    0.428
        55  -9.9224    230.9437    212.9947   7.8334287267e+01  -4.5982410142e+00    0.1574022    0.1230557  12.71 0.0009857966    1.080    0.074
        56 -11.9164     12.9286    205.3682   1.2394636690e+02   2.9426214613e+01    0.3524972    0.1739198  69.13  0.001978975    1.813    0.448
        57 -11.7094      3.5029    196.8301   1.2533825589e+02   3.2059993641e+01    0.3108379    0.1480393  73.51  0.001724719    1.873    0.466
        58 -11.3852      4.0208    188.9178   1.2477527639e+02   3.3720671050e+01    0.3120272     0.130233  60.01  0.001606989    2.215    0.548
        59 -10.9307      1.5228    177.9772   1.2463598630e+02   3.6321768258e+01    0.2688191   0.09416457 -86.03  0.001211409    2.584    0.613
        60 -10.9163    248.4928    129.5301   5.8357264847e+01   5.6832886192e+00    0.2488913    0.1076292 -44.84  0.001031625    2.263    0.558
        61 -11.8147    248.9686    118.4948   5.5878340062e+01   7.4001008528e+00    0.2795563    0.1671176 -47.76  0.001384094    1.653    0.395
        62 -12.1324    249.2217     98.0896   5.1347220153e+01   1.0642501710e+01    0.3269803    0.1514262 -42.44  0.001467878    1.877    0.467
        63 -11.6300    249.1684     87.8811   4.9096407024e+01   1.2257986859e+01    0.2160635    0.1647991 -56.60 0.0009997055    1.273    0.214
        64 -12.5753    249.3047     76.0575   4.6468647656e+01   1.4039818975e+01    0.6377358    0.1157327 -41.19  0.001975496    4.120    0.757
        65 -11.7191    249.6637     53.1471   4.1424821664e+01   1.7275682038e+01    0.3683909   0.07216128 -39.17  0.001249128    3.689    0.729
        66 -11.5110      2.7070     51.3049   1.0850428371e+02   6.5270083689e+01    0.3804321   0.09801137 -51.33  0.001701754    2.406    0.584
        67 -10.5601    247.6790     37.6997   3.8303843968e+01   1.9746309091e+01    0.1126073   0.09715845  31.76 0.0003004108    1.625    0.385
        68 -11.5406     18.5668     30.9377   9.4596942489e+01   6.8287868636e+01    0.3487196    0.1240436 -31.39   0.00146867    2.978    0.664
        69 -12.0624    225.8403    248.2306   8.5273370149e+01  -8.5902989928e+00     0.290968    0.1799593  19.85  0.001634144    1.318    0.241
        70 -11.9340      1.6392     25.0898   1.0147258982e+02   7.0458891085e+01    0.3865346    0.1184973 -56.63  0.001772809    2.791    0.642
        71 -10.8711     21.1161     23.1904   9.0194519031e+01   6.9414289963e+01    0.2944555    0.1442652   9.00  0.001517629    2.303    0.566
        72 -10.8942    203.0117    249.0452   8.9666207573e+01  -5.4774092801e+00    0.2040971    0.1256411   7.47  0.001142811    1.751    0.429
        73 -11.7369     25.6726     16.6471   8.4888609925e+01   7.0013534114e+01    0.2773472    0.1567379 -12.49  0.001548781    1.793    0.442
        74 -11.9407    127.3389    248.1725   1.0452239282e+02   6.2005382796e+00    0.2973137    0.1637083  47.77  0.001599365    1.587    0.370
        75 -11.3051    120.0044    249.2702   1.0612059618e+02   7.1297578004e+00    0.1869596    0.1369865  41.19 0.0009679674    1.100    0.091
        76 -11.5687     65.0521    249.0014   1.1684119089e+02   1.4921567468e+01    0.2974685    0.1267108  45.41  0.001586182    1.811    0.448
        77 -10.3188     27.1377    248.6870   1.2373902722e+02   1.9462721362e+01    0.1884659   0.09574023  55.93  0.001187454    1.500    0.334
        78 -12.3651    142.5159    248.1091   1.0146008703e+02   3.8740201191e+00    0.3973128    0.1574404  37.49  0.001821782    2.034    0.508
        79 -11.1154     34.1054     16.3564   8.0399292176e+01   6.9097379377e+01     0.268416    0.1314851  19.59  0.001363623    2.158    0.537
        80 -11.6804     97.6834    244.6655   1.1009300057e+02   1.1236710138e+01    0.2886091    0.1209036  43.79  0.001403009    1.897    0.473
        81 -11.8022     84.8340    244.2325   1.1260650978e+02   1.3140451751e+01    0.3098997    0.1417807  52.70  0.001560298    1.952    0.488
        82 -11.0462     44.6315    244.8796   1.2036265408e+02   1.8194535354e+01    0.2369755    0.1287154  48.89    0.0013933    1.443    0.307
        83 -11.7946      3.2296    243.0932   1.2758753320e+02   2.2893713725e+01    0.3684978    0.1783088  66.38  0.002231195    1.594    0.373
        84 -11.3340    194.9734    246.0016   9.0746606906e+01  -3.8793722079e+00    0.2067335    0.1307766   6.98  0.001095433    1.749    0.428
        85 -11.7727    115.5836    244.3337   1.0645051339e+02   8.6430885936e+00    0.2645383    0.1374114  36.70  0.001374315    1.623    0.384
