#   1 NUMBER                 Running object number                                     
#   2 MAG_AUTO               Kron-like elliptical aperture magnitude                    [mag]
#   3 X_IMAGE                Object position along x                                    [pixel]
#   4 Y_IMAGE                Object position along y                                    [pixel]
#   5 X_WORLD                Barycenter position along world x axis                     [deg]
#   6 Y_WORLD                Barycenter position along world y axis                     [deg]
#   7 A_WORLD                Profile RMS along major axis (world units)                 [deg]
#   8 B_WORLD                Profile RMS along minor axis (world units)                 [deg]
#   9 THETA_WORLD            Position angle (CCW/world-x)                               [deg]
#  10 FWHM_WORLD             FWHM assuming a gaussian core                              [deg]
#  11 ELONGATION             A_IMAGE/B_IMAGE                                           
#  12 ELLIPTICITY            1 - B_IMAGE/A_IMAGE                                       
         1 -14.3289     68.2578    144.3007   1.0572838254e+02   3.7396384216e+01     4.675292     2.392189  76.49   0.01521253    4.202    0.762
         2 -13.8835    227.4658     15.6932   3.7073081096e+01   2.7268253388e+01     1.094339    0.9322506  29.98  0.002678714    1.594    0.373
         3 -13.7781    201.3289     39.2066   4.5732693296e+01   3.0518992799e+01     1.414662     1.122377  -4.55  0.004419498    1.614    0.381
         4 -13.6784    209.4566     33.6419   4.3271441536e+01   2.9294097250e+01     1.339012    0.8875185 -33.83  0.005558202    1.505    0.336
         5 -12.6487    216.7633     26.5848   4.0690766607e+01   2.8449300046e+01    0.5421956    0.4625234  35.57  0.001271439    1.477    0.323
         6 -10.2031      2.0000      3.9822   9.3333337950e+01   7.4026182434e+01    0.2936413   0.05019626 -48.58  0.001051791    4.938    0.798
         7  -9.9651    248.2842      1.5252   3.2418899718e+01   2.4298331360e+01    0.2732782   0.09896302  72.60  0.001299234    2.602    0.616
         8 -11.7036    183.7977    215.1441   9.0554641338e+01   2.9834019227e+00    0.3200231     0.288628  42.58  0.002023563    1.252    0.201
         9  -9.9529    174.5132    249.5228   9.7674672066e+01  -8.5114970853e-01    0.2416992    0.1699334  65.03  0.001059259    2.311    0.567
        10 -13.1741     48.4211    220.5109   1.1932978405e+02   2.2477697150e+01      1.28404    0.8262298  79.37  0.008004699    1.411    0.291
        11 -13.1095     40.6158    235.1713   1.2187201039e+02   2.0500807588e+01    0.7820402    0.3696332  69.77   0.00145076    2.070    0.517
        12 -14.7719    124.9686    229.4054   1.0477310908e+02   1.0088129956e+01     5.421045     1.562678  35.35   0.01955186    3.371    0.703
        13 -13.3171     32.1025    247.8195   1.2414947741e+02   1.9099078440e+01    0.9822863    0.5978145  40.93  0.006759307    1.542    0.351
        14 -13.7873     22.0105    223.8418   1.2456263427e+02   2.4694952210e+01     1.195591    0.5400763  71.36   0.00410713    2.060    0.514
        15 -15.9680     36.1644    189.8197   1.1929064111e+02   3.0390514041e+01     8.834635     3.236863  81.89   0.02767388    5.481    0.818
        16 -11.0425    192.9687    194.0204   8.4893790601e+01   5.0042087454e+00     0.826736    0.4228162 -56.96  0.003110111    3.541    0.718
        17 -13.3368     32.9186    207.7793   1.2141694129e+02   2.6841851497e+01    0.6284207    0.4659896 -40.21  0.001199438    2.043    0.511
        18  -8.8458     72.2268    188.3984   1.1106388518e+02   2.6363013098e+01    0.1734785    0.1097337  50.34   0.00030231    1.492    0.330
        19  -9.2270    146.5156    183.4878   9.2979689904e+01   1.5406070220e+01    0.1428992    0.1354873  36.62 0.0008102981    1.018    0.017
        20 -11.9834     60.7943    180.0031   1.1270807003e+02   2.9778577905e+01    0.4248615    0.2846643 -35.41  0.002170768    2.165    0.538
        21 -11.9502     66.0685    174.4421   1.1075691069e+02   3.0399862451e+01     0.314473    0.2508184 -46.00 0.0006963038    1.453    0.312
        22  -9.0715     99.3536    180.9939   1.0365428881e+02   2.4061130528e+01    0.1903365    0.1721027 -79.66 0.0004990574    1.087    0.080
        23 -15.1424      7.7688    239.9187   1.2786362464e+02   2.3020792634e+01     2.034727     1.187102 -80.18   0.01446716    1.563    0.360
        24 -11.3299     39.6468    173.3803   1.1693583653e+02   3.3773421651e+01     0.334391    0.2481909 -40.63  0.001402415    1.745    0.427
        25 -11.5913     75.9494    164.5550   1.0692047036e+02   3.1410074874e+01    0.3010881    0.2843651  77.39 0.0003778998    1.074    0.069
        26 -13.1011     82.4200    158.2230   1.0425678964e+02   3.2003711446e+01     1.570867     1.020793  58.11 0.0008625857    1.689    0.408
        27 -14.5846      9.4609    207.3425   1.2594983068e+02   2.9227912161e+01      1.12194     1.004118  -8.89  0.005505623    1.795    0.443
        28 -10.0519    139.1642    172.1619   9.2568458141e+01   1.9156936076e+01    0.4834269    0.2133011  54.45  0.001602252    3.276    0.695
        29  -9.2126    174.7112    149.3179   7.9486740053e+01   1.7020336162e+01    0.1472683    0.1232562 -82.86 0.0003337954    1.595    0.373
        30 -10.3918    134.2174    146.9583   8.8601759205e+01   2.5724194012e+01    0.7288581    0.1809067 -53.00  0.001811534    5.000    0.800
        31 -10.4591     37.4361    215.6656   1.2110785106e+02   2.4715266647e+01    0.2610056    0.1361512  65.47 0.0008195164    1.755    0.430
        32 -10.9207     97.6753    143.9348   9.7585312166e+01   3.3082140381e+01    0.3710187    0.2893807 -39.25  0.001025555    1.370    0.270
        33 -10.0613    100.3727    140.2501   9.6099819038e+01   3.3522114106e+01    0.2998747    0.2123253   6.38  0.001314917    2.073    0.518
        34 -11.7806     31.4689    144.3033   1.1569988398e+02   4.1529819925e+01    0.3515021    0.2884681  -7.70  0.002172794    1.650    0.394
        35 -12.3272     85.6836    142.1327   1.0052529702e+02   3.5434934844e+01    0.3125691    0.2646925 -47.62 0.0004506832    1.183    0.155
        36 -12.1565     66.6902    127.2652   1.0311132820e+02   4.1818824937e+01    0.7514644    0.3712893 -72.41  0.002955572    2.422    0.587
        37 -11.5466     24.5004    133.9792   1.1630557283e+02   4.4647891052e+01    0.4098572    0.2205464  59.94   0.00177121    2.183    0.542
        38 -10.7894    107.4720    131.4827   9.2238617578e+01   3.4393595312e+01    0.5489613    0.3516182  43.24  0.002456955    1.619    0.382
        39  -8.8768    158.6625    131.2968   7.8914910207e+01   2.4182669925e+01    0.1565751      0.12673  88.68 0.0007031491    1.654    0.395
        40 -11.2700     46.4164    129.7956   1.0950857786e+02   4.3609392639e+01    0.2768376    0.2385719  22.27  0.001477184    1.381    0.276
        41 -10.8359    135.3540    122.3831   8.2496998474e+01   3.1086211648e+01    0.6492313    0.1474208 -51.14  0.001405769    6.139    0.837
        42 -10.1773    115.9633    125.3483   8.8449137398e+01   3.4276507501e+01    0.2788101    0.2160832 -22.32  0.001299482    1.524    0.344
        43 -13.5169     63.1798    160.6797   1.0960839190e+02   3.4053887255e+01    0.6095409    0.3332218 -45.04  0.001445301    2.135    0.532
        44  -9.7033    106.2472    120.1292   8.9919432057e+01   3.7321279445e+01    0.2170776    0.1945787 -28.20 0.0003936931    1.149    0.130
        45  -9.0126    230.6830    113.6555   6.0131219954e+01   1.2155317472e+01    0.1463773    0.1082707   0.48  0.000704861    1.719    0.418
        46  -9.3539    168.0345    113.0845   7.2086745963e+01   2.5942177133e+01    0.2561834     0.197087 -79.02  0.001126906    1.792    0.442
        47 -10.4849     96.3901    127.8962   9.4562557051e+01   3.7189355412e+01    0.3304692    0.2417949 -32.52 0.0009754041    1.539    0.350
        48 -10.0138    205.2809    110.6030   6.3795468786e+01   1.8065345556e+01    0.3245584    0.2603435  27.47 0.0009238325    1.404    0.288
        49  -9.5182    134.4994    102.9922   7.7551953575e+01   3.5545846194e+01    0.2431622    0.1526107 -43.17 0.0005003776    1.554    0.357
        50 -11.3821    242.4724    102.1199   5.5614618583e+01   1.1726467170e+01    0.2290385    0.1946727 -72.21  0.001315558    1.362    0.266
        51 -10.3482    249.8347     87.8377   5.1312299502e+01   1.2552742331e+01    0.1924615     0.143152 -55.56 0.0005309915    1.327    0.247
        52  -9.3622    160.3995     81.8267   6.5086058714e+01   3.3837014431e+01    0.2160755    0.1477944 -24.15 0.0005348073    1.633    0.387
        53  -8.6908    150.7090     82.7302   6.7577275991e+01   3.5969739114e+01    0.1519379    0.1207585  13.31 0.0002128533    1.510    0.338
        54  -8.9859     71.3415     82.7075   9.1000751857e+01   5.1790604459e+01     0.136684    0.1137989  78.93 0.0004104402    1.654    0.395
        55  -8.7559    184.3358     77.3397   5.8903744215e+01   2.8870750200e+01    0.1571447    0.1182799  16.11  0.000705117    1.755    0.430
        56  -9.3790     61.8506     71.8049   9.1154319925e+01   5.5511192375e+01    0.2083763    0.1690165 -21.47 0.0004066619    1.177    0.150
        57 -10.5164     13.4496     60.2684   1.0715852299e+02   6.2729938920e+01      0.21271    0.1776118 -55.63 0.0004238086    1.143    0.125
        58  -9.2301     24.7568     58.3542   1.0189902696e+02   6.2356626064e+01    0.1574742    0.1092743  -5.30 0.0004666286    1.574    0.365
        59 -14.5610     75.9810    247.7537   1.1630703218e+02   1.3831946006e+01     4.097433     0.869579  34.55   0.01369138    5.151    0.806
        60 -10.1336     73.1195    230.9540   1.1538132117e+02   1.7320875761e+01    0.2926235    0.1556127  26.23  0.001455447    2.496    0.599
        61 -13.1952     85.7829    226.9672   1.1247491471e+02   1.6368713535e+01     1.433396    0.7374417  64.16  0.003857712    2.252    0.556
        62  -9.3969    155.8268     46.2435   5.5144943741e+01   4.0794943151e+01    0.2352928    0.1837948  88.02  0.001096596    1.491    0.329
        63  -9.8866    136.7803     43.1201   5.8129887884e+01   4.5894053912e+01    0.2133929    0.1958096 -65.40 0.0004948025    1.220    0.181
        64  -9.9852     93.8234    220.6366   1.1014272474e+02   1.6461652821e+01    0.2228863     0.188016  77.35  0.000474565    1.136    0.120
        65 -13.9169      3.5724    178.5568   1.2539655039e+02   3.5888922299e+01     2.626714    0.5146251 -78.55  0.001534359    4.389    0.772
        66 -10.2920    189.8164     15.3244   4.0771820569e+01   3.6138958500e+01    0.2275733    0.1689694 -49.43 0.0008516644    1.334    0.250
        67  -9.6167     61.8746    200.3421   1.1472303245e+02   2.5069737374e+01    0.2388039    0.1492757  82.89  0.001292234    1.645    0.392
