#   1 NUMBER                 Running object number                                     
#   2 MAG_AUTO               Kron-like elliptical aperture magnitude                    [mag]
#   3 X_IMAGE                Object position along x                                    [pixel]
#   4 Y_IMAGE                Object position along y                                    [pixel]
#   5 X_WORLD                Barycenter position along world x axis                     [deg]
#   6 Y_WORLD                Barycenter position along world y axis                     [deg]
#   7 A_WORLD                Profile RMS along major axis (world units)                 [deg]
#   8 B_WORLD                Profile RMS along minor axis (world units)                 [deg]
#   9 THETA_WORLD            Position angle (CCW/world-x)                               [deg]
#  10 FWHM_WORLD             FWHM assuming a gaussian core                              [deg]
#  11 ELONGATION             A_IMAGE/B_IMAGE                                           
#  12 ELLIPTICITY            1 - B_IMAGE/A_IMAGE                                       
         1 -13.9935    215.5022      7.5650   3.9095191590e+01   2.9996864919e+01     2.505258     1.599621  38.66   0.01193796    2.123    0.529
         2 -13.3239    190.5182     38.9757   5.0464901113e+01   3.2516770574e+01     1.085552    0.9220221 -46.02  0.003576633    1.175    0.149
         3  -9.6393     51.3300      8.3365   7.3960576972e+01   6.7742088683e+01    0.1320721   0.08002231   6.72 0.0007052055    1.732    0.422
         4 -12.8338    195.4020     33.2826   4.8159578688e+01   3.2016317159e+01    0.6980296    0.6735117  48.35  0.001294799    1.143    0.125
         5 -13.2007    175.8475     52.7264   5.6923873740e+01   3.4329739994e+01     2.125116     1.324762  29.06   0.00574138    2.202    0.546
         6 -10.3217     61.5853      2.6164   6.6931010742e+01   6.6701706286e+01    0.2316675    0.1297715  16.37  0.001195143    1.896    0.473
         7  -9.5601     56.2181    223.9711   1.2079086565e+02   2.1237370908e+01    0.1121187   0.08122078  87.99            0    1.243    0.195
         8 -12.5499    247.7510    246.1072   8.7444128301e+01  -1.1306995252e+01     1.023021    0.7340074   6.79  0.007325288    1.096    0.088
         9 -19.5300     20.8294    146.0897   1.2138862123e+02   4.1990196411e+01      19.0829     4.590844 -75.53   0.06588574    3.918    0.745
        10  -9.0921     72.1690    202.6689   1.1566193813e+02   2.3407291177e+01    0.2962907    0.1921167  72.41  0.001343014    1.491    0.329
        11 -10.8454    193.3620    195.7444   8.8807544350e+01   4.1140033965e+00    0.8577518    0.4420775 -59.49  0.002984006    4.471    0.776
        12 -10.0370     96.7162    201.9433   1.1036941684e+02   1.9952114897e+01    0.4912182     0.370883 -24.75  0.002637793    2.157    0.536
        13 -12.0474     58.3341    198.2246   1.1810323739e+02   2.6180758027e+01    0.6643322     0.248055 -58.18  0.002991864    2.762    0.638
        14 -10.8128     72.0421    246.0781   1.1964529120e+02   1.5125355140e+01    0.3813445    0.1979184 -75.52  0.002264606    2.109    0.526
        15 -10.9240    203.7897    199.5602   8.7444281328e+01   1.6301807399e+00    0.4201804    0.1680318  30.28  0.001565846    2.965    0.663
        16 -11.3003    151.1185    195.9025   9.7673600741e+01   1.1851335909e+01    0.4020615    0.3546547  25.01  0.002364374    1.138    0.122
        17  99.0000     50.0869    216.5745   1.2136681396e+02   2.3443700425e+01    0.3142627    0.2261364  -3.51  0.001678898    3.256    0.693
        18  -9.4792     82.1942    195.0681   1.1266402753e+02   2.3585654867e+01    0.2153888    0.1703607  53.93 0.0006627594    1.142    0.125
        19 -10.2245     95.4958    189.2456   1.0897320332e+02   2.2815445468e+01    0.5571257    0.3789948  24.03  0.001051457    1.915    0.478
        20  -9.9427     98.6901    186.3265   1.0784498621e+02   2.2939090362e+01    0.2159996    0.1708195  62.41 0.0004257578    1.170    0.145
        21  -9.2059    156.6812    190.0030   9.5450580473e+01   1.1945656021e+01    0.1833934    0.1802723 -27.78 0.0003886047    1.115    0.103
        22 -10.8590    149.6352    187.5892   9.6567225176e+01   1.3729666408e+01    0.3591394    0.2499163  67.08  0.001715231    1.851    0.460
        23 -10.5380    140.7442    188.4927   9.8692461266e+01   1.5196923557e+01    0.2938986    0.1686424 -37.18  0.001298156    2.208    0.547
        24  -9.8581    238.3782    185.1902   7.8169732191e+01  -2.1421529565e+00    0.1823767    0.1147462 -39.30 0.0009555125    1.717    0.418
        25 -10.8313    151.0456    179.8946   9.4866897759e+01   1.4991253317e+01    0.4516115    0.2976655 -73.14  0.001976898    2.296    0.565
        26 -11.0477    145.2196    180.6022   9.6306576875e+01   1.5955493218e+01    0.3456778    0.3023828  30.58 0.0007850108    1.136    0.120
        27 -11.2918    141.3461    174.1671   9.6010730799e+01   1.8018534210e+01    0.5702347    0.4036897  80.80  0.001904769    2.039    0.510
        28 -10.3353    188.7694    176.7263   8.6070136595e+01   8.2777108618e+00    0.7518558    0.3968845 -57.68   0.00250078    3.184    0.686
        29 -10.3568    131.1258    180.3269   9.9466093328e+01   1.8636906353e+01    0.2221735    0.1736063  27.50  0.000604116    1.392    0.282
        30  -9.3041     50.5833    172.2024   1.1709749325e+02   3.2882038589e+01    0.2894379    0.1715071  62.39  0.001191571    1.662    0.398
        31  -9.8668    183.9970    211.8612   9.3540351727e+01   3.1506851593e+00     0.367283    0.1538139 -36.47  0.001547528    2.852    0.649
        32  -9.6227    240.4714    169.4695   7.4594247411e+01  -1.2897010228e-01    0.1363812    0.1155777  -3.69 8.443862e-05    1.007    0.007
        33 -10.7531    230.5027    168.4257   7.6165290218e+01   1.8062673224e+00    0.3941457    0.2108638 -49.45  0.001678317    2.563    0.610
        34  -7.6158     56.5062    211.5497   1.1970139628e+02   2.3652606993e+01    0.2266744    0.1116191  64.01 0.0007072554    1.977    0.494
        35 -10.7591     99.3113    180.8124   1.0690244706e+02   2.4044643720e+01    0.2710901    0.2598536  15.76 0.0006060114    1.269    0.212
        36  -7.8509     52.5980    208.2886   1.2019322199e+02   2.4804139393e+01     0.226275    0.0880923  63.20 0.0007763947    2.997    0.666
        37 -11.8949     96.2555    151.6214   1.0287282876e+02   3.1237029344e+01    0.6250894    0.4946563 -24.33  0.003177729    1.685    0.406
        38  -9.5149    187.6354    152.3813   8.1128346529e+01   1.3060677982e+01    0.4072115    0.2648777  81.64  0.001389921    3.717    0.731
        39 -10.8428    133.9080    145.9762   9.2143324982e+01   2.5618705662e+01     1.281933    0.3336906 -55.04  0.003007101    5.889    0.830
        40  -9.3131    112.9711    150.6884   9.8407005088e+01   2.8548683580e+01     0.260816    0.1556316  87.17   0.00076466    3.295    0.696
        41  -9.3589    174.6469    149.0244   8.3194332495e+01   1.6464313387e+01    0.2722295     0.251572 -52.51 0.0007928547    1.162    0.139
        42  -9.3834    174.4821    211.6790   9.5421666120e+01   4.8478106329e+00    0.2517716    0.1083054  40.04   0.00108793    2.016    0.504
        43 -11.0131    107.9186    138.2296   9.7197445519e+01   3.2387173583e+01    0.5331545    0.4540775 -55.22  0.002804183    1.150    0.131
        44 -11.7762     96.0261    137.6242   1.0027016238e+02   3.4610304889e+01    0.3201886    0.2836356  73.22 0.0005850018    1.147    0.128
        45 -10.7704    105.6351    131.0359   9.6271110217e+01   3.4504961911e+01    0.4859745    0.3795846 -33.52  0.002389576    1.448    0.309
        46 -10.0912    135.7101    128.4712   8.7685290446e+01   2.9196356221e+01    0.4593732     0.139963 -48.92  0.001344829    3.368    0.703
        47 -10.1752    114.9533    128.9474   9.3269560343e+01   3.3262583406e+01    0.3502697    0.2890785  -5.43  0.000905745    1.543    0.352
        48  -9.4106    160.8675    128.0938   8.1394808220e+01   2.3809350548e+01    0.2480794    0.2257223 -84.92  0.001246968    1.244    0.196
        49 -10.5375    102.4681    124.8138   9.5760413998e+01   3.6553612173e+01     0.306554    0.2477345 -30.19 0.0005809101    1.403    0.287
        50  -9.8234    120.0627    123.3336   9.0566791769e+01   3.3572747013e+01    0.3583594    0.2373386 -26.68  0.001479946    2.004    0.501
        51  -8.6653     80.8142    220.3719   1.1571949008e+02   1.8636220549e+01    0.1584042    0.1064012  35.46 0.0002818946    1.574    0.365
        52  -9.4917    110.0413    118.1930   9.2080231286e+01   3.6718198461e+01     0.242544    0.2117249 -55.63 0.0003164004    1.114    0.103
        53 -10.0344    231.1515    113.6883   6.3649477271e+01   1.0863393022e+01    0.2800393    0.2688078  51.44 0.0007426601    1.157    0.136
        54  -9.3332    167.4739    112.2740   7.5799090609e+01   2.5597313811e+01     0.342052    0.2513701 -76.20  0.001396448    1.935    0.483
        55  -8.3317    146.6613    113.3265   8.1066346239e+01   3.0159854169e+01    0.1643315    0.1282196 -87.48 0.0007051581    1.728    0.421
        56 -10.8732    118.4203    110.6748   8.7839473832e+01   3.6811223298e+01     0.538443    0.3880013  64.77  0.002389919    1.726    0.421
        57  -9.5440    134.5664    106.3001   8.2287031816e+01   3.4376830661e+01    0.5306337    0.1473535 -49.35  0.001381104    4.189    0.761
        58  -9.5653    205.3419    110.1387   6.7346285232e+01   1.7181950874e+01    0.3289565    0.2280125  44.44 0.0009423003    1.504    0.335
        59  -8.7429    164.8989     92.2718   7.0879469639e+01   3.0210192348e+01    0.2165052    0.2036648  52.37 0.0004318698    1.075    0.070
        60  -9.5448     37.4873    211.0299   1.2335396082e+02   2.6032852179e+01    0.1955174   0.09738111 -82.23  0.001094929    1.846    0.458
        61  99.0000     43.2238    209.3675   1.2212387612e+02   2.5710533637e+01    0.3781671    0.1379243  66.68  0.001510952    3.588    0.721
        62  -8.7461     69.0634     71.8911   9.2357459608e+01   5.4185533101e+01    0.1896272    0.1818234 -72.82 0.0003378597    1.228    0.186
        63  -8.1704     43.5290    221.1600   1.2294975593e+02   2.3329012868e+01    0.1844461    0.1523577  17.11  0.001267161    1.906    0.475
        64 -10.6368     43.9643    205.2195   1.2164892642e+02   2.6473295328e+01    0.1696754    0.1341455  89.78 0.0002181424    1.140    0.123
        65  -9.6087    167.8158    232.1491   9.9912189772e+01   2.7258966256e+00    0.2333154    0.1546701  34.30 0.0007746858    1.268    0.212
        66 -10.6988     59.2604    230.7294   1.2075729156e+02   1.9568048578e+01    0.1848325    0.1391014  78.44 0.0005298395    1.136    0.120
        67 -10.8971     67.0217    205.7154   1.1704077288e+02   2.3475606261e+01    0.2750538    0.2147466 -39.65 0.0002744839    1.902    0.474
