#   1 NUMBER                 Running object number                                     
#   2 MAG_AUTO               Kron-like elliptical aperture magnitude                    [mag]
#   3 X_IMAGE                Object position along x                                    [pixel]
#   4 Y_IMAGE                Object position along y                                    [pixel]
#   5 X_WORLD                Barycenter position along world x axis                     [deg]
#   6 Y_WORLD                Barycenter position along world y axis                     [deg]
#   7 A_WORLD                Profile RMS along major axis (world units)                 [deg]
#   8 B_WORLD                Profile RMS along minor axis (world units)                 [deg]
#   9 THETA_WORLD            Position angle (CCW/world-x)                               [deg]
#  10 FWHM_WORLD             FWHM assuming a gaussian core                              [deg]
#  11 ELONGATION             A_IMAGE/B_IMAGE                                           
#  12 ELLIPTICITY            1 - B_IMAGE/A_IMAGE                                       
         1 -11.1691    168.2216     35.3560   2.9004996490e+02   6.4129442221e+00   0.04267736   0.02677499  78.60  0.001581469    2.244    0.554
         2 -11.3328    167.4450     28.1165   2.9002020588e+02   6.5014364365e+00   0.03203284   0.01678815  52.29  0.002753153    2.266    0.559
         3  99.0000    182.1923     19.7779   2.8979063344e+02   6.5136064055e+00   0.04662107   0.02270967  55.38  0.003679577    2.775    0.640
         4 -10.6494    184.4326     33.8130   2.8983920148e+02   6.3378600507e+00   0.07256184   0.02134925 -49.28  0.004905027    3.512    0.715
         5 -10.0278    105.8353     24.2586   2.9076897574e+02   6.8989288972e+00   0.02618467   0.01787064  86.92  0.002595279    1.881    0.468
         6  -9.9374    249.3014     23.4289   2.8897364857e+02   6.0854642380e+00   0.02636946   0.01554274 -44.45  0.002220246    1.829    0.453
         7 -10.7279    245.3262     17.0835   2.8898852838e+02   6.1819346099e+00   0.03808189   0.02680532  -4.98  0.002528482    1.656    0.396
         8 -10.2890    245.9339      2.3096   2.8890026209e+02   6.3497282394e+00   0.03226825    0.0149377  30.48  0.002547875    1.933    0.483
         9 -10.5391    247.3749     10.4158   2.8892658736e+02   6.2474522920e+00   0.04048833   0.01808002 -44.65  0.003314832    2.506    0.601
        10  -9.8405    237.1366      8.1520   2.8904181721e+02   6.3326427878e+00   0.01810941   0.01532478  22.54  0.001407905    1.113    0.101
        11 -11.0269    240.4789      3.7587   2.8897616200e+02   6.3643387641e+00   0.04297081   0.02188626  42.95   0.00383101    1.950    0.487
        12  -6.9404    199.2486     16.4942   2.8955985941e+02   6.4537646376e+00   0.04104592   0.01847016   0.18  0.002397668    5.156    0.806
        13  -9.3118    203.9735     17.5356   2.8950659130e+02   6.4145346761e+00   0.02186515   0.01064014 -46.37  0.001701258    2.210    0.548
        14  -9.3171    205.3284     11.0389   2.8945423402e+02   6.4821134263e+00   0.02054436   0.01158683  52.17  0.001443345    2.032    0.508
        15  -9.3938    200.4813      9.4965   2.8950629197e+02   6.5278603276e+00   0.01589853   0.01202541   8.37 0.0007739717    1.366    0.268
        16  -9.0449    156.2218     15.0746   2.9008927623e+02   6.7171575797e+00   0.01702614   0.01172637 -54.78    0.0011096    1.506    0.336
        17  -9.4099     62.8095     18.5302   2.9127595303e+02   7.2109716607e+00    0.0358737   0.01628746 -37.37  0.002763018    2.914    0.657
        18 -10.2824    117.4035     15.5685   2.9057704477e+02   6.9336895692e+00   0.02440443   0.02343373  49.50  0.001687569    1.073    0.068
        19  -9.2361    226.2275     16.2665   2.8922211846e+02   6.3013127489e+00   0.02516827   0.01419162 -30.13  0.001531824    2.316    0.568
        20  -9.6961     83.1081     14.4287   2.9099970567e+02   7.1428462362e+00   0.02972547   0.01548157  48.21  0.002610001    2.098    0.523
        21  -8.3283     89.6111     11.7509   2.9090379404e+02   7.1368184139e+00   0.01294397   0.00897177  47.72 0.0007296691    1.482    0.325
        22  -8.6582     86.5716     10.1307   2.9093299724e+02   7.1729781887e+00   0.02009293   0.01127339 -35.56  0.001429944    2.151    0.535
        23  -9.3838    222.2190      5.2217   2.8921179839e+02   6.4524614266e+00   0.02140757   0.01361736 -54.43  0.001041475    1.623    0.384
        24  -8.0786    225.7676      3.9659   2.8916069011e+02   6.4466082407e+00   0.01360807  0.009488231 -65.36 0.0009151311    1.535    0.349
        25  -9.6727    216.3490     14.0162   2.8933301653e+02   6.3842260637e+00   0.01272596   0.01236177 -10.24 0.0003382743    1.060    0.056
        26  -9.7537    218.8374     10.1834   2.8928105956e+02   6.4143705031e+00   0.01636414   0.01406957  14.24 0.0008922225    1.128    0.113
        27  -9.0315    149.9252     14.0041   2.9016209696e+02   6.7656682414e+00   0.01464912   0.01171038  69.41 0.0009861336    1.429    0.300
        28  -8.0786    193.8274     12.1579   2.8960384722e+02   6.5352125920e+00   0.01941694  0.007942886 -60.33  0.001272324    2.456    0.593
        29  -8.1952    195.3208      7.6648   2.8956069208e+02   6.5787564646e+00   0.01369171  0.009601121  66.91  0.001378542    1.736    0.424
        30  -8.8556    145.2209      9.0296   2.9019375729e+02   6.8503542036e+00    0.0191359  0.007302046 -48.30  0.001379866    2.768    0.639
        31  -9.2482     30.6804     11.7247   2.9164107549e+02   7.4728627832e+00   0.01565299   0.01323437 -58.40  0.001806442    1.247    0.198
        32  -8.4931    183.0259     11.7112   2.8973622782e+02   6.6024216431e+00   0.01235943  0.009292576 -50.35 0.0008049977    1.389    0.280
        33 -10.1321    107.0130      4.4200   2.9064624579e+02   7.1225050803e+00   0.03639666   0.01980999  36.65  0.003406014    1.700    0.412
        34  -9.8777    101.5334     10.1320   2.9074587320e+02   7.0875184699e+00   0.02453014   0.01599771  23.08 0.0008728618    1.450    0.310
        35  -9.4989    100.0015      4.4868   2.9073429641e+02   7.1617991518e+00      0.01765    0.0130976 -51.19 0.0008856708    1.405    0.288
        36  -9.5171     95.8373      3.1887   2.9077931224e+02   7.2006538894e+00   0.01768674   0.01487056  18.43  0.001419724    1.134    0.118
        37  -8.6632      8.5068     10.9963   2.9191472869e+02   7.6072649407e+00   0.01528763  0.008352663   3.35  0.001269495    2.420    0.587
        38  -8.4218    151.5231      9.5664   2.9011794382e+02   6.8080120152e+00   0.01684713  0.007955745  51.16  0.001341924    2.582    0.613
        39  -9.3041    130.3426      9.0323   2.9037970282e+02   6.9355260795e+00   0.02079238  0.009177556  26.01  0.001057843    2.086    0.521
        40  -9.0921    139.1307      7.2044   2.9025991065e+02   6.9064216629e+00   0.01912225    0.0117637  66.35   0.00174053    2.178    0.541
        41  -8.2865    136.7655      4.0215   2.9027212076e+02   6.9569039783e+00  0.008946222  0.008556653 -84.25 0.0003208632    1.127    0.113
        42  -9.2278     77.3578      6.9945   2.9103119700e+02   7.2619616119e+00   0.02197717   0.01619809 -28.62   0.00232513    1.521    0.343
        43 -10.0127     81.8805      2.9883   2.9095281325e+02   7.2826619673e+00   0.03099237   0.01443054  43.88  0.002615318    2.191    0.544
        44  -7.5945    177.4661      7.5075   2.8978270627e+02   6.6831080038e+00  0.006813056   0.00640531  21.21 0.0001801198    1.007    0.007
        45  -9.8690    119.4282      4.7319   2.9049270909e+02   7.0478918914e+00    0.0217657   0.01483595  38.64  0.001867616    1.393    0.282
        46  -8.2391     57.2369      6.0441   2.9127780575e+02   7.3876930657e+00    0.0132835  0.007828955  39.15  0.001274404    1.610    0.379
        47  -8.6028     38.0641      6.3678   2.9151954458e+02   7.4930731019e+00   0.01753761  0.005393764  38.11  0.001167749    2.905    0.656
        48  -9.3350      3.1943      4.7201   2.9194719195e+02   7.7102784319e+00    0.0185103  0.009331382 -61.82  0.001661623    2.051    0.513
        49  -9.6407     46.0915      3.0867   2.9140122676e+02   7.4854882748e+00    0.0213171   0.01494502  54.29  0.001929595    1.562    0.360
        50  -8.1716    127.1369      4.1537   2.9039318979e+02   7.0104928050e+00  0.009475217    0.0076577  54.02 0.0004798787    1.302    0.232
        51  -7.7965    131.9839      2.7903   2.9032517328e+02   6.9985695425e+00  0.009393783    0.0052254  24.28 0.0008607026    1.690    0.408
        52  -8.7378     69.8164      7.0980   2.9112611813e+02   7.3037692435e+00   0.01577022   0.00985642 -66.63  0.001555789    1.728    0.421
        53  -8.6636     64.9023      1.6930   2.9115821062e+02   7.3945260738e+00   0.01204561  0.008130292  39.13  0.000583631    1.412    0.292
        54  -8.6088     70.9874     12.6767   2.9114180785e+02   7.2323254484e+00   0.01274333   0.01038673 -87.17  0.001422895    1.402    0.287
        55  -8.7924    205.6506     94.2231   2.8990366110e+02   5.5146041827e+00   0.01134031  0.009791646  65.10  0.001305414    1.259    0.205
        56  -8.8780     57.8883    249.4870   2.9258744632e+02   4.5529637511e+00   0.01158995  0.009385423 -48.79 0.0004093913    1.292    0.226
        57  -8.2663    197.4085     95.2193   2.9001184051e+02   5.5503138669e+00   0.00926673   0.00666743 -86.92  0.000403573    1.680    0.405
        58  -8.2659    180.9554     93.7269   2.9020890337e+02   5.6619910481e+00  0.009863715  0.008447869  29.32 0.0005420996    1.092    0.084
        59  -8.5676    235.7822     89.0013   2.8949973089e+02   5.4022529941e+00    0.0154173   0.01148031 -16.03  0.001125863    1.539    0.350
        60  -8.7742    237.0141     92.2290   2.8950197234e+02   5.3576963518e+00   0.01756305  0.008538324  27.03  0.001541669    1.885    0.470
        61  -9.7679    242.1684     90.6873   2.8942937296e+02   5.3459842672e+00   0.02051795   0.01765434  77.85  0.001629175    1.301    0.232
        62  -8.2706    122.9840     92.3138   2.9092474505e+02   6.0102400478e+00  0.009669618  0.008502724  21.23 0.0004095915    1.072    0.067
        63  -8.5054    190.4513     60.0184   2.8990692061e+02   5.9990816677e+00   0.03531623   0.01857803  -3.02  0.002697956    3.020    0.669
        64  -9.6336    192.0189     71.8798   2.8995197742e+02   5.8523385648e+00   0.02256745   0.01759337  52.92  0.001463426    1.349    0.259
        65  -9.7438    177.3840     88.9388   2.9022740118e+02   5.7380931754e+00   0.02799224   0.01634931 -21.55  0.002424935    2.372    0.578
        66  -9.8313    205.8804     73.1827   2.8978620972e+02   5.7576623291e+00   0.02988068   0.01923368  -8.36  0.002811165    1.972    0.493
        67  -9.6199    176.6286     83.7253   2.9020845316e+02   5.8029946036e+00   0.01970642   0.01458302  44.40  0.001429572    1.340    0.254
        68 -10.3394    197.8340     67.9172   2.8985786461e+02   5.8649924258e+00   0.04072422   0.02242376  38.80   0.00327418    1.711    0.416
        69  -9.0729    195.4031     62.5686   2.8985904558e+02   5.9410528720e+00   0.01902267   0.01112833 -45.58  0.001341578    1.826    0.452
        70 -10.1056    209.3222     76.6038   2.8976193476e+02   5.6981745789e+00   0.03391835   0.01545075 -56.42  0.002811755    2.197    0.545
        71  -8.5094    204.0588     78.9977   2.8984059803e+02   5.7005852828e+00   0.01261617  0.009324017  18.54  0.001237123    1.310    0.237
        72 -10.2690    180.5129     78.6022   2.9013210901e+02   5.8402433061e+00   0.03075423   0.02231953   5.41  0.003226453    1.476    0.322
        73  -9.2217    184.6919     74.0272   2.9005506783e+02   5.8694237791e+00    0.0232852   0.01418909  50.05  0.001673565    1.774    0.436
        74  -9.4001    207.6557     86.4897   2.8983655647e+02   5.5929258623e+00   0.02196429   0.01221882 -66.86  0.002043925    1.954    0.488
        75  -9.3315    144.2529     86.3461   2.9062675531e+02   5.9579618831e+00   0.01552505   0.01043018  66.44 0.0008530976    1.858    0.462
        76  -8.6084    247.6827     85.4020   2.8933189408e+02   5.3756581808e+00   0.02011666   0.01017095 -43.08  0.001745028    2.217    0.549
        77  -8.8602    224.5243     83.4859   2.8960994573e+02   5.5309646268e+00   0.02022994   0.01870216 -41.86  0.002442295    1.134    0.118
        78  -9.2906    219.9550     83.2294   2.8966549121e+02   5.5601837214e+00   0.02128607   0.01456558  34.92  0.001945709    1.361    0.265
        79  -9.0378    171.0321     84.5815   2.9028293810e+02   5.8251193188e+00   0.01560819   0.01055484  58.07 0.0006686597    1.703    0.413
        80  -7.8181    164.0009     86.7872   2.9038267323e+02   5.8397734513e+00  0.009114626  0.005245374  24.70  0.000311579    1.629    0.386
        81  -9.1383    232.6715     84.4011   2.8951341786e+02   5.4735386749e+00   0.01288244    0.0115261  41.92 0.0007348656    1.097    0.088
        82  -7.8418    122.3130     85.2880   2.9089495271e+02   6.0957383188e+00  0.006952107  0.005059702 -21.81 0.0002490912    1.584    0.369
        83  -9.5783    195.1235     81.4932   2.8996560889e+02   5.7228700500e+00   0.02457802   0.01706652 -63.58  0.002575362    1.527    0.345
        84  -9.6596    149.7282     83.1124   2.9054082144e+02   5.9642028229e+00   0.01816631  0.008882753  31.44   0.00161141    1.838    0.456
        85  -7.8854    240.5657     82.2281   2.8940323526e+02   5.4534101157e+00  0.009589726  0.006102927 -49.63 0.0009450227    1.637    0.389
        86  -8.3350    161.8590     80.3347   2.9037430045e+02   5.9270147105e+00   0.01489614  0.004826583  32.73   0.00109834    2.610    0.617
        87  -9.4969    228.1939     77.1742   2.8952982531e+02   5.5831744254e+00   0.01543884   0.01296317  87.21  0.000872376    1.353    0.261
        88  -9.0619    227.1883     73.6359   2.8952307362e+02   5.6300337941e+00   0.01318491    0.0114026   5.07 0.0005313112    1.162    0.139
        89 -10.0969    146.0075     77.8276   2.9055852821e+02   6.0469093061e+00   0.01720754   0.01610068 -41.00  0.001901387    1.120    0.107
        90  -9.1679    139.4659     78.1227   2.9064180626e+02   6.0809163983e+00   0.01613264    0.0104065  59.45 0.0009756286    1.856    0.461
        91  -8.7345    138.0646     73.7961   2.9063577603e+02   6.1392090588e+00   0.03479552   0.01330085 -35.41  0.002098539    4.802    0.792
        92  -9.1199    249.9590     77.2025   2.8925884919e+02   5.4577575040e+00    0.0111131   0.01023491  33.54 0.0004736821    1.040    0.038
        93  -9.0255    236.9583     77.0220   2.8941979700e+02   5.5345826305e+00   0.01486136   0.01430973  56.15  0.001590932    1.082    0.076
        94  -8.5929    218.9238     75.7841   2.8963777883e+02   5.6525619654e+00   0.01670718  0.009088547  21.05  0.001089661    1.798    0.444
        95  -8.1996    242.6977     74.9788   2.8933716342e+02   5.5253154435e+00  0.009301683  0.009056194 -75.55 0.0005359421    1.100    0.091
        96  -7.7017    121.3683     74.6935   2.9084917530e+02   6.2242676036e+00  0.007468979  0.004745913  53.12 0.0007035474    1.753    0.430
        97 -10.1091    174.9493     63.7622   2.9012073137e+02   6.0445158427e+00   0.02273976   0.01450933  -1.90  0.001135918    1.926    0.481
        98 -10.1164    180.8360     69.0644   2.9007614937e+02   5.9491797595e+00    0.0404381   0.02219719 -18.73  0.003139187    2.819    0.645
        99 -10.3359    161.5541     67.5611   2.9030859424e+02   6.0771604162e+00   0.03866462   0.01608818  27.60  0.003180294    2.167    0.539
       100 -10.0385    164.2757     63.0691   2.9025016938e+02   6.1137453625e+00   0.02752529   0.01689193  30.15  0.001495581    1.494    0.331
       101  -9.7582    157.9393     61.7980   2.9032234739e+02   6.1648145144e+00   0.03411845   0.01250488 -45.21   0.00249085    3.132    0.681
       102  -8.8493    166.9857     72.0443   2.9026520175e+02   5.9939598816e+00   0.01636526   0.01441684 -29.47  0.001100516    1.194    0.163
       103  -9.3078    171.9416     69.9427   2.9019191568e+02   5.9899700284e+00   0.01332174   0.01075656  30.87 0.0003489097    1.155    0.135
       104  -9.2272    149.5759     70.3318   2.9047320198e+02   6.1135753223e+00   0.01550264   0.01277303 -63.48  0.001762496    1.291    0.225
       105  -9.3859    132.8532     70.2222   2.9068142103e+02   6.2105500089e+00   0.02477394   0.01692468  30.45  0.001702605    1.351    0.260
       106  -8.5833     82.9651     72.0220   2.9131450195e+02   6.4746010353e+00   0.01133609  0.007829285 -25.53  0.001110198    1.699    0.412
       107  -8.7346    218.2548     69.9632   2.8961439798e+02   5.7239936906e+00   0.01823633   0.01031853  34.11  0.001732227    1.617    0.382
       108  -8.4993    126.8596     66.3596   2.9073527515e+02   6.2897121179e+00   0.01335965   0.01018952  57.72  0.001079835    1.437    0.304
       109  -8.2056    188.1512     65.8626   2.8996744966e+02   5.9444096693e+00  0.009505956   0.00778777 -19.50 0.0005763139    1.325    0.245
       110  -9.2812    246.0096     61.3373   2.8922152610e+02   5.6646108924e+00   0.02127492   0.01729309  83.05  0.002376635    1.423    0.297
       111  -9.2433    221.7406     57.3773   2.8950234156e+02   5.8500835330e+00   0.02555844  0.009215869  33.10  0.001990633    2.395    0.582
       112  -9.5273    229.2024     61.8966   2.8943398019e+02   5.7547433881e+00   0.02886528   0.01828619  62.68  0.002730665    1.983    0.496
       113  -8.4002    234.5874     64.3435   2.8938021861e+02   5.6953896712e+00   0.01452585  0.008209842  16.27  0.001324187    1.843    0.457
       114 -10.3369    211.0797     62.5513   2.8966345231e+02   5.8512580733e+00   0.03497123   0.01747432  36.70  0.002385071    1.839    0.456
       115  -9.7096    215.8529     61.7341   2.8959948862e+02   5.8333302176e+00   0.03171695    0.0141083  52.50  0.002382035    2.985    0.665
       116  -9.2559    213.9965     56.9579   2.8959659737e+02   5.8994415506e+00   0.01596342   0.01253112  32.70  0.001338433    1.190    0.159
       117  -9.0929    150.3179     63.2971   2.9042565837e+02   6.1910515235e+00   0.02036272   0.01568284 -29.12   0.00221223    1.429    0.300
       118  -9.0919    120.4180     58.5422   2.9077323298e+02   6.4173714798e+00   0.01775042   0.01386017   9.88  0.001234882    1.295    0.228
       119  -8.5730    113.4698     63.9702   2.9088955699e+02   6.3940195399e+00   0.01301661   0.01217275 -56.68  0.000943357    1.133    0.118
       120  -8.8578    115.6776     59.7078   2.9083879747e+02   6.4309278130e+00   0.03102677   0.01615436  89.75  0.002368813    3.260    0.693
       121  -9.3257    147.0982     55.2965   2.9042231950e+02   6.3024230785e+00    0.0204581    0.0140945  -6.78  0.002035761    1.725    0.420
       122  -8.6012    142.0382     52.5565   2.9047059753e+02   6.3632197912e+00   0.01697112   0.01053416  78.71   0.00118201    2.294    0.564
       123  -8.2815     73.8157     59.6416   2.9136165260e+02   6.6706568675e+00   0.01480333  0.007851748  80.77    0.0010923    3.436    0.709
       124  -9.0902    134.5126     58.1486   2.9059502161e+02   6.3413304175e+00   0.02044593   0.01302209 -53.66  0.001838169    1.621    0.383
       125 -10.1262    202.6698     54.6160   2.8972507374e+02   5.9916785055e+00   0.03327603   0.02032788  39.80   0.00275848    1.562    0.360
       126  -9.1936    186.9293     53.7947   2.8991695097e+02   6.0915585963e+00    0.0228752   0.01410556  38.16   0.00200559    1.527    0.345
       127 -10.2544    172.7862     53.3210   2.9009086185e+02   6.1781791517e+00   0.03181782   0.02856399  75.91  0.003779219    1.220    0.181
       128 -10.1280    178.8559     49.7056   2.8999541437e+02   6.1853528911e+00    0.0270619   0.02127011 -85.18  0.002978552    1.467    0.318
       129 -10.2892    189.0001     48.3169   2.8986126348e+02   6.1432764377e+00   0.03623514   0.01804719 -61.24  0.002300567    2.069    0.517
       130  -9.4485    185.2425     46.2472   2.8989686985e+02   6.1888675541e+00   0.01334414   0.01242145  55.70 0.0005652342    1.114    0.103
       131  -8.3353    232.1410     56.8379   2.8936977534e+02   5.7965707577e+00  0.009927183  0.008587787  46.93 0.0003133134    1.158    0.137
       132  -7.9397    163.5802     57.1985   2.9022688910e+02   6.1859171569e+00  0.009668456  0.006874172 -64.22 0.0003633179    1.496    0.332
       133  -9.1903    161.6024     53.3400   2.9023056829e+02   6.2420640054e+00   0.01490827   0.01275319 -10.14  0.001071965    1.231    0.188
       134 -10.4344    163.9298     45.9627   2.9016133371e+02   6.3143979933e+00   0.02537824   0.02203157  -4.80   0.00140096    1.191    0.161
       135  -9.6345    156.6407     41.9833   2.9023066850e+02   6.4023792354e+00   0.02423212   0.01426863  48.37  0.001155885    1.806    0.446
       136  -8.5215     51.5441     55.8584   2.9161961261e+02   6.8414952783e+00   0.01244665  0.009089462   2.55  0.000650165    1.487    0.327
       137  -8.8197     20.4979     55.1601   2.9200416987e+02   7.0261429655e+00    0.0117744  0.009105778  -5.25  0.001266481    1.414    0.293
       138  -8.1443    248.2847     52.5082   2.8914502506e+02   5.7539827373e+00    0.0112968  0.006206328 -65.82 0.0007930503    1.959    0.490
       139  -8.9559    242.4191     53.2256   2.8922200778e+02   5.7793970005e+00   0.01572241   0.01106778  65.34  0.001191715    1.706    0.414
       140  -7.5563     35.3355     53.6742   2.9181049766e+02   6.9590922347e+00  0.007358368  0.004835838  55.15 0.0007051476    1.718    0.418
       141  -8.5714    213.7137     49.8105   2.8956115614e+02   5.9840346384e+00   0.01848529   0.01250531 -83.05  0.001846348    1.802    0.445
       142 -10.2121    214.8519     43.1157   2.8951045681e+02   6.0552007338e+00   0.02325365   0.01814688 -88.76  0.001349784    1.498    0.332
       143  -8.4168    222.4827     49.4242   2.8944972372e+02   5.9381318313e+00   0.03181092   0.00937522  32.35  0.002286972    2.811    0.644
       144  -7.9094    226.9825     48.4914   2.8938854577e+02   5.9230939030e+00   0.01408804  0.005063542  34.63    0.0010818    2.419    0.587
       145  -8.1606    119.5317     51.0754   2.9074369530e+02   6.5091836941e+00   0.01012712  0.006857617 -66.49  0.001029994    1.590    0.371
       146  -8.2503    233.6534     50.2865   2.8931519699e+02   5.8639103161e+00  0.007268244  0.004791349  52.28 0.0006029673    1.652    0.395
       147  -8.3121    153.9651     48.8393   2.9030141590e+02   6.3380921574e+00   0.01027339  0.008815569 -10.95 0.0003241628    1.227    0.185
       148  -9.8906    240.6034     43.1201   2.8918949871e+02   5.9071005068e+00   0.03311643   0.01799187 -25.15    0.0027011    2.691    0.628
       149  -7.7805    233.9547     46.0000   2.8928806012e+02   5.9119216454e+00  0.008728176  0.007313917  24.16 0.0006715826    1.119    0.107
       150  -8.8990    231.2974     42.9981   2.8930480058e+02   5.9620349445e+00   0.01304491   0.01034966  68.55 0.0003256603    1.440    0.306
       151  -9.1246    126.9600     60.6558   2.9070300138e+02   6.3554082945e+00   0.01937462   0.01086477  38.61  0.001521238    1.680    0.405
       152  -8.6262     78.4352     47.0689   2.9123560406e+02   6.7904068098e+00   0.01363291  0.009195129  32.55 0.0005957045    1.370    0.270
       153  -8.1667    138.9979     45.4846   2.9047007857e+02   6.4627614688e+00   0.01009694  0.009044192 -65.14 0.0006351361    1.193    0.162
       154  -8.1345     27.4710     45.9788   2.9186714899e+02   7.0932201950e+00   0.01034957  0.006821999 -65.18  0.001041225    1.620    0.383
       155  -9.6824    204.6701     43.8669   2.8964152767e+02   6.1049732669e+00   0.03271121   0.01983411 -44.96  0.003179104    1.765    0.433
       156  -9.3350    201.9835     35.8313   2.8963122125e+02   6.2136692343e+00    0.0217669   0.01329137 -74.15  0.001509356    1.907    0.476
       157  -9.6316    209.4243     36.8693   2.8954407250e+02   6.1588792542e+00   0.02501747   0.01687688 -35.54  0.001980275    1.665    0.399
       158 -10.5984    218.1067     34.2047   2.8942126613e+02   6.1399062848e+00   0.03200831   0.02319529   7.61  0.003365623    1.457    0.314
       159  -8.3533    249.6515    249.6884   2.9020066911e+02   3.4559172047e+00  0.007248699  0.005018258 -22.44 0.0007045761    1.715    0.417
       160  -9.3531      6.4964    250.0000   2.9323079343e+02   4.8388760396e+00    0.0156878  0.003698258  24.53 0.0009403398    3.980    0.749
       161  -8.9720    195.8352     40.6090   2.8973397182e+02   6.1935217460e+00   0.02246827   0.01147312  61.63  0.001735184    3.000    0.667
       162  -8.5849      4.7700     42.3799   2.9213170130e+02   7.2639330931e+00   0.00993989  0.006326625  11.60 0.0009540319    1.667    0.400
       163  -8.5518    228.6350    244.6951   2.9043495755e+02   3.6342272882e+00  0.007286756  0.005011737 -21.31 0.0007036817    1.741    0.425
       164  -7.9447     35.7712    227.4441   2.9274442046e+02   4.9352046242e+00  0.008854831  0.006389367   7.05 0.0003389776    1.467    0.318
       165 -10.1116    182.4683     30.5287   2.8984581185e+02   6.3872536337e+00    0.0304232   0.01249872 -49.15  0.002226855    2.533    0.605
       166  -8.2646    140.8184     40.5890   2.9042068572e+02   6.5091936085e+00   0.01073312  0.008902209  68.98 0.0005699867    1.351    0.260
       167  -9.2489    130.4682     39.1788   2.9054231258e+02   6.5848112406e+00   0.01338414   0.01031948  40.46 0.0003488445    1.251    0.201
       168  -9.9306    111.7129     34.6297   2.9075193713e+02   6.7449013655e+00   0.03032413   0.01699557 -86.25  0.001709187    2.563    0.610
       169  -7.7239    229.5055     38.4995   2.8930259218e+02   6.0245389573e+00  0.006854762  0.006379684  30.54  0.000810551    1.024    0.024
       170  -8.3709     67.8513     36.2336   2.9130909369e+02   6.9766260350e+00   0.02556973    0.0117466 -28.74  0.001181377    3.839    0.740
       171  -8.3359    127.0282     42.5598   2.9060369583e+02   6.5652254770e+00    0.0108107  0.006319477  25.68  0.001025173    1.592    0.372
       172  -8.8812    102.7471     36.3941   2.9087361054e+02   6.7756414662e+00   0.02008494    0.0117854  12.83  0.001860883    1.839    0.456
       173  -8.6894     96.2094     36.9137   2.9095816939e+02   6.8069462615e+00   0.01171345  0.009109664  27.71 0.0004841408    1.197    0.165
       174  -7.6319    226.4691     36.4225   2.8932910920e+02   6.0660984493e+00  0.006810324  0.006336668  18.22  0.000221208    1.022    0.022
       175  -8.5825     89.9973     35.3064   2.9102709886e+02   6.8610807740e+00   0.01391006  0.009082497  80.70  0.001310218    2.069    0.517
       176  -9.0401     54.5239     35.6500   2.9147263339e+02   7.0593303905e+00   0.01481756  0.007938744  28.13  0.001363853    1.705    0.414
       177  -9.8715    245.3138     32.2310   2.8907138262e+02   6.0063256779e+00   0.03403686   0.02647915  37.21  0.003783701    1.218    0.179
       178  -8.2257    234.9938     34.6501   2.8921318360e+02   6.0376379030e+00  0.009660287  0.008310094  21.40 0.0004989716    1.098    0.089
       179  -9.2459    130.8554     34.2936   2.9051088091e+02   6.6393262730e+00   0.01646654   0.01133166  24.19 0.0008500409    1.364    0.267
       180  -8.5708     75.2733     34.2995   2.9120575350e+02   6.9567791351e+00   0.01857463   0.01036748  43.01   0.00172733    1.776    0.437
       181  -7.5379    159.3011     26.3244   2.9011213310e+02   6.5689318800e+00   0.01106781  0.006871963  16.80 0.0006142916    1.626    0.385
       182 -10.1485    154.9068     28.6928   2.9017992016e+02   6.5666238387e+00   0.03056409   0.02483993 -85.89  0.002863306    1.403    0.287
       183  -8.9122    150.5014     26.4973   2.9022298163e+02   6.6173538271e+00    0.0144871   0.01147551  14.75  0.001271723    1.237    0.191
       184  -8.8765     43.6002     34.7934   2.9160464839e+02   7.1314596168e+00   0.01143547   0.00941426  62.17   0.00128207    1.330    0.248
       185  -8.8410     61.3472     34.3640   2.9138029243e+02   7.0354057568e+00   0.01088031  0.007698197 -23.39 0.0009345839    1.647    0.393
       186  -9.3894     27.2182     26.0539   2.9176220883e+02   7.3261331706e+00   0.01376492  0.009670652  14.38 0.0007291181    1.429    0.300
       187 -10.1631     27.4297     30.8888   2.9178580195e+02   7.2687697824e+00   0.02213676    0.0205511  69.85  0.002387616    1.155    0.135
       188  -8.7856     31.7113     29.0014   2.9172197460e+02   7.2663574437e+00   0.01757109    0.0087559  33.39  0.001573859    1.812    0.448
       189  -8.0985    149.2670     33.1957   2.9027489209e+02   6.5466598076e+00  0.009468679  0.007561536  59.76  0.001037137    1.368    0.269
       190  -9.0862    104.4354     30.1027   2.9081827769e+02   6.8390641896e+00   0.01668361   0.01063344 -54.51  0.001079398    1.619    0.382
       191  -9.9081     33.6600    212.8410   2.9269205824e+02   5.1171486396e+00   0.02681447   0.02253206  54.56   0.00307841    1.245    0.197
       192  -8.1651     98.4777     31.4471   2.9090007701e+02   6.8574838643e+00   0.01109936  0.009977546  22.86 0.0006708134    1.044    0.042
       193  -8.8826     94.5029     30.7750   2.9094611920e+02   6.8879881994e+00   0.01323842   0.01049082  46.43 0.0009729224    1.267    0.210
       194  -7.4620    138.3372     31.2631   2.9040089983e+02   6.6316915806e+00   0.00692865   0.00506004 -17.21 0.0002357185    1.586    0.369
       195  -7.6496     40.3584     32.6872   2.9163377595e+02   7.1743689609e+00   0.01236169  0.006727054  46.37 0.0007922457    1.923    0.480
       196  -8.9139    203.6058     29.1981   2.8957480539e+02   6.2813292401e+00   0.01930474   0.01094319  58.11  0.001693764    2.248    0.555
       197  -8.6619    176.6903     30.0349   2.8991524128e+02   6.4261395504e+00    0.0130852  0.009608399  10.80 0.0006080235    1.395    0.283
       198  -8.4236     46.4916     28.9733   2.9153686797e+02   7.1826124889e+00   0.01004492  0.006885879 -67.69    0.0010273    1.581    0.367
       199  -8.7696     19.4987     28.4877   2.9187203329e+02   7.3417202337e+00  0.006825916  0.006399296   7.96 6.148491e-05    1.045    0.043
       200  -9.5670    228.0809     24.9092   2.8924618860e+02   6.1904024279e+00   0.01755926   0.01506651 -67.01  0.001565659    1.250    0.200
       201  -8.7088    212.1421     25.2941   2.8944703306e+02   6.2775779060e+00   0.02896621    0.0101215 -40.89  0.001865719    4.098    0.756
       202  -7.9674    125.4895     26.0867   2.9053325060e+02   6.7653230461e+00  0.009655572  0.006884341 -67.80  0.000796386    1.519    0.342
       203  -7.6626    244.7064    175.3191   2.8985837497e+02   4.3483498367e+00  0.007069536  0.004942875  56.99 0.0003804524    1.607    0.378
       204  -7.8025    131.2367     25.6446   2.9045902172e+02   6.7375691021e+00  0.009479689  0.006228726  11.54 0.0006568476    1.604    0.376
       205  -8.4434     87.9848     23.3629   2.9098731151e+02   7.0112761712e+00    0.0107619   0.00930275  80.82 0.0006361498    1.297    0.229
       206  -7.9327    240.8779    147.6545   2.8975559470e+02   4.6917320620e+00   0.01056557  0.008269808 -75.52 0.0006651353    1.421    0.296
       207  -7.5573    205.6794    148.2453   2.9019716900e+02   4.8867186863e+00  0.006959998  0.004761469  49.13 0.0002705403    1.525    0.344
       208  -9.4013    240.3969    140.7522   2.8972403246e+02   4.7746793004e+00   0.02312246   0.01274017 -58.16  0.001368644    1.858    0.462
       209  -8.0485    229.0218    142.7658   2.8987662124e+02   4.8165512241e+00   0.01419457  0.008315681  74.87  0.001196755    2.591    0.614
       210  -7.2788    246.6527    142.3289   2.8965473601e+02   4.7204600411e+00  0.007444608   0.00481031  55.13 0.0007049653    1.757    0.431
       211  -8.2437    211.8564    136.9044   2.9005855493e+02   4.9831080785e+00   0.01029551  0.008954645 -21.91  0.000512747    1.215    0.177
       212  -8.8441    198.1743     20.3205   2.8959413991e+02   6.4155423572e+00    0.0227887  0.009332606  25.92  0.001372033    2.248    0.555
       213  -7.7945    217.6868    134.0325   2.8997029979e+02   4.9830450632e+00  0.008978605  0.008754554  67.59 0.0004131449    1.086    0.079
       214  -8.4544    230.0163    132.5200   2.8980849910e+02   4.9298865472e+00   0.01325556  0.009551277  82.37  0.001352765    1.729    0.422
       215  -8.9102    244.6034    130.5370   2.8961607313e+02   4.8692001354e+00   0.01421789   0.01176323  39.60 0.0005668855    1.164    0.141
       216  -8.9948    155.9734     20.6212   2.9012261171e+02   6.6542055069e+00   0.01195481   0.01019771 -68.58 0.0004262847    1.262    0.208
       217  -9.4418    248.2959    127.2520   2.8955222388e+02   4.8861567783e+00   0.01656214   0.01458825  83.19 0.0009137159    1.262    0.207
       218  -8.2796    147.1462     21.1823   2.9023593335e+02   6.6982748744e+00   0.01235893  0.009213787   9.27  0.001067987    1.382    0.277
       219  -8.1401    135.4842     20.9670   2.9038046755e+02   6.7675605416e+00  0.009707727  0.006905271 -69.49 0.0005512905    1.538    0.350
       220  -8.8761     96.4823     20.1415   2.9086351856e+02   7.0001659178e+00   0.02170094   0.01044034  51.65  0.001752747    2.544    0.607
       221  -7.8269    226.6119    128.4622   2.8982882123e+02   4.9965644515e+00  0.006662522  0.006391081  22.78 0.0002649802    1.023    0.023
       222  -8.2413    127.0471     18.7461   2.9047380897e+02   6.8416334605e+00    0.0120752    0.0088361  83.76 0.0009117443    1.684    0.406
       223  -8.6881    236.0833    125.3516   2.8969393541e+02   4.9783449772e+00   0.01321934  0.009603348  35.45   0.00114102    1.290    0.225
       224  -8.1868     81.4897     19.4665   2.9104735393e+02   7.0935872211e+00   0.01297455  0.005107398  35.84 0.0007053095    2.263    0.558
       225  -9.4945    241.6159    122.9089   2.8961174586e+02   4.9749568490e+00   0.01780776   0.01265424 -59.83 0.0009180366    1.473    0.321
       226  -7.6545     51.6338     18.6733   2.9141657028e+02   7.2729649189e+00  0.007404993  0.004959627 -23.17 0.0007037074    1.804    0.446
       227  -8.9348     18.8219     17.1913   2.9181920582e+02   7.4767654245e+00    0.0196792  0.008592126  39.03  0.001641243    2.146    0.534
       228  -8.3073    175.2421     16.7827   2.8986106437e+02   6.5882510146e+00    0.0103389   0.00858098  56.60 0.0009868486    1.278    0.218
       229  -9.3402    239.8056    118.7949   2.8961189171e+02   5.0331358114e+00   0.01354566   0.01159005  72.77  0.001012971    1.302    0.232
       230  -9.5363    206.3386    119.9306   2.9003499040e+02   5.2119874699e+00   0.02806029   0.01813284 -87.45  0.002691065    2.001    0.500
       231  -7.7979    154.6669    124.3078   2.9070309352e+02   5.4571194736e+00  0.007281328  0.004845266  54.16 0.0007041013    1.669    0.401
       232  -7.5444    232.6558     20.6404   2.8916585773e+02   6.2136018422e+00  0.007464499  0.004923408 -25.78 0.0007032997    1.837    0.456
       233  -9.0837    190.5380    120.2959   2.9023392933e+02   5.2983279812e+00   0.02469498   0.01265421 -68.63  0.001684768    2.181    0.542
       234  -8.7649    231.8325    121.3023   2.8972483428e+02   5.0497824125e+00    0.0131347   0.01048487 -39.55  0.001053956    1.329    0.248
       235  -9.2029    248.2569    119.8228   2.8951226146e+02   4.9726661942e+00   0.02388793    0.0116049  19.16  0.001949496    2.114    0.527
       236  -9.6656    221.8814    119.3328   2.8983806930e+02   5.1297717099e+00   0.01455327   0.01163116  28.64 0.0006834803    1.166    0.142
       237  -8.0214    167.2320     15.3194   2.8995310126e+02   6.6511841662e+00   0.01044426  0.008131251   2.38 0.0006819025    1.359    0.264
       238  -8.8817    181.6987    117.9789   2.9033154236e+02   5.3759093861e+00    0.0115205    0.0111898 -10.16 0.0007199115    1.059    0.056
       239  -8.3680    223.5089    114.5279   2.8979164197e+02   5.1762515522e+00   0.01177098  0.008703482 -80.86 0.0001034093    1.567    0.362
       240  -9.5608    219.0424    112.4853   2.8983617230e+02   5.2256129108e+00   0.01742841   0.01394251   4.03 0.0007889206    1.297    0.229
       241  -8.9388    222.4979    111.4516   2.8978749332e+02   5.2177901994e+00   0.01289657   0.01002321  44.42 0.0006063107    1.273    0.215
       242  -7.4826     37.4994    115.4708   2.9211823346e+02   6.2282999196e+00  0.006864747  0.006359623  32.15 0.0001504344    1.034    0.033
       243  -7.3794    210.7327    112.7052   2.8994091679e+02   5.2707362209e+00  0.006749369  0.005027067 -26.31 0.0002265861    1.512    0.339
       244  -9.1712    174.1554    110.7623   2.9038637877e+02   5.5029958766e+00   0.01441945   0.01361678 -87.25  0.001752525    1.145    0.127
       245  -7.8747    228.1506    109.1623   2.8970460883e+02   5.2119367273e+00  0.009335713  0.007505947  57.28            0    1.336    0.251
       246  -8.5171    212.9503    106.4993   2.8987950391e+02   5.3301105534e+00   0.01284971  0.009614348 -76.70 0.0005533086    1.510    0.338
       247  -7.9145    244.1767    107.2377   2.8949452693e+02   5.1422603235e+00   0.01245475  0.006444453 -27.80 0.0009640517    2.873    0.652
       248  -9.2600    193.6253    106.5707   2.9012078296e+02   5.4401242860e+00   0.01587415     0.014957 -26.18 0.0009767459    1.101    0.092
       249  -8.8789    221.2614    103.7870   2.8976117294e+02   5.3139208371e+00   0.02920359  0.008582952  23.77   0.00195181    3.318    0.699
       250  -8.3976    237.9851    100.4916   2.8953488856e+02   5.2561684982e+00    0.0160237   0.01141904  20.75  0.001404453    1.344    0.256
       251  -8.2072     17.7742     10.6210   2.9179665764e+02   7.5590123022e+00   0.01014477  0.005687319  34.40 0.0005378208    1.635    0.388
       252  -8.4591    229.4936    104.5776   2.8966291502e+02   5.2574779817e+00   0.01092204   0.01065677   7.91 2.752721e-05    1.044    0.042
       253  -8.7842    236.6987    106.2347   2.8958219093e+02   5.1968585980e+00    0.0164368   0.00955773  22.91  0.001560621    1.639    0.390
       254  -9.3426    233.4687    102.7781   2.8960359765e+02   5.2555534701e+00   0.02136799   0.01759789 -21.32   0.00108796    1.314    0.239
       255  -7.8363    170.4613    103.0539   2.9039054314e+02   5.6137405528e+00  0.009125505  0.006851632 -67.23 3.525952e-05    1.435    0.303
       256  -8.2376    249.8819    101.6679   2.8939314737e+02   5.1741619887e+00  0.009583808  0.007798078  25.62 0.0004616072    1.150    0.130
       257  -7.9907    167.0954    102.1155   2.9042743049e+02   5.6439254480e+00  0.009781299  0.008511797 -20.57 0.0003009328    1.213    0.176
       258  -8.9585    213.0468    100.3515   2.8984483567e+02   5.4009747264e+00   0.01931826   0.01342185 -30.84  0.001967277    1.644    0.392
       259  -9.9035    185.7633     98.0503   2.9017246275e+02   5.5841979174e+00   0.01545502   0.01153424 -50.61 0.0002187297    1.398    0.284
       260  -9.4904    186.0965     92.3858   2.9013748352e+02   5.6481014745e+00   0.02357716   0.01507428  64.43  0.002232902    1.989    0.497
       261  -8.4574    248.3418     93.3324   2.8936690659e+02   5.2797976224e+00   0.01894935    0.0100612 -41.28   0.00167577    2.143    0.533
       262  -8.8944    244.5356     98.5457   2.8944270821e+02   5.2411351610e+00   0.01491592   0.01276524 -18.09  0.001457712    1.243    0.195
       263 -10.6424    220.7518     97.0443   2.8973080730e+02   5.3951646652e+00   0.01815367   0.01402948   7.84 0.0004176358    1.332    0.249
       264  -9.7401    231.4021     97.2101   2.8959901523e+02   5.3320865634e+00    0.0230978   0.01579596  87.36  0.001346033    1.871    0.466
       265  -7.9315    227.8007     91.4225   2.8961235730e+02   5.4199829239e+00   0.01023738  0.009245625 -65.21 0.0005768745    1.183    0.154
