#   1 NUMBER                 Running object number                                     
#   2 MAG_AUTO               Kron-like elliptical aperture magnitude                    [mag]
#   3 X_IMAGE                Object position along x                                    [pixel]
#   4 Y_IMAGE                Object position along y                                    [pixel]
#   5 X_WORLD                Barycenter position along world x axis                     [deg]
#   6 Y_WORLD                Barycenter position along world y axis                     [deg]
#   7 A_WORLD                Profile RMS along major axis (world units)                 [deg]
#   8 B_WORLD                Profile RMS along minor axis (world units)                 [deg]
#   9 THETA_WORLD            Position angle (CCW/world-x)                               [deg]
#  10 FWHM_WORLD             FWHM assuming a gaussian core                              [deg]
#  11 ELONGATION             A_IMAGE/B_IMAGE                                           
#  12 ELLIPTICITY            1 - B_IMAGE/A_IMAGE                                       
         1 -11.5557      6.2906     35.0158   9.3056553899e+01   7.1150846336e+01    0.6892592     0.408222  82.89  0.003360533    2.114    0.527
         2 -11.1493     70.8871     51.0696   6.1205797870e+01   5.9183165122e+01     1.167619    0.5312275 -34.75  0.004161919    2.758    0.637
         3 -11.6548     78.3659     29.9463   4.8962560887e+01   6.1519135633e+01    0.6442143    0.4129349 -46.48  0.001244079    1.737    0.424
         4 -10.0906    217.1258     17.5149   2.0374022221e+01   2.8980276264e+01    0.3006308    0.1798529 -45.25 0.0003843408    1.405    0.288
         5 -11.1357     15.9947      9.5746   7.5096798905e+01   7.6200565929e+01    0.6112385    0.3054993 -24.31  0.000523262    2.545    0.607
         6 -10.9684      7.0673     17.6355   8.7112101420e+01   7.5194028450e+01    0.4454294    0.3731445  -4.16   0.00178681    1.178    0.151
         7  -9.5732    152.7279     13.6880   2.5287578413e+01   4.4538830134e+01    0.4152329    0.1618948 -43.65  0.001631215    2.475    0.596
         8 -12.3655    105.0365     20.8819   3.6517602662e+01   5.6250091799e+01    0.3609427    0.3249385  41.67 0.0004205609    1.103    0.094
         9 -10.8558    133.0954     21.3254   3.0886132187e+01   4.8837942829e+01    0.5047972    0.3314089  76.74  0.001417911    1.523    0.343
        10 -10.4270    238.0018     17.6813   1.9063423859e+01   2.4791024274e+01    0.3497695    0.2187759   1.05  0.001709392    2.386    0.581
        11  -9.2265     91.2634     19.1245   3.9429643883e+01   5.9991424028e+01    0.5142778    0.2875465  20.13  0.001917309    2.942    0.660
        12  -9.4825     90.7647     13.5522   3.6872619628e+01   6.0806656210e+01    0.4073506    0.2081533  70.55  0.001597136    2.162    0.537
        13  -9.0059     88.0253      6.4695   3.4062274808e+01   6.2290638928e+01    0.2360314    0.2095591 -15.85  0.001011122    1.223    0.182
        14  -8.9765     89.7259      9.6753   3.5233050916e+01   6.1513099274e+01     0.206586    0.1482511 -18.14 0.0002284221    1.540    0.351
        15  -9.5391     93.0065      8.5183   3.3794113062e+01   6.0794569212e+01    0.3346769    0.2113111  53.22 0.0009763657    1.427    0.299
        16 -11.9467     62.2281     16.9348   4.8931832253e+01   6.7153143703e+01    0.7825038    0.3272418  45.99 0.0003096818    2.219    0.549
        17 -11.6701     69.9965     11.7935   4.2768636129e+01   6.6114897020e+01     0.584215    0.3295234 -50.16 0.0005849397    2.336    0.572
        18 -10.9691    174.4993     13.3572   2.2780491706e+01   3.9094278334e+01    0.5710313    0.3456268 -29.25  0.002639663    1.612    0.380
        19  -9.5696    177.8864      9.1647   2.1221489488e+01   3.8676370698e+01    0.2354506    0.1956039  49.65 0.0007841695    1.362    0.266
        20  -9.9558    209.9437     14.1704   2.0048118735e+01   3.0836809250e+01    0.3385954    0.1664002 -14.53  0.001572347    2.509    0.601
        21 -10.8449    125.6364     12.1826   2.8658565794e+01   5.1807892212e+01    0.5356266    0.4344678 -45.38   0.00103367    1.271    0.213
        22 -10.9406    195.6806      3.6384   1.8292858640e+01   3.4996148263e+01    0.3342555    0.2273152  68.51 0.0004336012    1.521    0.342
        23  -9.3091    191.7777     11.7609   2.0786986497e+01   3.5135562898e+01    0.2996644    0.1621666 -43.65 0.0008517331    1.622    0.383
        24 -10.2384    191.0272      7.2660   1.9609756699e+01   3.5736156084e+01    0.4442935    0.2235301 -64.28  0.001616069    2.039    0.509
        25  -9.5679    117.2294     14.8426   3.1258712533e+01   5.3757676871e+01    0.2547272    0.2387493  11.80  0.001463103    1.174    0.148
        26 -11.2700    133.0291     12.6806   2.7658067837e+01   4.9795997294e+01    0.2588934    0.2408231 -66.95 0.0002815084    1.072    0.067
        27  -9.6575    244.6595     13.1973   1.7695365004e+01   2.3969555352e+01    0.1550315   0.09481391 -19.01 0.0004472195    1.694    0.410
        28  -9.4891    200.2916     12.1815   2.0238497881e+01   3.3154707325e+01    0.2666477    0.1478277 -28.80  0.001395623    1.673    0.402
        29 -10.2219    145.3908     12.6666   2.5880352390e+01   4.6545602202e+01     0.449429    0.2138854  74.88  0.001660326    2.046    0.511
        30 -10.3497    106.6312      7.2993   3.0117282776e+01   5.7348959857e+01    0.6127622    0.2439856  63.41    0.0016241    2.171    0.539
        31  -9.3572     96.9848     12.7576   3.4832909699e+01   5.9302415650e+01     0.224658    0.2072501  -7.62 0.0004417964    1.175    0.149
        32 -10.1943    101.4779     11.1869   3.3010316087e+01   5.8306206391e+01    0.5283756    0.2866636  69.40  0.002052241    1.792    0.442
        33  -9.5905     30.4470     11.7277   6.4412407855e+01   7.3942886586e+01    0.3633998    0.2345371  41.41  0.001393298    1.651    0.394
        34  -9.8224     55.1762      9.4414   4.7790937391e+01   6.9754059256e+01    0.3768931    0.2857136 -66.75    0.0012075    1.951    0.488
        35 -10.3983      7.9081      9.2112   8.2618546398e+01   7.6991448513e+01    0.2358079    0.1732643  13.00 0.0006664122    1.364    0.267
        36  -9.6909    212.1976      8.8163   1.8550864938e+01   3.0865150385e+01     0.221625    0.1772049  74.08  0.001261362    1.347    0.257
        37 -11.4086    207.9374      3.2627   1.7417455532e+01   3.2295180551e+01     0.633431    0.2678216 -66.29   0.00287144    2.531    0.605
        38 -10.0825     45.3775      5.6504   5.0484479803e+01   7.2307804832e+01    0.4577431    0.2453303 -17.63  0.001564616    2.456    0.593
        39  -9.0239    150.9635      4.1878   2.2281001844e+01   4.5898179466e+01     0.457036    0.4144074 -88.08  0.002777946    1.021    0.021
        40 -12.1495    160.1402      2.0365   2.0643947044e+01   4.3732489648e+01    0.4549487    0.3587166 -59.49  0.002638586    1.184    0.156
        41 -10.5676    156.1773      3.5722   2.1529956594e+01   4.4609393352e+01    0.2265495    0.2065878  70.16 0.0005365062    1.123    0.110
        42  -8.4140     69.4426      2.4598   3.7519343963e+01   6.7344850313e+01    0.2480643    0.1686979  36.23  0.001004458    1.438    0.305
        43 -11.0755     79.2487      4.2442   3.5365815727e+01   6.4744504632e+01    0.2676283    0.2396756 -14.64 0.0005912291    1.205    0.170
        44 -11.4401     74.7288      2.4338   3.5739912745e+01   6.6055029951e+01    0.5860445    0.4486572  43.04  0.002809098    1.202    0.168
        45  -9.8615    180.5562      1.7763   1.8850357619e+01   3.8705233489e+01    0.3021404    0.1904517 -88.45  0.001622177    1.533    0.347
        46 -10.1994    135.7720      2.5040   2.3457170713e+01   5.0027958245e+01    0.3730425    0.2523965 -59.67  0.001229806    1.511    0.338
        47  -8.7976     48.4764      7.4869   4.9989596603e+01   7.1424055530e+01    0.1369416    0.1230511  20.59 5.258617e-05    1.006    0.006
        48 -10.4775     13.7899      3.5899   7.3486857256e+01   7.7614619595e+01    0.4505385    0.2783613  20.03  0.002476418    1.590    0.371
        49  -9.5800     24.3583      6.6673   6.5907749715e+01   7.5739953103e+01    0.2292136    0.1987921 -59.74   0.00104053    1.480    0.325
        50 -10.4458     20.8741      5.4592   6.8084128626e+01   7.6427652015e+01    0.2648773    0.2030348  18.11 0.0009709683    1.242    0.195
        51  -9.1228      2.5919      6.2166   8.6628500649e+01   7.7974104762e+01    0.2371546    0.1536476 -78.59 0.0007780815    1.880    0.468
        52  -9.4326      5.2037      2.2320   8.1697690951e+01   7.8651837236e+01    0.2957692    0.2000303  -3.02  0.001022602    1.441    0.306
        53  -9.4607    138.3915      6.9256   2.4752048926e+01   4.8938987812e+01    0.3041731    0.1825807  74.17 0.0006390527    1.548    0.354
        54  -9.5988    106.9577      2.5531   2.7911947188e+01   5.7706347757e+01     0.412943    0.1887029  40.28  0.001625399    2.485    0.598
        55  -9.5515     98.4843      5.9816   3.1250166474e+01   5.9626297815e+01     0.293047     0.167503  50.14  0.001186814    1.615    0.381
        56 -11.3422    218.3606      3.2930   1.6829496812e+01   3.0068319257e+01    0.3170163     0.252142  80.29  0.000992659    1.336    0.252
        57  -9.7840     38.3267      4.4561   5.3958092731e+01   7.3833315341e+01    0.3557627    0.2196454  12.17  0.001651482    2.168    0.539
        58  -8.9773     42.4415      1.4149   4.9191878866e+01   7.3476370105e+01    0.2198439    0.1200209  45.17 1.111635e-05    1.691    0.409
        59 -10.1290    237.9598      3.8505   1.5965857107e+01   2.6093173979e+01    0.2979909    0.1840828  70.07  0.001527903    1.827    0.453
        60 -10.0533    231.9775      2.5869   1.5965534880e+01   2.7368673000e+01      0.23753    0.1569824 -52.31 0.0003574631    1.236    0.191
        61 -10.3030    115.9101      2.4884   2.6312124113e+01   5.5323867740e+01      0.32336    0.2249812 -44.10  0.001038637    1.508    0.337
        62 -10.6646     30.5937      2.7310   5.8125914379e+01   7.5455206612e+01    0.3222078    0.2819932 -88.30  0.001708823    1.773    0.436
        63  -9.8910     91.0985      1.9861   3.0989402826e+01   6.1936136667e+01    0.3195149    0.2060131 -87.96  0.001486622    1.857    0.462
        64 -10.5148    249.9370      1.5962   1.4949653806e+01   2.4058571455e+01    0.1682444    0.1268227 -67.40  0.001230246    1.232    0.188
        65  -9.0743    142.0176      2.0555   2.2538503019e+01   4.8418817526e+01    0.2363166    0.1430747 -62.56  0.001125351    1.719    0.418
        66  -8.4183     95.6917      2.6488   3.0262187371e+01   6.0675578551e+01    0.1527137   0.09582549  35.76 0.0007043537    1.714    0.417
        67  -9.0475     23.3237      1.4469   6.3045288353e+01   7.6800578261e+01    0.1567173    0.1176904  37.15 0.0005639595    1.396    0.284
        68  -8.6984    249.6544    122.6955   4.0592363992e+01   1.0657876655e+01    0.1180154   0.07733313   2.38 0.0005554491    1.691    0.409
        69 -11.5189    201.4982    248.7448   6.9152871219e+01   1.6840505866e+00    0.4943362    0.2530844  17.77  0.002728812    1.517    0.341
        70 -11.7344     21.4986    118.9929   9.7795393769e+01   4.8672345078e+01     0.558522     0.381785  71.34 0.0008249645    1.448    0.310
        71  -9.6765    221.3193    119.6931   4.3853131173e+01   1.5424118792e+01    0.2181689    0.1865355  17.87 0.0007068749    1.195    0.163
        72  -8.8394     61.7135    119.9668   8.3393327842e+01   4.4167931568e+01    0.2246161     0.139454  49.68  0.000805226    1.651    0.394
        73 -10.5035     28.4005    117.9143   9.5155872839e+01   4.8387861822e+01    0.4333766     0.226542  83.39  0.001798238    2.169    0.539
        74  -8.9742     93.7950    119.2481   7.2513914549e+01   3.9365141078e+01     0.206422    0.1740599  -0.91   0.00104417    1.361    0.265
        75  -8.9369     45.2552    119.4198   8.9183813902e+01   4.6334208885e+01    0.2110539    0.1198884  37.84 0.0009593459    1.661    0.398
        76 -10.2101      3.7865    124.6554   1.0447966340e+02   4.8383667855e+01    0.2326045    0.1732141  83.48  0.001367265    1.217    0.178
        77  -8.8146     86.6056    118.1929   7.4595485325e+01   4.0836035815e+01    0.2000079    0.1367335 -43.64  0.000244459    1.569    0.363
        78 -10.6011     10.4886    114.2138   1.0143944203e+02   5.0646114555e+01    0.4035885    0.3689579 -72.87   0.00209383    1.099    0.090
        79  -9.5829     80.5164    115.5129   7.6053430723e+01   4.2478010957e+01    0.2588274    0.2323623  33.87 0.0006832088    1.080    0.074
        80 -10.5758     35.2576    115.1244   9.2274471180e+01   4.8478925545e+01    0.4612626    0.1902952  41.68  0.001852655    2.303    0.566
        81 -10.7723     36.9619    109.9677   9.0925413216e+01   4.9644826068e+01    0.3447124    0.2434038 -69.42  0.000572301    1.372    0.271
        82 -10.6486     32.4781    106.2022   9.2145615523e+01   5.1055617069e+01    0.3404568    0.2710412 -27.86  0.001047485    1.425    0.298
        83 -11.1121     20.3924    108.8869   9.7208420314e+01   5.1361901534e+01    0.4667656    0.3067417  29.58  0.002010576    1.519    0.341
        84 -10.1483     89.8270    108.1814   7.1312290595e+01   4.2653752308e+01    0.2672679    0.2332721  68.29 0.0003269998    1.251    0.200
        85 -10.0468     71.6982    103.4438   7.6545291450e+01   4.6835015130e+01     0.540737    0.3016604  62.75  0.001990644    2.728    0.633
        86  -8.2670     68.2332    105.6779   7.8301690799e+01   4.6814084222e+01    0.1447752     0.112276  76.01 0.0001493539    1.512    0.338
        87  -9.6355     51.8133    105.1229   8.4389711024e+01   4.9224183083e+01    0.2223396    0.1928111  64.90 0.0006199297    1.177    0.150
        88  -9.6024     27.4581    103.5332   9.3788822655e+01   5.2197297192e+01    0.3654881    0.2124792 -37.54 0.0008023867    1.996    0.499
        89  -8.9137    161.7140    103.7662   5.0726961964e+01   2.9119161153e+01    0.1809417    0.1662139 -75.74 0.0003517303    1.289    0.224
        90 -10.1511     57.0131    100.9445   8.1559364575e+01   4.9613363119e+01    0.3659128     0.223489 -41.32   0.00161325    1.823    0.451
        91  -8.8390      2.3236    104.7047   1.0388576434e+02   5.3511064299e+01    0.1392765   0.08364171  54.61 0.0001638863    1.620    0.383
        92  -9.1067    141.8174    103.1227   5.5075901987e+01   3.3414441244e+01    0.2256919    0.2049774 -83.18  0.001120545    1.301    0.231
        93 -10.0791    104.1595    100.3528   6.4753229308e+01   4.1765376078e+01    0.3826403    0.2348917  19.60  0.001486605    2.302    0.566
        94  -8.8071     40.4788    103.4870   8.8559799385e+01   5.0962837902e+01    0.1439281    0.1317076  68.11 0.0005294292    1.079    0.073
        95  -8.8504    112.0886    101.6830   6.2692084254e+01   3.9890676948e+01    0.2127122    0.1872981  32.44 0.0003617386    1.114    0.102
        96  -9.4155     52.9716     90.7223   8.1013006878e+01   5.2757494264e+01     0.307631    0.1955798 -71.16  0.001390908    1.685    0.407
        97  -9.9190     51.1030     99.7676   8.3654361049e+01   5.0687084605e+01     0.366928    0.2396048 -37.65  0.001123728    1.745    0.427
        98  -9.2490     53.4674     95.5044   8.1841433161e+01   5.1473268871e+01    0.2953254    0.2066817  88.15  0.001367738    1.733    0.423
        99  -9.2030      4.9251    110.7259   1.0327257118e+02   5.1845334162e+01    0.2281373    0.1602195 -54.12 0.0009856235    1.455    0.313
       100 -10.1009      7.5491     97.8400   1.0130029502e+02   5.5031315291e+01    0.5764895    0.3015448  46.29  0.002752052    1.913    0.477
       101 -10.5799      2.3584     87.3048   1.0264986933e+02   5.7997971910e+01    0.7590592    0.2204355 -74.58  0.002826906    2.873    0.652
       102 -10.2353    117.6778     97.9851   6.0084562687e+01   3.9533661205e+01    0.2598347    0.2153459  40.43 0.0003260065    1.175    0.149
       103  -9.7885    111.7992     97.9184   6.1781853616e+01   4.0762820788e+01    0.2403791    0.2139119  41.08 0.0004256928    1.093    0.085
       104 -10.3460     92.1364     95.4832   6.7375755583e+01   4.5193845484e+01    0.4627639    0.2987484  63.14  0.001307732    2.093    0.522
       105  -9.5895    165.9048     95.4148   4.7727219472e+01   2.9686445012e+01    0.2747443    0.1998825 -25.91 0.0007354614    1.407    0.289
       106  -8.7664    141.5871     95.7614   5.3186811415e+01   3.4869486164e+01    0.2030865    0.1403542 -50.51 0.0003963012    1.567    0.362
       107  -9.2128     63.3471     96.2681   7.8081130442e+01   4.9895487352e+01    0.2624501    0.1576508  48.03 0.0006925754    1.761    0.432
       108  -9.5571     14.1295     93.1402   9.8081488883e+01   5.5887236268e+01    0.2444693    0.1711069 -64.31 0.0005377852    1.326    0.246
       109 -10.6590     17.9415     90.7312   9.6145037497e+01   5.6272150292e+01    0.2330801    0.2259178  68.58 0.0003199213    1.060    0.056
       110  -9.3831     47.8902     92.7819   8.3570873993e+01   5.2881547428e+01    0.3898197    0.2317567 -86.64  0.001630318    2.167    0.539
       111 -11.1409     41.8584     89.8938   8.5551056229e+01   5.4337693577e+01    0.6017895     0.378306   5.22  0.002129289    1.973    0.493
       112  -9.8872     31.1940     93.1007   9.0723560115e+01   5.4594248747e+01    0.3233565    0.2254357  62.26 0.0009098994    1.554    0.357
       113  -9.6116     33.7950     90.8004   8.9215014750e+01   5.4948840154e+01    0.2930275    0.1630041  40.57 0.0009637264    1.811    0.448
       114 -10.7218    126.8981     88.0897   5.4779748743e+01   3.9575105846e+01    0.5645125    0.4860105 -87.48  0.002857581    1.400    0.286
       115  -9.1559    117.1537     83.1390   5.6026058041e+01   4.2717561676e+01      0.27601    0.2404518  83.34 0.0003691862    1.338    0.253
       116 -10.5913     65.1924     90.8944   7.6088513048e+01   5.0955292891e+01    0.4139319     0.311531  15.46  0.001529247    1.491    0.329
       117 -10.4808     65.5567     86.1199   7.4740859070e+01   5.2076368610e+01     0.356723    0.2906929 -16.55  0.001383224    1.426    0.299
       118  -9.4353    111.1781     87.5165   5.9066674809e+01   4.3110040979e+01    0.4570681      0.22628 -53.13  0.001696934    2.341    0.573
       119  -9.4966     86.2437     88.7457   6.7595665114e+01   4.7861329481e+01    0.3185336    0.2500097   4.67    0.0014983    1.579    0.367
       120 -10.7921     25.5528     87.2850   9.2281058726e+01   5.6606122716e+01    0.4901559    0.3781595  47.14  0.001938864    1.335    0.251
       121  -9.9051     57.3816     87.4650   7.8426433552e+01   5.2972486127e+01    0.3803458    0.2233548  51.45  0.001080932    1.943    0.485
       122  -9.3400    126.0282     97.3183   5.7582940440e+01   3.7912583475e+01    0.2787441    0.2206875 -73.60  0.001322068    1.625    0.385
       123  -9.9490    154.9700     85.2351   4.7263626399e+01   3.3828469898e+01    0.3289708    0.2463985  13.40 0.0009120414    1.698    0.411
       124 -10.1133    150.4579     79.8873   4.6726124577e+01   3.5778532184e+01    0.3370937    0.2562633  44.64 0.0009896382    1.327    0.246
       125  -9.9925    143.0735     83.5023   4.9423650379e+01   3.6818219042e+01    0.5242287     0.200035 -40.88  0.001842274    2.599    0.615
       126  -8.8810     16.5773     85.7774   9.6121481515e+01   5.7658880896e+01    0.1983182    0.1205836  85.09 0.0008511218    1.726    0.421
       127  -9.8695     77.7298     83.7256   6.9320477184e+01   5.0596903159e+01     0.391501    0.2831762 -54.36  0.001548933    1.414    0.293
       128 -10.0982     81.2083     82.5835   6.7684953765e+01   5.0229662496e+01    0.4604558    0.3148744 -29.09   0.00150248    1.790    0.441
       129 -10.0781     51.6480     82.2688   7.9614623724e+01   5.5076633730e+01    0.4101348    0.2862826 -22.94  0.001897399    1.773    0.436
       130 -10.3467     52.1953     76.7460   7.7976514203e+01   5.6385739938e+01    0.4113801     0.309545  72.41 0.0009435774    1.644    0.392
       131 -10.8033     73.1510     80.1663   7.0078085137e+01   5.2248711322e+01    0.5007358    0.3579615 -46.54  0.001372725    1.414    0.293
       132  -9.9394     41.2382     80.6791   8.3900957736e+01   5.6782209596e+01    0.6112211    0.3559827  -0.27  0.002522109    2.399    0.583
       133  -9.7025     92.0988     80.3640   6.3105844396e+01   4.8625141742e+01    0.3412619     0.243986 -15.61  0.001219201    1.935    0.483
       134  -9.6772     59.1590     72.8036   7.3783842417e+01   5.6327955627e+01    0.2545862    0.2283232 -34.51  0.000371418    1.128    0.113
       135  -9.6420     66.3083     79.9956   7.2788279374e+01   5.3448045525e+01    0.3382856    0.2337143 -35.36  0.001347401    1.616    0.381
       136 -11.0827     67.3275     74.6996   7.0839036241e+01   5.4546731678e+01    0.5720071    0.2826259  35.11 0.0006462061    2.009    0.502
       137  -8.9837     19.1797     80.8032   9.4222821472e+01   5.8784574946e+01    0.2040737    0.1804308  63.19 0.0007960325    1.164    0.141
       138 -10.9371    120.4856     85.5045   5.5782148566e+01   4.1505352751e+01    0.3863995    0.3537638  57.99  0.002039407    1.118    0.105
       139  -8.9816    106.4038     79.7423   5.8208451585e+01   4.5766321685e+01    0.2183292    0.1461348 -31.87 0.0006907844    1.688    0.408
       140 -10.7053    166.7761     77.7977   4.2837224598e+01   3.2422089383e+01    0.2928106    0.2387258 -43.83  0.001566864    1.210    0.174
       141 -10.0593    169.6782     74.3609   4.1350639642e+01   3.2314771396e+01    0.3171363    0.2782074 -86.82 0.0006141075    1.287    0.223
       142  -9.7777    166.0000     72.0493   4.1375722690e+01   3.3514436523e+01     0.355664    0.1973596 -32.96 0.0008679269    1.766    0.434
       143  -9.3857    166.3361     68.3226   4.0256278725e+01   3.4019449409e+01    0.2443524    0.1917292  43.60  0.000697682    1.337    0.252
       144  -8.7468    135.8565     76.8290   4.9180696676e+01   3.9688197630e+01    0.2036406    0.1752265 -66.28 0.0005473042    1.300    0.231
       145  -9.9039    109.5853     74.4522   5.5577443612e+01   4.6153392941e+01    0.4791235    0.2866773 -59.94  0.001884097    2.229    0.551
       146  -8.9038    100.1115     76.8404   5.9316008571e+01   4.7727485781e+01    0.2014086    0.1772663  -2.47 0.0002501239    1.275    0.216
       147  -7.9994     12.6759     77.6813   9.6885577893e+01   6.0010402508e+01    0.1463275   0.08839621 -42.13 0.0004725563    1.673    0.402
       148  -9.0286    145.2722     75.7642   4.6667770467e+01   3.7692054550e+01    0.1994915    0.1716301   1.71 0.0004812541    1.317    0.241
       149  -9.1920    119.1446     76.1971   5.3346595960e+01   4.3652299938e+01    0.2056485    0.1806192  89.66 0.0002645289    1.314    0.239
       150  -9.8628     28.9940     74.6425   8.8420194589e+01   5.9599865890e+01    0.2943642    0.2126745 -62.52 0.0007365971    1.296    0.228
       151  -9.4760     19.2067     72.7166   9.2922144864e+01   6.0888726251e+01    0.3356603    0.2064981 -72.46     0.001655    1.526    0.345
       152  -9.2905     93.4173     67.2551   5.8441874485e+01   5.1171100114e+01    0.2881705    0.2211549 -39.61 0.0005593305    1.343    0.255
       153 -10.7157     89.0538     73.6257   6.2080793002e+01   5.0723850846e+01    0.5337303    0.4082877  -9.53  0.002306458    1.706    0.414
       154 -10.4839     94.8074     72.2522   5.9623999470e+01   4.9825747285e+01    0.3302815    0.3201027  66.40 0.0005283242    1.065    0.061
       155  -9.2104    152.1284     73.1484   4.4415405331e+01   3.6543187362e+01    0.2121372    0.1925761  16.58 0.0002724495    1.182    0.154
       156  -8.6829      2.9551     72.9904   1.0108440485e+02   6.1683201009e+01    0.1575811    0.1439701 -72.27 0.0004278059    1.015    0.015
       157  -8.7849    136.1660     72.3316   4.7737772524e+01   4.0427315706e+01    0.2175259    0.1394058  62.82 0.0009358596    1.745    0.427
       158 -10.0439    143.5339     70.7799   4.5561838505e+01   3.8962071608e+01    0.5480336    0.3217495  52.29  0.002393313    1.688    0.408
       159  -9.9286    147.6464     66.3251   4.3312335967e+01   3.8735107769e+01    0.2821019    0.2410325 -43.76 0.0004670944    1.169    0.144
       160 -11.1138     52.4549     69.1285   7.5753069389e+01   5.8226240595e+01    0.4706436    0.3908803  86.48  0.002440786    1.423    0.297
       161  -9.0590    102.4815     69.4829   5.6172032739e+01   4.8737645566e+01    0.2648357    0.1482552 -31.41 0.0007967799    2.158    0.537
       162 -10.8318     22.2705     65.0985   8.9911921143e+01   6.2626569993e+01     1.180083    0.3302014 -69.70  0.003926732    3.361    0.702
       163 -10.0245     31.0031     58.2818   8.3562972545e+01   6.3562943377e+01    0.5013127    0.2227753  23.19  0.001703781    2.314    0.568
       164 -10.0138     31.6411     52.6960   8.1621886713e+01   6.4871900100e+01    0.8601262    0.2715702  33.80  0.003094981    3.016    0.668
       165 -10.4792     29.6036     68.3004   8.6768695264e+01   6.1172861003e+01    0.4296283    0.3423262  39.45  0.001489361    1.318    0.241
       166  -9.2537     26.8136     63.1583   8.7059007599e+01   6.2739166596e+01    0.2537821    0.2037171  74.80 0.0008378806    1.412    0.292
       167 -11.1602     25.0605     55.3578   8.6128642341e+01   6.4859291650e+01    0.5232927    0.2707936 -79.95  0.001680152    2.378    0.579
       168 -11.0513     19.8706     53.3995   8.8660292640e+01   6.5777738489e+01    0.3646613    0.3374255  30.55  0.001358742    1.163    0.141
       169  -9.4181    173.2816     68.6352   3.9126874425e+01   3.2380234310e+01    0.2294897      0.19831 -62.78 0.0006249017    1.224    0.183
       170  -8.8838    157.2850     68.5795   4.2031030349e+01   3.6086750322e+01    0.2469405    0.1770866  -8.77  0.001146649    1.777    0.437
       171  -9.2948     64.3144     69.2886   7.0467892515e+01   5.6332202880e+01    0.2567712    0.2149131  33.96  0.001326137    1.188    0.158
       172 -11.0323     13.2719     38.5626   8.9051557349e+01   6.9902564304e+01    0.8903914    0.2594346 -57.08  0.003425601    2.628    0.620
       173 -11.0841      8.2199     51.0680   9.5161211386e+01   6.7084230097e+01    0.5589186    0.2968561   6.24  0.002190744    2.058    0.514
       174 -11.1523      2.3455     66.3429   1.0068738760e+02   6.3420105265e+01    0.3880302    0.2001343 -62.83  0.001454272    1.671    0.402
       175 -11.6895      5.6588     59.8770   9.8081376151e+01   6.4956564048e+01    0.6935614    0.4792587 -71.63  0.003829828    1.302    0.232
       176  -9.3863    150.8200    249.3984   7.8431281441e+01   7.2393804724e+00    0.1590967   0.08011901  21.22 0.0003767026    1.604    0.377
       177 -10.7255      9.7426     31.6288   8.9615493490e+01   7.1786468316e+01    0.3235737    0.2385859  26.42 0.0002165592    1.464    0.317
       178  -9.5858    120.5482     67.6212   5.0221584078e+01   4.4962117557e+01    0.2800874    0.2460314  40.61 0.0008406832    1.130    0.115
       179 -10.8275     76.2463     65.7084   6.4318970117e+01   5.4999965428e+01    0.4337396     0.352203  40.06  0.001393612    1.211    0.175
       180  -9.7287     77.3149     61.6992   6.2503554433e+01   5.5668309216e+01    0.2888373    0.2613173  62.98  0.001095707    1.195    0.163
       181  -9.4245     11.4598     66.4396   9.5900529536e+01   6.2994883353e+01    0.2377023    0.1673805 -57.62 0.0006736032    1.283    0.221
       182 -10.2213     16.1694     64.3129   9.3029811522e+01   6.3264555461e+01    0.4072637    0.2245615 -22.52 0.0009169818    2.134    0.531
       183  -8.4567    197.5288     66.4368   3.4825423801e+01   2.7362810045e+01     0.132142     0.121619 -36.97 0.0002299706    1.007    0.007
       184 -10.2973    135.0110     57.1978   4.3176646569e+01   4.3298569876e+01    0.6671231    0.4356713  13.58  0.002659296    2.501    0.600
       185 -10.5161    137.5713     65.5521   4.5292649192e+01   4.1277789355e+01    0.3012367     0.247222  66.47 2.889001e-05    1.272    0.214
       186 -10.3314    134.7074     63.6861   4.5363520994e+01   4.2286111968e+01    0.3349665    0.2729622 -16.50 0.0005132946    1.381    0.276
       187  -8.8383    106.0996     66.4625   5.4021561917e+01   4.8528099361e+01     0.241393    0.1479356  46.68  0.001027464    1.587    0.370
       188 -10.0164     83.0396     62.8088   6.0666410741e+01   5.4280530812e+01    0.5509021    0.3027744 -54.18  0.002206762    2.072    0.517
       189  -9.8077     97.8140     63.8016   5.5762872462e+01   5.0916980482e+01    0.3514308     0.241702 -59.32 0.0004049557    1.750    0.429
       190 -10.4063     54.6417     63.0057   7.2856988855e+01   5.9371447689e+01    0.3346159    0.2736857 -65.37 0.0008591611    1.306    0.234
       191 -11.9967     56.1086     56.9470   7.0129403139e+01   6.0551361955e+01    0.4165455    0.3702292  34.05 0.0003483859    1.129    0.114
       192  -8.7998    218.7616     69.9993   3.2990178210e+01   2.2588691839e+01    0.1699777    0.1460471 -32.85 0.0003111596    1.014    0.014
       193  -9.8979     65.2939     61.8859   6.7616178778e+01   5.7873120426e+01    0.2860734    0.2633724 -11.43  0.001249866    1.115    0.103
       194  -9.7219     70.6674     60.7085   6.4886261471e+01   5.7161161547e+01    0.3104213    0.2655449  33.31  0.000914642    1.154    0.133
       195  -8.9972    193.6783     62.4518   3.4319736299e+01   2.8732353487e+01    0.1679384    0.1267257  47.99 0.0006375009    1.443    0.307
       196  -9.7160    155.4444     61.2367   4.0195614660e+01   3.7683431101e+01    0.2719588    0.2306497  49.82  0.000728296    1.197    0.164
       197  -8.9322    108.7280     62.3946   5.1830120395e+01   4.8708102031e+01     0.209312    0.1407637  40.87 0.0006660125    1.500    0.333
       198  -9.1657     43.3255     61.9241   7.8077582512e+01   6.1235485253e+01    0.2017778    0.1788737 -41.60   0.00064843    1.092    0.084
       199  -8.6309    243.1656     61.6194   2.8492395130e+01   1.9111665298e+01    0.1437303    0.1070454  46.08 0.0004665818    1.629    0.386
       200  -8.5715    176.4764     60.9818   3.6461051058e+01   3.2778084620e+01    0.2092077   0.09942292 -51.32 0.0008093812    2.477    0.596
       201  -9.1720    165.1081     59.5694   3.7937424406e+01   3.5634175279e+01    0.4062445    0.1406273  59.97  0.001413597    2.991    0.666
       202  -9.6116    115.9074     56.6706   4.7769979653e+01   4.8052876348e+01    0.4201739    0.3274655  -5.00  0.001986661    1.617    0.382
       203  -9.5498     94.5469     59.1746   5.5219704813e+01   5.2562154097e+01    0.3179044    0.2277232   1.96  0.001349221    2.059    0.514
       204  -9.1879    226.2572     56.3816   2.8946913656e+01   2.2838643186e+01    0.2724565    0.1298736 -38.24  0.001372963    1.736    0.424
       205 -10.3657    123.0167     52.0623   4.4280893094e+01   4.7102540411e+01    0.4221041    0.2022924 -42.53  0.001030196    2.143    0.533
       206 -10.4738    115.7885    248.4702   8.5259768764e+01   1.1404097902e+01    0.2386381    0.1805886  34.46  0.001754829    1.164    0.141
       207  -9.4009    146.1888     52.7346   3.9341019072e+01   4.1245152228e+01    0.3920245    0.2195072 -63.36  0.001476903    2.670    0.625
       208  -8.5739     92.6838     54.6403   5.4185307340e+01   5.3861924803e+01    0.1570309    0.1518333  38.90 0.0007558445    1.007    0.007
       209  -9.2850     95.9192     52.4876   5.2274755384e+01   5.3535415218e+01    0.3114401    0.2120765  52.98 0.0007871965    1.456    0.313
       210  -8.7176     64.3162     54.6622   6.5474680046e+01   5.9656470527e+01    0.2117814    0.1474444  52.81 0.0006735577    1.618    0.382
       211  -9.3772     61.5030     52.0617   6.5789289278e+01   6.0727831637e+01    0.2542056    0.2083738  38.18 0.0006171055    1.212    0.175
       212  -9.5098     42.9012     52.6872   7.5371329873e+01   6.3507544086e+01    0.4390111    0.2110504 -62.67  0.001494762    2.314    0.568
       213 -10.2669     46.6807     47.0431   7.1310142766e+01   6.4270172773e+01    0.4567163    0.2643949  18.77  0.001231192    2.062    0.515
       214  -8.9253    192.4935     53.0842   3.1992923930e+01   3.0243230142e+01    0.2042651    0.1226348 -32.33  0.000503517    1.533    0.348
       215  -8.7400    183.8653     52.2710   3.2930107128e+01   3.2292537761e+01    0.1799184    0.1705997  87.42 0.0005813047    1.088    0.081
       216 -10.7026    110.8731     51.7884   4.7416401270e+01   5.0124808148e+01    0.3138606    0.2442245  48.75            0    1.241    0.194
       217  -8.6767     47.6206     52.3053   7.2741373587e+01   6.2930440624e+01    0.1497645    0.1107558  64.19  0.000702576    1.780    0.438
       218 -10.0745     83.2294     55.4480   5.7913135376e+01   5.5765675556e+01    0.4512005    0.4279862 -30.51  0.001966242    1.076    0.071
       219  -9.5753    198.5422     49.8131   3.0370405763e+01   2.9333264306e+01    0.3635275    0.1806292  73.80  0.001212033    2.446    0.591
       220  -9.8989    174.7094     49.1291   3.3348787595e+01   3.4840488189e+01    0.4671502    0.2725046  39.28  0.002094633    2.124    0.529
       221  -9.5816    136.7825     49.3977   4.0174570617e+01   4.4095884689e+01    0.2512929    0.2307961  43.53 0.0004563814    1.111    0.100
       222  -9.0456    133.4946     48.5666   4.0603206015e+01   4.5047827154e+01    0.2679643    0.2168532  64.81 0.0006750097    1.224    0.183
       223  -9.8208    144.6188     40.8138   3.5713915452e+01   4.3371766114e+01    0.4527847    0.2494243  34.79  0.001785984    2.482    0.597
       224 -10.3335    148.7352     38.7215   3.4276805404e+01   4.2614000907e+01    0.7065809    0.2839849 -51.85  0.001884088    3.282    0.695
       225 -10.1257     86.9255     49.0042   5.4045134017e+01   5.6224405809e+01    0.4073138    0.2837851  42.95  0.001095251    1.393    0.282
       226 -10.3686    128.3664     48.3892   4.1698808445e+01   4.6361916231e+01    0.3179275    0.2926465 -49.59 0.0007580878    1.109    0.098
       227 -10.3499     86.7020     36.3182   4.8821800285e+01   5.8541265827e+01    0.7172927    0.3881457 -27.52   0.00198534    2.174    0.540
       228 -11.2732     89.6786     27.8285   4.4000975250e+01   5.9173144024e+01    0.4092429    0.2959543 -46.63  0.002002619    1.521    0.343
       229  -9.5013     87.2848     42.6102   5.1310469926e+01   5.7318491132e+01    0.2665602    0.2129205 -22.60 0.0004039034    1.371    0.270
       230 -10.7654     79.8069     44.5398   5.4904949099e+01   5.8631510703e+01    0.6707922    0.3228917 -34.74  0.002578935    2.318    0.569
       231  -9.8313     83.5284     41.1121   5.2043286450e+01   5.8438509411e+01    0.2604982    0.2422802 -39.51 0.0003418896    1.124    0.111
       232  -9.9504    151.0002     46.7048   3.6483289033e+01   4.0939256219e+01    0.3813213    0.1926837 -55.88  0.001231799    2.565    0.610
       233  -9.1593    149.6748     43.3282   3.5627283053e+01   4.1746826625e+01    0.2779357     0.193385 -76.17 0.0005547074    1.750    0.429
       234  -8.8135     97.3750     47.8105   4.9991332083e+01   5.4050497796e+01    0.2074096    0.1454979 -24.80 0.0009371755    1.631    0.387
       235  -9.2752     31.9643     47.4845   7.9804055735e+01   6.6093508188e+01    0.2085832    0.1687037 -50.87 0.0008517664    1.172    0.147
       236  -8.9488    235.0113     47.2486   2.6006231845e+01   2.2241390493e+01     0.160055    0.1366287 -48.92 0.0004071949    1.081    0.075
       237 -12.7391     61.7620     44.4588   6.2637567584e+01   6.2293858353e+01    0.4345486    0.3120459  42.91  0.000333912    1.391    0.281
       238 -11.2784     57.5940     45.4917   6.5073518284e+01   6.2831354227e+01    0.2878579    0.2578523  60.88 6.726373e-05    1.272    0.214
       239  -9.9996     17.0208     46.5875   8.8711587810e+01   6.7682923218e+01     0.258241    0.1943326 -44.33 0.0008578707    1.219    0.180
       240 -10.3272    115.4198     44.8982   4.3615120631e+01   5.0156927835e+01     0.317462    0.2851286  55.65 0.0005466331    1.071    0.067
       241  -8.7370    113.2530     41.3325   4.2825955552e+01   5.1263249040e+01    0.2164078    0.1872037  63.63 0.0002400717    1.130    0.115
       242  -9.5252     38.6159     47.0523   7.5786577595e+01   6.5393493195e+01    0.2572703    0.2035632  23.60 0.0005615336    1.278    0.218
       243  -9.9564      3.5749     43.4225   9.6699037796e+01   6.9193866876e+01    0.4356016    0.1924237 -71.05  0.001974111    1.990    0.498
       244  -9.3308    245.0672     44.4999   2.4555961414e+01   2.0703587846e+01    0.2093523    0.1643958  64.55 0.0009366507    1.522    0.343
       245  -9.4485    248.9666     43.2298   2.3977607617e+01   2.0148104530e+01    0.1787206    0.1421049 -33.67 0.0004473226    1.065    0.061
       246 -10.4637    140.9484     48.4421   3.8984834394e+01   4.3197211247e+01    0.6432307    0.2662004 -31.61  0.002380272    2.473    0.596
       247  -9.7995    122.8139     45.0191   4.1804505066e+01   4.8284097937e+01    0.4415979    0.2045707  55.49  0.001710807    2.044    0.511
       248 -10.2197    106.8151     44.0319   4.5637526602e+01   5.2428229955e+01    0.4834908    0.4042398  -4.40  0.002391011    1.389    0.280
       249  -9.8713    103.6565     41.6902   4.5629784005e+01   5.3587344864e+01    0.3716336    0.2557983  24.70  0.001428835    1.852    0.460
       250  -8.9152    185.5214     43.9199   3.0384311751e+01   3.2997285616e+01    0.2786283    0.1420321  32.18  0.001040219    3.424    0.708
       251  -9.5832     91.8312     43.0917   4.9930675168e+01   5.6183063376e+01    0.2958157    0.2019804 -44.24  0.001234171    1.545    0.353
       252  -9.5913     93.9578     38.2967   4.7226624385e+01   5.6495948751e+01    0.2665353    0.2171603 -18.53 0.0003140756    1.356    0.262
       253  -9.8152     98.1541     35.0651   4.4544260901e+01   5.5996362295e+01    0.3661795    0.2616684  55.44 0.0009142958    1.335    0.251
       254  -9.5464    200.6503     43.1130   2.8369052018e+01   2.9700091685e+01    0.2325464    0.1841823  57.51 0.0009138016    1.379    0.275
       255  -9.0747     45.8190     42.6407   7.0057100220e+01   6.5379881595e+01    0.2763124    0.1703357 -28.81  0.001228616    1.923    0.480
       256  -9.4667     28.7387     42.3583   8.0047015376e+01   6.7661050707e+01    0.3833818    0.2305049 -15.02  0.001728729    2.105    0.525
       257  -9.2527    215.7681     41.4328   2.6384490744e+01   2.6689361507e+01     0.292593    0.1567619 -60.36  0.001178671    2.127    0.530
       258  -8.8218     34.1780     41.7074   7.6455864188e+01   6.7188802785e+01    0.2543283    0.1795374  -2.76  0.001272089    1.624    0.384
       259  -9.4532     22.8446     40.8776   8.3321385422e+01   6.8596525216e+01    0.2949008    0.1780893 -35.10  0.001435877    1.668    0.400
       260  -8.8210     25.7395     37.6741   8.0328238210e+01   6.9071367438e+01    0.2207092    0.1392094 -43.33 0.0002846386    1.482    0.325
       261 -10.2312    228.9870     39.1310   2.4644031677e+01   2.4300678792e+01    0.2993053    0.2285539 -28.01   0.00192906    1.204    0.169
       262 -11.7921    238.5549     37.6975   2.3545066115e+01   2.2632410719e+01    0.2544014    0.2039686 -43.40 0.0002311165    1.031    0.030
       263  -8.9210    242.4481     34.4947   2.2537435872e+01   2.2251920951e+01    0.1626225    0.1339633   4.26 0.0008459039    1.513    0.339
       264  -9.3635    203.1220     39.0458   2.7041571434e+01   2.9644968495e+01    0.1970935    0.1615547 -53.83 0.0005131065    1.121    0.108
       265 -10.3874    130.1567     37.2173   3.7306553561e+01   4.7569217895e+01     0.488133    0.3547689 -17.05  0.002358198    1.589    0.371
       266  -8.5984     40.4588     39.4470   7.1813653899e+01   6.6869677401e+01    0.1411266    0.1292353 -15.27 0.0002088212    1.034    0.033
       267  -9.1782    187.6031     37.5521   2.8354149328e+01   3.3301922121e+01    0.3406553    0.1663009 -61.11  0.001391697    2.620    0.618
       268  -9.5616    177.1523     36.8263   2.9431188010e+01   3.5843178992e+01    0.2764184    0.2190769 -86.74  0.001043172    1.307    0.235
       269 -11.7907    107.1109     30.2157   3.9979278808e+01   5.4472762962e+01    0.6503307    0.4401654  35.14  0.003007716    1.647    0.393
       270 -11.2132    113.4266     34.5854   4.0141889000e+01   5.2236282855e+01    0.6237737    0.4404416  51.50  0.003011311    1.347    0.258
       271  -9.9862    119.2180     30.9375   3.7324569879e+01   5.1260254329e+01    0.3198244    0.2400427  37.96 0.0008864976    1.426    0.299
       272  -9.1071    153.8550     37.1229   3.2891277813e+01   4.1532269340e+01    0.2152489    0.1796644 -65.14 0.0003423842    1.213    0.176
       273 -10.5157    140.5665     33.0602   3.3796238793e+01   4.5449762557e+01    0.5065813    0.3247149   4.09 0.0009019011    2.353    0.575
       274 -10.1649    146.3605     28.8363   3.1344625434e+01   4.4489884940e+01    0.2875681    0.2269582  62.44 0.0002815689    1.227    0.185
       275 -10.2516     65.1156     29.6502   5.4333505102e+01   6.4467662567e+01    0.5554195    0.2850966 -33.96  0.001460777    2.100    0.524
       276 -10.6933     62.1628     23.2461   5.2416748886e+01   6.6173656520e+01    0.4143482    0.2996236 -11.22  0.002048482    1.645    0.392
       277 -10.7099     71.8660     29.0914   5.1131831933e+01   6.3118230733e+01    0.4753874    0.4260392 -69.81  0.002615236    1.332    0.249
       278 -10.0867     78.3640     34.9272   5.1276904551e+01   6.0685388045e+01    0.3589091    0.2649282  64.21 0.0008387998    1.548    0.354
       279  -9.6075    158.4826    244.0987   7.6360459392e+01   7.0225053805e+00    0.1362137    0.1036303 -25.88 0.0004253826    1.521    0.343
       280  -9.5435     56.6978     35.9619   6.1391005360e+01   6.4944555963e+01    0.2303026    0.1915172  15.47 0.0004379766    1.234    0.190
       281  -8.9188     47.0057     34.4934   6.5888784806e+01   6.6927859665e+01     0.295725    0.1351613  36.48  0.001007698    2.160    0.537
       282  -8.6952     43.6878     32.6754   6.6958136968e+01   6.7834748853e+01    0.2437673    0.1271485 -48.79  0.001066389    1.923    0.480
       283  -9.4743     51.7677     33.0031   6.2574547535e+01   6.6417694071e+01    0.3366331    0.2025476  35.76  0.001079151    1.636    0.389
       284  -8.4997     55.4912     32.4734   6.0367060311e+01   6.5846192037e+01    0.2209304    0.1379915 -54.15 0.0006683153    1.900    0.474
       285  -9.6874    223.7327     33.8155   2.3822670391e+01   2.5923253041e+01    0.2753398     0.220978  56.98  0.001796942    1.452    0.311
       286  -9.4997     60.8500     34.6138   5.8717811370e+01   6.4419302828e+01    0.2495605    0.1992455 -49.68 0.0001875299    1.363    0.266
       287  -9.4079     30.9873     33.8649   7.5395087249e+01   6.9353051550e+01    0.1961829    0.1789546  -0.74 0.0002657675    1.062    0.059
       288 -10.1131    233.9490     30.7215   2.2301132772e+01   2.4247130045e+01    0.2767086    0.2111779  55.56  0.001286843    1.573    0.364
       289  -9.3878    158.0984     31.6511   3.0466082173e+01   4.1155160200e+01    0.3026593    0.1852424 -55.92 0.0009602649    1.747    0.428
       290  -9.1401    133.2530     31.5327   3.4615368014e+01   4.7540053950e+01    0.2367788    0.1979468  83.85  0.000567042    1.205    0.170
       291  -9.5490     47.3770     26.3706   6.1724859108e+01   6.8471977616e+01    0.4987956    0.2669492  45.25  0.001733367    1.961    0.490
       292  -9.6096     24.3887     31.5860   7.8944044590e+01   7.0608172547e+01      0.30716    0.1973709  32.71  0.001581758    1.621    0.383
       293  -8.7532     23.6197     27.4975   7.7805427242e+01   7.1604307083e+01    0.1809629    0.1237839 -66.12 0.0001615099    1.641    0.391
       294  -9.6177     30.1379     29.1925   7.3951891130e+01   7.0483424600e+01    0.5061764    0.2637738   7.60  0.001912053    2.779    0.640
       295 -10.8642     37.7725     26.8517   6.7789446778e+01   6.9932696327e+01     0.504832    0.3005375  42.26  0.002417495    1.803    0.445
       296  -9.7350    248.5454     30.2127   2.1177992866e+01   2.1587860415e+01    0.1999012    0.1531872  -6.24  0.000643687    1.556    0.357
       297  -9.0907    178.4196     30.7555   2.7502236145e+01   3.6265476729e+01    0.1868541    0.1306229 -12.57  0.000952387    1.676    0.403
       298  -9.4137    190.4404     29.2319   2.5730807356e+01   3.3615420249e+01    0.2672476    0.1895393 -76.00  0.001173318    1.475    0.322
       299  -9.5611    247.5788     36.2572   2.2560382955e+01   2.1135556662e+01    0.1522298   0.09780197 -20.67 0.0003474747    1.524    0.344
       300 -10.7545     18.7374     27.9605   8.1605771665e+01   7.1978135321e+01    0.3933261    0.2750384 -72.79 0.0009297592    1.643    0.391
       301  -9.4571      1.6309    244.0246   1.0852027408e+02   2.3444682514e+01    0.1417314    0.1027492  54.33 0.0004593393    1.129    0.114
       302  -9.8609    221.5364     21.5491   2.1042458655e+01   2.7661159755e+01    0.2424955    0.1592548 -74.96 0.0008128313    1.581    0.367
       303  -8.1258    211.6801     26.7095   2.3079780208e+01   2.9181859910e+01    0.1175026   0.09407729  29.56 0.0007009356    1.603    0.376
       304  -8.8746    119.8233     25.8299   3.5179201841e+01   5.1775125893e+01    0.1932801    0.1631083 -64.36 0.0003652422    1.258    0.205
       305  -9.0159     82.8645     26.0709   4.5469338593e+01   6.1076138357e+01    0.2031042    0.1898419 -88.46  0.001130215    1.192    0.161
       306  -8.8586     44.0100    244.0000   9.9869507575e+01   1.9796934309e+01    0.1852168   0.04799312  26.81 0.0008005553    2.929    0.659
       307 -10.3676      1.7918     25.0589   9.4002662509e+01   7.3723733115e+01    0.3728748    0.1814205 -65.08  0.001169032    1.777    0.437
       308 -10.0324      5.0335     21.0231   9.0098277624e+01   7.4530481429e+01    0.2359731    0.2001044 -72.75 0.0006257783    1.244    0.196
       309  -8.9670    244.5530    242.2049   6.1385080208e+01  -1.9980707101e+00    0.1293696   0.06884604 -11.97  0.000414375    1.571    0.363
       310 -10.3393    166.0883     18.3150   2.5190188733e+01   4.0667252487e+01    0.3528197    0.2350006  39.86  0.001123456    1.803    0.445
       311 -10.4290      6.7744    120.8294   1.0322652847e+02   4.9179752482e+01    0.4050521    0.2026176  46.35  0.001955294    1.867    0.464
       312  -9.7485    153.9819     22.8296   2.8175381748e+01   4.3238446480e+01    0.3589993    0.1874694 -30.22  0.001126775    1.889    0.471
       313 -10.4666    152.0279     18.0556   2.6846570591e+01   4.4264599272e+01    0.2591867    0.2457445 -19.57 0.0003017244    1.162    0.139
       314  -9.8426    109.4758     23.5582   3.6590293995e+01   5.4760698837e+01    0.2354608    0.2064134 -25.57 0.0001153238    1.221    0.181
       315 -10.1809    189.2740    240.5473   7.0229975572e+01   3.9198439922e+00    0.2028671   0.08071319  32.25   0.00112748    2.025    0.506
       316  -9.5936    188.8303     22.9454   2.4147644464e+01   3.4678873265e+01    0.2637486    0.1930083 -76.70   0.00103974    1.373    0.271
       317 -10.0806    173.4346     22.2829   2.5570186347e+01   3.8426172448e+01    0.2927612    0.1692785  55.20 0.0005778365    1.792    0.442
       318  -9.5115    145.5067    242.4259   7.8684806082e+01   8.7613410615e+00    0.1155247   0.08326831  19.94 7.405294e-05    1.029    0.028
       319  -9.9950    139.9897     20.5598   2.9465561646e+01   4.7117149366e+01    0.3225239    0.2362249 -26.73   0.00129481    1.440    0.306
       320  -8.9362    144.3988     21.2543   2.9029064720e+01   4.5888890397e+01    0.2776009    0.1631597 -75.38 0.0007006052    2.098    0.523
       321  -9.5955    117.0404     22.3444   3.4375603911e+01   5.2938599073e+01    0.2151892    0.1941973  28.91 0.0003045422    1.188    0.158
       322 -10.3196     86.0179     22.1785   4.2526858399e+01   6.0880583543e+01    0.3275097     0.229807  67.58 0.0005162194    1.520    0.342
       323  -9.6089     80.2012     19.3061   4.3063163679e+01   6.2688842551e+01    0.2574565    0.2414438  59.39 0.0009537968    1.081    0.075
       324 -10.6032     50.5383     22.0634   5.7658154432e+01   6.8688325738e+01    0.2990193    0.2367627 -17.58 0.0007221861    1.319    0.242
       325 -10.0580     26.5602     21.7569   7.2976949133e+01   7.2504949253e+01    0.3205662    0.1863233 -35.95  0.001290048    1.716    0.417
       326  -9.2828     40.9399     21.3657   6.2911418977e+01   7.0508921745e+01    0.2305623    0.1913594 -52.18  0.001299096    1.373    0.272
       327  -8.6444     17.9948     21.9267   7.9664307198e+01   7.3395234743e+01     0.152334    0.1350713 -17.44 0.0003481175    1.035    0.034
       328  -9.0558    163.4429     24.2764   2.7382750429e+01   4.0679259034e+01    0.3725682    0.1324957 -26.20   0.00138239    2.822    0.646
       329  -9.4350    244.3252     20.7726   1.9376146076e+01   2.3302090549e+01     0.200001    0.1244688 -78.04 0.0009562504    1.750    0.429
       330  -9.6475    193.3096     20.2070   2.2970671878e+01   3.3932873738e+01    0.1902002    0.1857278 -10.30 0.0002958299    1.183    0.155
       331  -9.2796    120.9361     20.7462   3.2925628288e+01   5.2107150204e+01    0.3611057    0.1809051 -64.08  0.001265832    3.146    0.682
       332  -9.4721    171.4114    239.1966   7.3320850376e+01   6.1268971521e+00    0.2470676    0.1062995   9.73 0.0009555815    4.403    0.773
       333 -10.8679    182.3435     18.4574   2.3509934002e+01   3.6681088061e+01    0.2543791    0.2341399  54.23 0.0005722824    1.217    0.178
       334  -9.0213    168.2971    237.6895   7.3718265316e+01   6.6794411681e+00    0.1260446    0.1066024  88.58 0.0003473978    2.594    0.615
       335  -9.7576    221.6569    235.8714   6.4085925254e+01   9.0671875256e-01    0.3059645   0.08251008 -33.19  0.001483609    3.779    0.735
       336 -10.6353    188.0572    235.6902   6.9812559536e+01   4.6221601168e+00    0.1628041    0.1081969  18.24 0.0006947868    1.115    0.103
       337  -8.3993    160.6640    235.3055   7.4881790288e+01   7.8924202503e+00    0.1071751   0.07656471  42.23 0.0007040054    1.670    0.401
       338  -8.5405    228.3963    234.2659   6.2781079081e+01   3.7077443796e-01    0.1106228   0.05777306   6.25 0.0006977382    1.722    0.419
       339  -9.3052     31.9014    232.1477   1.0191374891e+02   2.2938911253e+01    0.1727527    0.1103237  46.95 0.0003760694    1.200    0.166
       340  -9.2222    178.5040    231.4881   7.1004736136e+01   6.2457309519e+00    0.2020673   0.08470108  21.89 0.0007639133    2.190    0.543
       341  -9.0242     36.1456     20.1718   6.5360774678e+01   7.1498942007e+01    0.2184249     0.176612 -11.05  0.001069661    1.238    0.192
       342  -8.9883     31.5404     19.4712   6.8156169775e+01   7.2313452266e+01    0.2633753    0.1073339 -39.01  0.001037484    2.584    0.613
       343  -8.8931    199.3238     18.6055   2.2016856107e+01   3.2732525262e+01    0.1665641    0.1138533  65.05 0.0008666008    1.544    0.352
       344  -9.6662     15.7599     17.4881   7.9467165968e+01   7.4568973895e+01     0.269124    0.1689035 -11.65  0.001382217    1.743    0.426
       345  -8.7509    179.2780     13.3406   2.2318841384e+01   3.7935235658e+01    0.2063067     0.127697  72.66 0.0005036822    1.583    0.368
       346  -9.4361    187.9611    230.6837   6.9159989702e+01   5.2288848129e+00    0.1904712   0.07088148  16.86            0    4.385    0.772
       347  -8.9421    224.1354    225.4183   6.2207686616e+01   1.7430809151e+00    0.1567406    0.1066245 -22.16  0.001039994    1.451    0.311
       348  -9.0890    207.6840    226.5511   6.5109236152e+01   3.4395075994e+00    0.1999065   0.08315566  25.67 0.0008684236    2.006    0.502
       349  -8.8808    143.7071     16.4030   2.7426923812e+01   4.6599470037e+01    0.2737927    0.1335283  78.16  0.001119124    2.141    0.533
       350  -8.6876    163.4704    226.5774   7.3224615916e+01   8.7048584229e+00    0.1171107   0.08790937  18.77 0.0005967887    1.041    0.039
       351  -9.6342     44.8100     15.5272   5.7176651610e+01   7.0877693689e+01    0.3904247    0.2043875  40.31  0.001782804    1.834    0.455
       352  -8.6666    235.4403    225.4534   6.0419348534e+01   5.4041905732e-01    0.1060074   0.07199352   2.83 0.0001741966    1.018    0.018
       353  -9.5179    194.9868     15.0872   2.1432797584e+01   3.4070479603e+01    0.1926755    0.1625272 -60.52 0.0003840219    1.051    0.048
       354  -8.2472    132.2982    225.2852   7.9396283882e+01   1.2798655220e+01    0.1162513   0.07913624   4.12  0.000224492    1.550    0.355
       355  -8.3765    125.5083    225.5074   8.0859774281e+01   1.3618927767e+01     0.121494   0.09337221  27.69 0.0008100562    1.051    0.049
       356  -8.5941    109.5959    221.8200   8.3903687240e+01   1.6195471687e+01    0.1354503    0.1156394  80.86 0.0003927603    1.585    0.369
       357  -9.0816     84.3079     15.1420   3.9586521206e+01   6.2234772224e+01    0.2257941    0.1718713  15.54 0.0009584359    1.510    0.338
       358  -9.0156    230.3333     14.6901   1.8839229064e+01   2.6570059750e+01    0.1289175   0.06854495 -54.62 0.0007042822    1.674    0.403
       359  -9.3498     89.1169    221.0869   8.8412109207e+01   1.8821373224e+01    0.1805966    0.1446092   8.07 0.0008841445    1.329    0.248
       360  -9.0987    112.6108     13.9296   3.1799456735e+01   5.5079316211e+01    0.2446519     0.178154  53.22 0.0006476616    1.290    0.225
       361  -9.0681    174.8916    217.8191   6.9820088099e+01   8.4488276104e+00    0.1786837    0.1260331   3.52 0.0004937631    1.249    0.200
       362  -8.6363    117.8502    211.8398   8.0936000636e+01   1.6788272114e+01     0.164048    0.1236145  40.91 0.0004296273    1.258    0.205
       363  -9.1889    184.3325     12.8108   2.1707901808e+01   3.6778226605e+01    0.2141656    0.1640629 -79.59 0.0007283472    1.248    0.199
       364  -8.3054    123.9819    205.9828   7.8831868962e+01   1.6954502763e+01    0.1442717    0.1156681  24.70 -0.005334738    1.008    0.008
       365  -8.4042     12.6711    203.3252   1.0517176289e+02   2.9969794028e+01    0.1297145   0.06001387  51.27 0.0002259427    1.700    0.412
       366  -8.2743    132.9802    199.0090   7.5875774671e+01   1.6891122671e+01    0.1539627    0.1173413  25.63            0    1.080    0.074
       367  -8.4916     81.1801    198.6413   8.8097617926e+01   2.3882987083e+01     0.175592    0.1065017  21.23 0.0004676475    1.584    0.369
       368  -8.6715    109.2586    196.6406   8.1048629216e+01   2.0592552607e+01    0.1758285    0.1061087  22.77 0.0002446384    1.531    0.347
       369  -9.7558      6.1829    195.2049   1.0647162753e+02   3.2098147804e+01    0.1822941    0.1015595 -37.57 0.0009473827    2.834    0.647
       370  -8.2033     80.3235     10.3222   3.8338753994e+01   6.3806254636e+01    0.1524681     0.099806  30.79 0.0007046743    1.680    0.405
       371  -8.7256    248.0000    190.9942   5.3192898052e+01   2.8395139403e+00    0.1624469   0.05015549 -31.81 0.0004997937    2.848    0.649
       372 -10.3957    221.8275     26.4502   2.2203608715e+01   2.7095624226e+01    0.3527933    0.1736227 -44.00  0.000769271    1.698    0.411
       373 -10.0076     18.0644    173.7917   1.0262103238e+02   3.5740286623e+01    0.2249825    0.1734118  -3.15  0.001381552    1.615    0.381
       374 -11.6780     39.3471    160.0044   9.5672897472e+01   3.6974932698e+01    0.7066111    0.3104313  56.59  0.003013159    2.389    0.581
       375 -12.4292     34.6835    158.0006   9.6884216728e+01   3.7899522996e+01      1.31876    0.3264732  49.18  0.004302482    3.984    0.749
       376 -10.0494     24.0518    163.2437   1.0036606605e+02   3.7634060869e+01    0.1987679    0.1714056  83.87 0.0004632233    1.144    0.126
       377  -9.5495     20.6334    157.9813   1.0103392359e+02   3.9139818622e+01    0.2447639    0.1431474 -71.63 0.0006851851    1.729    0.422
       378 -10.3643      9.5476    157.1595   1.0422487401e+02   4.0163692035e+01    0.3844971      0.15002  76.64   0.00164438    2.651    0.623
       379  -9.6875      2.2208    156.5328   1.0631178517e+02   4.0790873366e+01    0.2534761    0.1798922  88.66  0.001008897    1.324    0.245
       380  -9.1800    249.1832    153.7975   4.6575183279e+01   6.9579046582e+00    0.1576485    0.1062657  -5.09 0.0007150693    1.300    0.230
       381  -9.7340     19.5359    152.2420   1.0100695249e+02   4.0581848282e+01    0.3039431    0.1130726 -75.18  0.001286623    2.585    0.613
       382  -9.9688     23.0684    148.8209   9.9701891083e+01   4.1116295759e+01    0.2477485    0.1879422  48.24  0.001458536    1.179    0.151
       383  -9.6341     58.2721    150.9760   8.9043326252e+01   3.7014965412e+01    0.2210668    0.1763485  36.47 0.0003497024    1.150    0.130
       384  -9.6707     14.9762    150.9240   1.0230510672e+02   4.1243057506e+01    0.2317184    0.1582962  44.12 0.0003531298    1.295    0.228
       385 -10.6018     10.5713    147.1617   1.0344160658e+02   4.2453775791e+01    0.2441904    0.1970474  35.02 0.0009349346    1.195    0.163
       386  -9.4400     36.5483    144.0520   9.5072874902e+01   4.1064880725e+01    0.2129253    0.1635155  43.32  0.001201104    1.191    0.160
       387  -9.7958     29.0541    144.0032   9.7455091764e+01   4.1773900436e+01    0.1950021    0.1770221  62.17  0.001214188    1.015    0.015
       388  -8.8749     13.2150    142.0871   1.0234215597e+02   4.3496176702e+01    0.3213339    0.1480884 -23.45  0.001224655    3.809    0.737
       389 -10.4468    239.7471    140.2970   4.5354031210e+01   9.8871310282e+00    0.2470643    0.1336748 -21.58   0.00105927    1.655    0.396
       390 -10.3459      1.8353    140.0862   1.0581888562e+02   4.4700670904e+01    0.3308111    0.1373144  79.44  0.001468142    2.328    0.570
       391 -10.2555     40.2934    136.5469   9.3076708354e+01   4.2541139815e+01    0.4907128    0.2474302  56.71  0.001863158    2.123    0.529
       392  -9.5205     34.8548    136.9690   9.4922886438e+01   4.2974311496e+01    0.2339874    0.1777397  47.26 0.0003533875    1.221    0.181
       393  -8.4680     58.3226    135.3449   8.6963373198e+01   4.0786056052e+01    0.2829086     0.180039  -2.35 0.0007230814    2.252    0.556
       394  -9.3367     61.6446    132.8539   8.5502564559e+01   4.0974880869e+01    0.3174441    0.1702683 -54.85  0.001399159    1.910    0.476
       395  -8.8440     15.6253    135.2243   1.0113331276e+02   4.5010694963e+01    0.1815752    0.1109264 -69.64  0.000940971    1.594    0.373
       396  -8.7096    225.6074    133.7477   4.6118061581e+01   1.2828136625e+01    0.1686574   0.09918318 -38.07 0.0006251626    1.644    0.392
       397  -9.9205      8.1679    133.2559   1.0346672408e+02   4.5993716600e+01    0.3342736    0.2143921 -30.43  0.001755634    1.968    0.492
       398  -9.8130      2.9839    130.3071   1.0502714328e+02   4.7023747181e+01     0.252391    0.1443887  62.98   0.00131258    1.610    0.379
       399 -10.5332     41.5170    129.3929   9.1829336711e+01   4.4205580595e+01    0.2712286    0.2438946  26.73 0.0002747067    1.140    0.123
       400  -9.3444     17.4307    129.2748   1.0010237739e+02   4.6364931787e+01    0.3490563     0.183289 -41.67  0.001590545    2.317    0.568
       401  -9.2788     33.9192    126.7690   9.4160016839e+01   4.5625689696e+01    0.2390519     0.125638  49.73  0.001072649    1.875    0.467
       402  -8.6464     12.6296    126.2318   1.0153087858e+02   4.7461018700e+01    0.1748316    0.1125857 -72.00 0.0002864825    1.481    0.325
       403 -10.1765    241.3707    124.2755   4.1979623057e+01   1.1674569039e+01     0.206101    0.1846292 -12.23 0.0008809592    1.176    0.149
