#   1 NUMBER                 Running object number                                     
#   2 MAG_AUTO               Kron-like elliptical aperture magnitude                    [mag]
#   3 X_IMAGE                Object position along x                                    [pixel]
#   4 Y_IMAGE                Object position along y                                    [pixel]
#   5 X_WORLD                Barycenter position along world x axis                     [deg]
#   6 Y_WORLD                Barycenter position along world y axis                     [deg]
#   7 A_WORLD                Profile RMS along major axis (world units)                 [deg]
#   8 B_WORLD                Profile RMS along minor axis (world units)                 [deg]
#   9 THETA_WORLD            Position angle (CCW/world-x)                               [deg]
#  10 FWHM_WORLD             FWHM assuming a gaussian core                              [deg]
#  11 ELONGATION             A_IMAGE/B_IMAGE                                           
#  12 ELLIPTICITY            1 - B_IMAGE/A_IMAGE                                       
         1 -18.3548    233.2046     49.2212   6.1957170269e+01   2.0477752838e+01     5.718577     5.243834  11.70   0.02536401    1.089    0.082
         2 -11.3045    142.5803     13.1460   6.4417180779e+01   4.8268370280e+01     1.108037    0.3493955 -18.33  0.003127704    3.748    0.733
         3 -10.8378    125.5135     14.2379   6.8457844589e+01   5.2375901607e+01    0.3203805    0.2881615  50.31  0.001172775    1.141    0.124
         4 -12.2420    118.9285      9.9935   6.8181546928e+01   5.4437287707e+01    0.7638281    0.5001225  40.28  0.002996749    1.476    0.322
         5 -10.1844    248.1512      4.0847   4.8130608734e+01   2.1649843608e+01    0.1944874    0.1765421  74.04 0.0003553303    1.152    0.132
         6 -10.0459    173.7604    113.9357   8.9564023501e+01   2.5065880182e+01     0.437767    0.2961183 -87.56  0.001761085    2.837    0.648
         7 -11.8234    215.5601    180.3832   9.5354505301e+01   7.0724503842e+00    0.6050485    0.3126939  53.80  0.002498674    2.208    0.547
         8 -12.1931    203.7205    163.5924   9.4362890445e+01   1.1359284322e+01    0.8799895    0.4887268  33.56  0.002683877    1.713    0.416
         9 -12.9226    221.1050    169.0942   9.2389253754e+01   7.4309861620e+00     1.417236     1.224787  84.94  0.007225897    1.833    0.455
        10 -12.9439    231.4953    155.6373   8.8065477361e+01   7.1406992171e+00     1.607029     1.038539  12.76  0.008694841    1.665    0.399
        11 -11.9612    247.0347    156.0203   8.5638038574e+01   4.2424499984e+00    0.8947756    0.7214557  -3.30  0.004233119    1.151    0.131
        12 -11.3992    196.9384    173.8024   9.7414746624e+01   1.1258814637e+01    0.4487234    0.2488834  60.15  0.002090893    2.516    0.603
        13 -12.8810     28.0013    165.7490   1.2915393090e+02   3.8110353407e+01    0.6723996    0.5204636  77.20  0.004167579    1.056    0.053
        14 -10.7335    188.7931    169.0172   9.8028975629e+01   1.3414883350e+01    0.3864138    0.2876555 -42.53  0.001681757    1.594    0.373
        15 -11.5003      3.5250    163.4669   1.3364853936e+02   4.0652144275e+01    0.2814842    0.1797157 -82.94  0.002194603    1.306    0.234
        16  -8.4614    105.6199    159.4881   1.1278249775e+02   2.9607308604e+01      0.11988    0.1059956  72.79 0.0001087515    1.036    0.034
        17 -11.7425     12.2421    155.8276   1.3156271496e+02   4.1378535122e+01    0.6387959    0.1578689  46.22  0.003283779    3.060    0.673
        18 -11.2628     53.2661    152.9670   1.2297398858e+02   3.7927821869e+01    0.2991749    0.2586749  69.26 0.0008050762    1.155    0.134
        19 -13.1912     64.6961    146.4963   1.1980703424e+02   3.7851785775e+01     1.074092    0.9290214   4.32  0.004134016    1.772    0.436
        20 -10.1359    218.2847    149.7957   8.9117733100e+01   1.0394558938e+01      0.23237    0.1961451  41.11 0.0003554769    1.179    0.152
        21  -8.1767    104.2618    144.3024   1.1079866400e+02   3.2699781426e+01    0.1123706   0.09999257 -21.92  0.000243369    1.517    0.341
        22  -9.6687    230.4940    139.2016   8.4838463273e+01   9.3723404215e+00    0.3498032    0.2043929  17.57  0.001635724    2.070    0.517
        23  -9.9925    218.3375    131.5558   8.5236010187e+01   1.2829014258e+01    0.6373674    0.4295921 -74.18   0.00257971    3.531    0.717
        24  -9.2433    237.4078    131.9619   8.2136084448e+01   8.9209443271e+00    0.1983453    0.1625573  30.36 0.0003446073    1.120    0.107
        25  -8.7854    160.8212    128.7173   9.5599712715e+01   2.5254620139e+01    0.2626443    0.1848224 -71.72  0.001237044    2.083    0.520
        26 -11.8534    244.6030    239.2182   9.9888130770e+01  -3.3019275642e+00    0.1952805    0.1406257  32.50 0.0005283441    1.157    0.136
        27  -8.9435    221.8122    115.1927   8.0890745718e+01   1.4352477297e+01    0.1983327    0.1957617 -71.75 0.0006556671    1.245    0.197
        28 -11.2461    133.2959    101.5791   9.5489678021e+01   3.5892795326e+01    0.8578614    0.3398383 -56.46  0.002679403    3.988    0.749
        29  -9.9403    135.0000    113.4742   9.7897133289e+01   3.3254736802e+01    0.4211073    0.1744496 -48.74  0.001634498    2.519    0.603
        30  -9.7539    186.4555    120.6012   8.8603358646e+01   2.1209826806e+01     0.309798    0.2299247 -70.43  0.001287959    2.015    0.504
        31 -11.1030    125.2131    109.1982   9.9223394866e+01   3.5985822316e+01    0.4243604     0.335067  68.78  0.001905368    1.401    0.286
        32 -10.5557    123.5161    103.4780   9.8303482110e+01   3.7444293101e+01    0.2819057    0.2415806 -67.24  0.001292786    1.214    0.176
        33 -11.0928    120.9757     99.9785   9.8089255832e+01   3.8627872488e+01    0.4396679    0.2255947 -50.43   0.00111526    1.962    0.490
        34 -12.3165    166.7286     93.9867   8.5991861063e+01   3.0061523810e+01    0.8792567    0.7085727 -32.69  0.004096655    1.260    0.206
        35 -10.0476    172.8048     89.6355   8.3549046600e+01   2.9402282842e+01    0.2702036      0.25651  39.80 0.0003549627    1.044    0.042
        36 -10.9066    153.5350     99.5874   9.0325351077e+01   3.2012479649e+01    0.4283229    0.3472872  48.68  0.002242699    1.213    0.175
        37 -11.4297    198.5905     98.8469   8.0962093495e+01   2.1918713382e+01    0.7132047    0.4663271 -45.36  0.003136542    1.708    0.415
        38 -11.0051    137.6755     95.4730   9.2908926952e+01   3.6168725149e+01    0.4895863    0.3273448 -36.05  0.002274033    1.564    0.361
        39 -10.7481    150.4760     91.2921   8.8833115750e+01   3.4197275932e+01    0.3202031    0.2595296 -43.67 0.0004015382    1.252    0.201
        40  -9.5352    144.9694    104.0605   9.3381435807e+01   3.3017385838e+01    0.2180797    0.2104417  44.54  0.000578749    1.018    0.018
        41  -9.5270    139.9889     85.9889   8.9820940849e+01   3.7471136039e+01    0.2256827    0.1799582 -79.23 0.0003453789    1.603    0.376
        42  -9.9062    119.6622     69.1146   9.0003544506e+01   4.4951172500e+01    0.2296158    0.2013609  63.91  0.000338706    1.255    0.203
        43 -11.1135    205.6134    102.2312   8.0546956366e+01   1.9799468978e+01    0.8805783    0.5579476 -85.23   0.00305419    3.949    0.747
        44  -9.4848    221.2922    120.1619   8.2144269178e+01   1.3777756211e+01    0.2716376    0.2200605 -26.69   0.00082449    1.256    0.204
        45 -11.0795    121.3918     46.2387   8.1949784558e+01   4.8697120374e+01    0.5824229    0.1727833 -33.32  0.001797237    3.467    0.712
        46 -11.5925    122.6243     37.4355   7.8393709271e+01   4.9848854546e+01    0.4370707     0.272268 -31.81  0.001983371    1.547    0.354
        47 -11.5555    213.9261    115.0668   8.2219389930e+01   1.6073558560e+01    0.9259297    0.5220975 -48.84  0.003303989    2.358    0.576
        48 -11.0453    206.3861    110.1257   8.2367366791e+01   1.8450486048e+01    0.5022673      0.42026  28.17  0.001946883    1.136    0.120
        49  -8.9240    136.0733    126.5530   1.0048159863e+02   3.0552309292e+01    0.3696716    0.1809612 -64.65  0.001298478    3.680    0.728
        50 -10.6157    126.5155     31.2177   7.5043659966e+01   4.9892177245e+01    0.2619964    0.2104146  50.98 0.0007049589    1.271    0.213
        51  -9.9213    112.5006     29.9765   7.8163134951e+01   5.3240046187e+01      0.22189    0.1356505 -28.95 0.0005721297    1.570    0.363
        52 -11.4852    127.6479     22.4328   7.1312036375e+01   5.0839740550e+01     0.450307    0.3507051 -64.36  0.002172333    1.664    0.399
        53 -10.7066    160.2540    117.3114   9.3175925605e+01   2.7379170115e+01    0.3042319    0.2628152 -85.01 0.0006471294    1.389    0.280
        54  -9.8732    179.0656     23.5553   6.1824454610e+01   3.7516821710e+01    0.4926628    0.4174051  49.41  0.002577499    1.149    0.130
        55 -11.0443    168.2398    114.2985   9.0788734903e+01   2.6202063233e+01    0.4174554     0.370854  62.96 0.0009292112    1.192    0.161
        56  -9.0735      9.9465    235.2897   1.3549084876e+02   2.8282049176e+01    0.1215405    0.0787107  60.00 0.0002928138    1.117    0.105
        57  -9.7028    162.7443     18.2164   6.2639141004e+01   4.2460093792e+01    0.3604412    0.2315361  30.90  0.001231514    1.705    0.414
        58  -8.7847    154.9725     14.7055   6.2706983626e+01   4.4893385686e+01    0.2062112     0.183781  53.68 0.0003967051    1.097    0.088
        59  -9.8638    157.1875    217.2211   1.1073934723e+02   1.2324649102e+01    0.1852275    0.1416016  50.41 0.0002399218    1.096    0.088
        60  -9.1707    190.6562    190.9331   1.0136190058e+02   1.0151168628e+01    0.2933587    0.1887877 -73.74  0.001277654    4.299    0.767
        61 -11.0380    213.4014    187.1117   9.6867612864e+01   6.6581391870e+00    0.4269522    0.1773646  40.48  0.002079965    1.979    0.495
