#   1 NUMBER                 Running object number                                     
#   2 MAG_AUTO               Kron-like elliptical aperture magnitude                    [mag]
#   3 X_IMAGE                Object position along x                                    [pixel]
#   4 Y_IMAGE                Object position along y                                    [pixel]
#   5 X_WORLD                Barycenter position along world x axis                     [deg]
#   6 Y_WORLD                Barycenter position along world y axis                     [deg]
#   7 A_WORLD                Profile RMS along major axis (world units)                 [deg]
#   8 B_WORLD                Profile RMS along minor axis (world units)                 [deg]
#   9 THETA_WORLD            Position angle (CCW/world-x)                               [deg]
#  10 FWHM_WORLD             FWHM assuming a gaussian core                              [deg]
#  11 ELONGATION             A_IMAGE/B_IMAGE                                           
#  12 ELLIPTICITY            1 - B_IMAGE/A_IMAGE                                       
         1 -10.7695     37.3258     10.0140   2.9148344785e+02   7.4164530018e+00   0.05141399   0.02963066 -77.23  0.002637415    2.197    0.545
         2 -11.2172     24.2272     32.0147   2.9176981697e+02   7.2439527709e+00    0.1068954   0.03021872 -46.55  0.003851079    3.867    0.741
         3 -10.3654     10.3934     18.6886   2.9184619630e+02   7.4787633229e+00   0.07380368   0.03437743 -23.32  0.004147312    6.240    0.840
         4 -10.8141     19.4343      7.0061   2.9167017997e+02   7.5579042618e+00   0.06955013   0.03655009  58.22   0.00574379    2.775    0.640
         5  -9.4946      2.1651     14.2488   2.9191320250e+02   7.5786090919e+00   0.02803111   0.01353178 -74.34  0.001729594    2.793    0.642
         6 -10.3883      5.1914      4.6613   2.9181918383e+02   7.6698533292e+00   0.02813726   0.02463239  30.15  0.001438801    1.146    0.127
         7 -10.2866      4.6299     41.7545   2.9205485193e+02   7.2500585100e+00   0.03881054    0.0217119 -68.99  0.003076537    1.961    0.490
         8 -10.1917      7.1777     28.4139   2.9194320910e+02   7.3870503355e+00   0.02358747   0.01540975  50.30  0.001129445    1.689    0.408
         9  -8.1766     72.0492      8.4465   2.9107537188e+02   7.2260334787e+00   0.01116075  0.008387187 -50.66 0.0002843656    1.309    0.236
        10  -8.4257     68.0037      9.0060   2.9112523942e+02   7.2439437754e+00   0.02521237   0.01476296  87.24  0.001747565    2.780    0.640
        11  -9.4612     63.2842     21.7437   2.9125823629e+02   7.1270129281e+00   0.02287967   0.01510698 -81.41  0.001038313    1.859    0.462
        12  -9.9650     64.2664     13.3773   2.9119517683e+02   7.2165334362e+00   0.02519292   0.01678287 -52.93  0.002296094    1.463    0.317
        13  -9.6569     79.3478     24.1336   2.9108881926e+02   7.0033095259e+00    0.0280718    0.0170848 -12.18  0.002237294    2.481    0.597
        14 -10.1767     46.0912     29.5921   2.9150400535e+02   7.1406092349e+00    0.0250809   0.01526208 -82.65 0.0009479956    2.189    0.543
        15  -8.7922     46.5155     20.4780   2.9144275563e+02   7.2420323704e+00   0.02190197   0.01011557 -47.12  0.001899617    2.194    0.544
        16 -10.2522     52.0863     13.6342   2.9133649104e+02   7.2866804424e+00   0.04439588   0.02528526 -21.24  0.003734437    2.743    0.635
        17  -8.7046     95.7743     16.7103   2.9085451265e+02   6.9892516485e+00   0.01557308   0.01136689 -67.05 0.0008843223    1.410    0.291
        18  -8.1467     97.4950     11.9744   2.9080544312e+02   7.0329032079e+00   0.01399276  0.009351258 -26.33  0.001394154    1.833    0.454
        19  -9.4949    119.0495     20.3653   2.9061040087e+02   6.8075532426e+00   0.02947205   0.01107707 -51.95  0.001349431    2.504    0.601
        20  -8.9081    125.2258     13.1983   2.9049520619e+02   6.8520781313e+00   0.01281836   0.01221027  -4.89 0.0009529711    1.070    0.065
        21  -8.9209    110.3988      6.7884   2.9062538353e+02   7.0144028790e+00   0.02665002   0.00910045 -54.91  0.002067541    2.676    0.626
        22  -8.9834    115.1880      4.3570   2.9055541677e+02   7.0132942841e+00   0.01410042   0.01143017  76.67 0.0006586872    1.424    0.298
        23  -8.8841    112.2080     15.5227   2.9065878799e+02   6.9039424165e+00   0.01699339  0.009803065 -64.72  0.001370409    1.782    0.439
        24  -9.1181    113.7856     10.2219   2.9060785053e+02   6.9548809546e+00   0.01642903   0.01132453 -14.25 0.0002158157    1.865    0.464
        25  -8.5143    104.2364     15.3498   2.9074908141e+02   6.9538748247e+00   0.02198053  0.008257426 -41.23  0.001550802    3.452    0.710
        26  -9.8442     73.6360     17.1089   2.9111082023e+02   7.1177280655e+00   0.04758048   0.01216928 -57.76  0.003266746    3.443    0.710
        27  -8.1569     76.7169      6.2956   2.9100851231e+02   7.2225241723e+00   0.01165194  0.008064234 -76.93  0.000496623    1.646    0.393
        28  -8.5041     78.5105      3.0318   2.9096772078e+02   7.2489586528e+00   0.01546876   0.01115632 -63.95 0.0006535678    1.398    0.285
        29  -9.1734    132.2917     17.2957   2.9043965739e+02   6.7628127464e+00   0.01555631   0.01359525  31.72  0.001679717    1.147    0.128
        30  -9.5067     85.1151     13.0173   2.9095384405e+02   7.0954302642e+00   0.02194668   0.01388724  82.42   0.00152581    2.333    0.571
        31  -8.0548     80.5159     12.2681   2.9100194188e+02   7.1316057380e+00   0.01377106  0.008275116 -80.74  0.001262287    2.177    0.541
        32  -8.1708    140.5968     11.6903   2.9030976525e+02   6.7766723289e+00   0.01922369  0.009278214  56.67  0.001460315    3.203    0.688
        33  -8.6513    126.9523      8.7931   2.9044811012e+02   6.8918971035e+00   0.01018665  0.008958453 -21.89 0.0005110524    1.202    0.168
        34  -9.9574    125.5422      5.0077   2.9044079274e+02   6.9435357626e+00   0.03285246   0.01564694  16.33  0.002663418    2.740    0.635
        35  -8.3490    101.9196      8.0023   2.9073010318e+02   7.0515787039e+00   0.01338502  0.009279354 -76.75 0.0007339512    1.639    0.390
        36  -8.8796    104.1905      2.4479   2.9066963956e+02   7.1012334699e+00    0.0217022    0.0145001  -4.95   0.00195255    1.980    0.495
        37  -8.1206     97.5132      5.9988   2.9076820199e+02   7.1009186682e+00   0.01275499  0.008544459 -45.20  0.001074852    1.511    0.338
        38  -8.3193     95.5569      3.4311   2.9077471655e+02   7.1419537374e+00   0.01152079   0.01044752  44.10 0.0006137463    1.122    0.108
        39  -9.6199    132.6149      5.1573   2.9036068401e+02   6.8992279708e+00   0.02394165   0.01415845 -20.02  0.002086587    2.537    0.606
        40  -7.4208    142.9473      5.0022   2.9024135787e+02   6.8387317767e+00  0.007851549  0.007425975 -57.77 0.0004243824    1.050    0.048
        41  -8.3759     89.1401      2.7724   2.9084421199e+02   7.1880396890e+00   0.01740374  0.009736642 -68.69  0.001499684    1.956    0.489
        42  -9.6067     63.7338      2.9563   2.9113675106e+02   7.3385503463e+00   0.01988644   0.01378616  74.30  0.001633498    1.894    0.472
        43  -7.7475     85.4713      2.4684   2.9088440017e+02   7.2135561124e+00  0.006496735  0.006388864 -31.81 2.545044e-05    1.009    0.009
        44  -7.6630      1.3101    116.1545   2.9255168755e+02   6.4202671845e+00  0.009451427  0.006084375 -73.77 0.0007011097    1.750    0.429
        45 -11.1694    179.6160    247.5927   2.9132163292e+02   3.8488491792e+00   0.03369577   0.02260108  22.81  0.003533298    1.548    0.354
        46 -10.2216    207.5887    249.8767   2.9101647354e+02   3.6545292414e+00   0.02962922    0.0102572  22.53  0.002062229    3.552    0.718
        47 -10.2794    169.8562    248.6787   2.9143973478e+02   3.8951219669e+00   0.02448084   0.01192724  52.45   0.00200354    2.689    0.628
        48  -7.3591    167.2107    113.9748   2.9063866475e+02   5.4494190929e+00  0.008774988  0.005271893 -62.08 0.0004387157    1.662    0.398
        49  -8.9605     54.7336    110.7250   2.9190609120e+02   6.1625365302e+00   0.01732928    0.0151275  68.45  0.001544818    1.246    0.198
        50  -8.1369     63.3967     82.2208   2.9163088740e+02   6.4361408640e+00  0.009355424  0.007752365  63.95 0.0005780513    1.336    0.251
        51 -10.5469     62.8746     95.7600   2.9172047351e+02   6.2846573617e+00   0.04481288   0.02543738  79.56   0.00278642    3.225    0.690
        52  -8.9983     64.8561     85.6861   2.9163556658e+02   6.3878171813e+00   0.02988904   0.01657151 -12.55  0.002314914    3.299    0.697
        53 -10.1836     65.6015    110.4273   2.9177976073e+02   6.1007733409e+00   0.04336355   0.02243819 -76.90  0.002175019    2.649    0.623
        54  -9.4505     59.2828    109.6043   2.9184706360e+02   6.1480655333e+00   0.03065697    0.0189581 -85.44  0.001844076    2.203    0.546
        55  -9.6312     14.3910    111.6916   2.9237429459e+02   6.3930535070e+00   0.02338566    0.0137535  61.92  0.001860281    2.364    0.577
        56  -8.2936    158.8458    111.9630   2.9072189152e+02   5.5227704127e+00  0.009786122  0.009437654  85.32 0.0004062164    1.069    0.064
        57  -8.8859     34.8092    111.5227   2.9213928337e+02   6.2727936863e+00   0.01467022   0.01125282 -13.50  0.001603589    1.528    0.345
        58  -9.3388     32.3185    107.8123   2.9214494820e+02   6.3300949115e+00   0.01530093  0.009241027  31.27  0.001529973    1.636    0.389
        59 -10.8458     44.6939    102.5391   2.9197062301e+02   6.3162127339e+00   0.04110647   0.02156088  65.60  0.003081787    3.492    0.714
        60  -8.7087     39.9949    107.0973   2.9205257903e+02   6.2922924165e+00   0.01004105  0.008653541  66.00 0.0005136138    1.265    0.209
        61 -10.9429     20.5146    100.5198   2.9223526667e+02   6.4840502442e+00   0.05907151   0.03839343  80.52  0.004043695    2.188    0.543
        62 -10.0877     19.8293     85.5765   2.9215097768e+02   6.6588347786e+00   0.03802938    0.0134226 -51.70  0.002975896    2.654    0.623
        63 -10.4845     25.4280     78.2770   2.9204175690e+02   6.7086915081e+00   0.03155245   0.02447388  75.30  0.002008836    1.534    0.348
        64 -10.6061     32.5288     63.9366   2.9187181462e+02   6.8299141846e+00   0.05997632   0.02901539 -26.75  0.003680479    3.986    0.749
        65 -10.0980     34.5452     90.9410   2.9201537930e+02   6.5094766323e+00   0.02868743   0.01590899 -85.03    0.0015718    2.812    0.644
        66 -10.1714     37.3515     80.7478   2.9192031066e+02   6.6090806209e+00   0.05695127   0.02872161  -7.94  0.003483476    5.383    0.814
        67 -10.0203    139.3980    103.1222   2.9088971468e+02   5.7407909074e+00   0.03385491   0.01571262 -63.79  0.001428734    2.219    0.549
        68  -8.0657     78.1062    105.3075   2.9160493053e+02   6.0842282765e+00   0.01569963  0.008647336 -24.02  0.001274555    2.860    0.650
        69  -7.9049     23.2561     69.0061   2.9200944348e+02   6.8275516462e+00   0.01070918  0.008643357  51.97 0.0003220539    1.315    0.240
        70  -8.4939    165.9775    104.1473   2.9059197747e+02   5.5690319501e+00   0.01315536  0.009471581 -71.54 0.0005442059    1.483    0.326
        71 -10.0820    149.4723    101.9243   2.9076703440e+02   5.6938198773e+00   0.03768861   0.01492196 -60.09  0.001621051    2.444    0.591
        72  -8.6863     92.7517    103.6434   2.9142692396e+02   6.0153027579e+00   0.02566674   0.01426578  -3.67  0.002026679    3.147    0.682
        73  -9.6305      6.2656    103.8359   2.9241902268e+02   6.5313884660e+00   0.02004473   0.01398763  68.55  0.001477026    1.815    0.449
        74  -8.0002    190.5190    103.8518   2.9030952882e+02   5.4244806629e+00  0.009693108  0.006456032 -62.14 0.0005212272    1.499    0.333
        75  -9.5046     81.5696    100.5251   2.9153573119e+02   6.1180596083e+00   0.02020007   0.01294018  89.06  0.001096489    2.173    0.540
        76  -7.6928     82.5080     93.9780   2.9148454672e+02   6.1871940032e+00   0.01647366  0.007945902 -27.72  0.001144506    3.859    0.741
        77  -8.2795     73.7060    102.1891   2.9163607862e+02   6.1462511499e+00   0.01767502  0.006703118 -55.01  0.001200755    2.443    0.591
        78  -8.4159    158.9456    101.3574   2.9065515071e+02   5.6432398607e+00    0.0116691  0.009105833  89.79 0.0005844311    1.492    0.330
        79  -9.2161    247.4800     97.4943   2.8961941947e+02   5.1532027434e+00    0.0121851   0.00894257  39.17 0.0005619082    1.368    0.269
        80 -10.1570    122.9885     92.2388   2.9101023355e+02   5.9637802908e+00   0.03109277   0.01908632 -50.77  0.002278183    1.593    0.372
        81  -9.3250     94.2400     97.2668   2.9137048914e+02   6.0791829262e+00   0.01470826   0.01234315  89.40 0.0005819222    1.325    0.245
        82  -8.7489     95.6436     91.1215   2.9131644243e+02   6.1409236127e+00   0.02091756   0.01120235 -32.39  0.001783664    2.503    0.600
        83  -8.1629    239.2816     96.9623   2.8970972969e+02   5.2087928727e+00  0.009192239  0.008441776 -60.10 0.0003293254    1.082    0.076
        84 -10.1473      4.4327     89.8619   2.9235392010e+02   6.7019718935e+00   0.03572927   0.02007902 -89.56  0.002191314    2.974    0.664
        85  -9.5615      5.5815     78.9783   2.9227364685e+02   6.8194070343e+00   0.03145155   0.01637108 -24.90  0.002403239    3.293    0.696
        86  -8.7130    164.4888     94.1313   2.9054702949e+02   5.6923244213e+00   0.01933471   0.01061116 -58.06  0.001771962    1.766    0.434
        87  -9.5093    138.7988     91.5439   2.9082496428e+02   5.8765771059e+00   0.02937727    0.0139785 -59.44  0.001787799    2.039    0.509
        88  -9.1063    140.5012     82.0550   2.9074677217e+02   5.9746380647e+00   0.02775274   0.01192362 -57.69  0.001257348    2.210    0.548
        89  -8.9946    139.9372     74.8380   2.9070856449e+02   6.0604002649e+00   0.02303743    0.0115817 -59.25  0.001307376    1.932    0.482
        90  -8.6092    150.3624     89.6782   2.9068109062e+02   5.8282481503e+00   0.01906358   0.00988138 -50.12  0.001444533    1.885    0.469
        91  -8.5382    157.5787     90.4886   2.9060353674e+02   5.7755325285e+00   0.01839568  0.007589696 -51.14  0.001531616    2.320    0.569
        92  -9.3669    110.9640     89.7809   2.9113270846e+02   6.0641543019e+00   0.02807009   0.01729857  -2.02  0.002556468    2.325    0.570
        93 -10.2373     47.8029     84.5686   2.9182409808e+02   6.5028276900e+00   0.03094047   0.02004484 -74.58  0.001923808    1.756    0.431
        94  -9.6076     48.5999     77.3110   2.9177015334e+02   6.5809267028e+00    0.0304802   0.01324715 -43.28  0.002481782    2.565    0.610
        95  -7.4275    234.6797     89.6396   2.8971691069e+02   5.3201051938e+00  0.007183998  0.004836285 -28.88 0.0007043111    1.769    0.435
        96 -10.1359     85.3099     86.5570   2.9140660257e+02   6.2551110579e+00   0.02349901    0.0149974  63.38  0.001023146    2.055    0.513
        97  -9.4282     87.3342     78.6636   2.9133463012e+02   6.3330765347e+00   0.02700388   0.01683272  -4.61  0.001875659    2.302    0.566
        98  -7.9955    163.4576     87.4874   2.9051770526e+02   5.7743648563e+00   0.01281636  0.006432294 -61.77 0.0006052934    1.985    0.496
        99  -8.6384    126.6432     83.4106   2.9091379458e+02   6.0425735043e+00    0.0220143   0.01274003 -12.17  0.001818334    2.869    0.651
       100 -10.2226    103.8414     82.5303   2.9116944780e+02   6.1897494389e+00   0.02309942   0.01424799 -73.35 0.0008675854    1.851    0.460
       101  -9.4252    105.1519     71.2194   2.9108448946e+02   6.3109889414e+00   0.03476998   0.01328753 -50.06  0.002726862    2.527    0.604
       102  -8.4968    156.8098     70.4806   2.9048847752e+02   6.0084921952e+00   0.01462594  0.009022296 -80.21 0.0009480859    2.058    0.514
       103  -8.3640    157.6236     83.3975   2.9055913512e+02   5.8561919539e+00    0.0171897  0.008474582 -62.91  0.001190635    2.053    0.513
       104  -8.5354    157.5519     76.9232   2.9051987644e+02   5.9305061566e+00   0.01962412  0.009661213 -79.37  0.001481141    3.255    0.693
       105  -8.1114    170.1517     82.6059   2.9041090901e+02   5.7897265123e+00   0.01280255  0.009178606 -61.64 0.0009894979    1.388    0.280
       106  -8.1286    238.9885     81.6839   2.8961839670e+02   5.3848035872e+00    0.0106706  0.005437938  -0.36  0.000704503    4.240    0.764
       107  -8.9361    149.9913     79.8255   2.9062436175e+02   5.9429338327e+00    0.0236909  0.009045172 -59.58   0.00139982    2.511    0.602
       108  -8.9665    118.9044     80.5634   2.9098478743e+02   6.1216308367e+00   0.01398546   0.00990818 -70.46 0.0007792832    1.498    0.332
       109  -8.2886    119.8792     76.1659   2.9094642231e+02   6.1659618977e+00   0.01313496  0.009252075 -49.17 0.0004928666    1.402    0.287
       110  -9.0035     74.1311     80.3993   2.9149663008e+02   6.3925301076e+00   0.01459534   0.01108469 -87.35 0.0006327428    1.541    0.351
       111  -8.5399    166.4707     78.6192   2.9042833349e+02   5.8574052108e+00   0.01294344  0.006471802 -62.24 0.0006072888    2.005    0.501
       112  -7.7847     68.8347     79.0385   2.9154891258e+02   6.4398523546e+00   0.01182985  0.006703157 -38.05   0.00108705    2.021    0.505
       113  -8.1752    184.0010     78.0409   2.9022423728e+02   5.7583065218e+00   0.01005618  0.009545133 -27.89 0.0006279624    1.064    0.060
       114  -7.8227    214.0264     76.9456   2.8987419957e+02   5.5896072433e+00   0.01032214   0.00746828 -28.23 0.0003171451    1.585    0.369
       115  -8.4213    130.4846     64.0945   2.9075028122e+02   6.2399092037e+00   0.01600951  0.009102515 -63.35  0.001038523    1.780    0.438
       116  -9.4906    127.2579     75.2479   2.9085625489e+02   6.1320446903e+00   0.01750247   0.01239192  73.42 0.0008025087    1.809    0.447
       117  -8.9011    128.9373     69.2712   2.9080004106e+02   6.1901484967e+00   0.02844963   0.01478024 -19.89  0.002021993    3.881    0.742
       118 -10.0817     73.4975     57.1897   2.9136042791e+02   6.6612850885e+00    0.0567796   0.01434253 -54.07  0.003575972    3.413    0.707
       119  -8.8473     80.0265     46.6999   2.9122070748e+02   6.7417931136e+00   0.01949696   0.01102817 -42.78  0.000613681    1.875    0.467
       120 -10.5181     55.1616     70.9863   2.9165587530e+02   6.6138026069e+00   0.03673151   0.01725505  49.09  0.001283165    2.574    0.612
       121  -9.3064     55.0258     63.2560   2.9160967006e+02   6.7028669041e+00   0.03071811   0.01837936  27.15  0.002985235    1.688    0.407
       122  -9.9545     61.7826     60.7514   2.9151673336e+02   6.6909327299e+00   0.02267453   0.01489053  15.63  0.001351223    1.702    0.412
       123  -9.9115     81.5834     72.5823   2.9136292800e+02   6.4370376273e+00   0.02038533    0.0142482  76.56  0.000925307    1.870    0.465
       124  -7.8914     75.1516     74.8216   2.9145046964e+02   6.4500875614e+00   0.01562125  0.008182842  -6.19  0.001067938    4.154    0.759
       125  -9.0798    115.3708     71.8951   2.9097162877e+02   6.2418276639e+00   0.02453046   0.01092546 -56.39  0.001068793    2.125    0.529
       126 -10.6577     15.9481     66.3737   2.9207700430e+02   6.9013378819e+00   0.07795713   0.01720739 -55.28  0.005052463    3.743    0.733
       127 -11.1999    190.5418    247.8245   2.9119835424e+02   3.7805010355e+00   0.03882764   0.02278315  39.21   0.00384148    1.702    0.413
       128 -10.1536    157.9395    247.9297   2.9157117973e+02   3.9752970747e+00   0.02234114   0.01072217 -56.29  0.002012747    1.985    0.496
       129  -7.6989    152.7846    115.5897   2.9081364726e+02   5.5178628612e+00  0.009308274  0.005887589  39.84 0.0004003283    1.588    0.370
       130  -9.1750     70.2550    244.3692   2.9255099319e+02   4.5421684151e+00    0.0119985   0.01059839 -37.62 0.0003782677    1.148    0.129
       131 -10.8276     21.8347     53.4855   2.9192992002e+02   7.0132448025e+00   0.04555086   0.02428664  84.81  0.002809266    4.060    0.754
       132  -8.3133    179.5284    239.4994   2.9127277932e+02   3.9418028106e+00  0.006529859   0.00638359 -33.63 0.0001367824    1.017    0.017
       133  -9.3690    187.9314    233.6653   2.9114090259e+02   3.9578894298e+00    0.0128058  0.009899176 -77.85 0.0008880232    1.417    0.294
       134  -9.7737     14.7320     44.6262   2.9195668186e+02   7.1568649584e+00   0.02329065   0.01721557 -28.12  0.001026951    1.529    0.346
       135  -8.0589      5.0441    234.2745   2.9323451740e+02   5.0477357796e+00   0.00889284  0.008327968  36.54 0.0001804418    1.076    0.071
       136  -9.8540      6.7949     32.6595   2.9197383250e+02   7.3408989738e+00    0.0195707   0.01342993  16.79 0.0007561704    1.585    0.369
       137  -7.3367    142.0000    225.0289   2.9161223668e+02   4.3326821959e+00   0.01105309  0.003717773 -61.69 0.0008038297    2.952    0.661
       138  -8.2618    169.5482     71.2536   2.9034751211e+02   5.9228945426e+00   0.01508348   0.00848093 -71.09  0.000873304    2.028    0.507
       139  -9.1629    146.9449     69.2857   2.9059398042e+02   6.0815585285e+00    0.0162975    0.0116954  80.50 0.0009358471    1.779    0.438
       140  -9.6517     94.6899     68.5592   2.9118788449e+02   6.4042337681e+00   0.01912435   0.01229957 -78.67 0.0007583706    1.875    0.467
       141  -9.4092     97.1029     58.5274   2.9109818511e+02   6.5042288272e+00   0.04221104    0.0205294 -42.11  0.003657026    2.288    0.563
       142  -9.2090     83.2840     64.6367   2.9129431604e+02   6.5175256448e+00   0.02502387   0.01412903 -24.34  0.002116233    2.663    0.625
       143  -8.7998    139.8412     40.4258   2.9049655418e+02   6.4535855464e+00   0.02265158   0.01113509 -71.33  0.001519229    2.473    0.596
       144  -9.7164    141.5085     48.5624   2.9052787306e+02   6.3507342505e+00   0.03492694   0.01291267 -46.85  0.001774413    2.807    0.644
       145  -9.2830    138.1605     65.3583   2.9067022133e+02   6.1792757309e+00   0.02774724   0.01315348 -60.30  0.001707045    2.064    0.516
       146  -9.1809    138.7986     56.9189   2.9061065973e+02   6.2717259752e+00   0.01960237    0.0131059 -81.60  0.001017559    1.825    0.452
       147  -9.1220    121.2221     66.0816   2.9086864662e+02   6.2729762374e+00   0.01598264   0.01154724  88.59 0.0007439961    1.717    0.417
       148  -8.3132    122.0389     61.0569   2.9082819337e+02   6.3254021657e+00   0.01409343   0.01040368 -15.44  0.001054463    1.632    0.387
       149  -8.7085     68.7588     60.7962   2.9143704250e+02   6.6485634130e+00   0.01537584   0.01193002  58.74 0.0008731255    1.438    0.305
       150  -9.4326    109.8328     64.1599   2.9098719933e+02   6.3634170031e+00   0.01835264     0.013101 -83.47 0.0009989092    1.665    0.400
       151  -8.6242    110.8790     58.1740   2.9093817252e+02   6.4254353989e+00   0.01605134   0.01121033  -8.20  0.001002898    1.824    0.452
       152  -8.6449    157.4316     63.0001   2.9043503373e+02   6.0900917684e+00   0.01349732   0.00970257  88.11 0.0008642823    1.737    0.424
       153  -8.4158      9.9330     60.2877   2.9210843158e+02   7.0068011661e+00   0.01601502  0.009917347  62.18  0.001495663    2.144    0.534
       154  -7.3879    164.4818     60.4772   2.9033872631e+02   6.0763783294e+00  0.006513797  0.006394408  68.74 0.0001653847    1.041    0.039
       155  -7.7540    152.5121     60.1184   2.9047348836e+02   6.1526141046e+00  0.009903842  0.006485191 -63.25  0.001012995    1.537    0.350
       156  -8.3808    149.7725     47.9369   2.9042938552e+02   6.3080808607e+00   0.01255889  0.009521335 -71.89 0.0007512571    1.396    0.284
       157  -9.0029    146.5937     58.9271   2.9053385564e+02   6.2018635059e+00   0.01490593   0.01095598 -89.30 0.0009184452    1.648    0.393
       158  -8.4766    147.6984     53.4859   2.9048750695e+02   6.2572814412e+00   0.01746778  0.008122698 -56.21  0.001546315    2.044    0.511
       159  -8.7980     87.9037     58.5308   2.9120361547e+02   6.5594670742e+00   0.01681017   0.01080597 -79.19  0.001154991    1.890    0.471
       160  -8.5758     89.2330     52.4740   2.9115091199e+02   6.6206022466e+00   0.01928291    0.0117795 -32.63  0.001838926    1.974    0.494
       161 -10.1073     85.0824     48.1174   2.9117152614e+02   6.6952511718e+00   0.01905279   0.01392631  67.71  0.000959417    1.664    0.399
       162  -8.6870    129.9077     57.7092   2.9071735576e+02   6.3162417750e+00   0.01344406    0.0095959 -77.34 0.0003858711    1.580    0.367
       163  -9.4110    118.1886     54.7577   2.9083329794e+02   6.4204467349e+00   0.02367027   0.01382198 -63.03  0.001476364    1.726    0.421
       164  -9.1735    121.0668     46.8775   2.9075153906e+02   6.4930343224e+00   0.02907227  0.009878554 -53.86 0.0004820753    2.694    0.629
       165  -7.8265    157.6089     56.2819   2.9039138832e+02   6.1656646743e+00  0.007095175  0.004797542  57.78 0.0007001328    1.748    0.428
       166  -9.5573     44.2778     53.2757   2.9167122893e+02   6.8812225088e+00   0.01948027   0.01397883 -50.99   0.00138755    1.368    0.269
       167 -10.0538     49.8821     53.4648   2.9160813398e+02   6.8454702415e+00   0.03522117   0.01853716 -71.70  0.002549172    2.248    0.555
       168  -9.5112     56.4964     43.0660   2.9146800031e+02   6.9244819927e+00     0.036235   0.01841595 -22.48  0.002561449    3.907    0.744
       169  -8.5913    196.9327     55.1336   2.8993440727e+02   5.9415582493e+00  0.009374027  0.009210916 -33.08 0.0003259303    1.011    0.011
       170  -8.9957    162.7950     54.2264   2.9031930152e+02   6.1578492264e+00  0.009649103  0.008941131  66.07 0.0005859708    1.134    0.118
       171  -9.0696    105.4602     52.0057   2.9096207451e+02   6.5284085554e+00   0.02794375   0.01217848 -57.44  0.001978375    2.178    0.541
       172  -7.3299    152.5139     53.5409   2.9043272411e+02   6.2276373808e+00  0.006501915  0.006392248  64.94 0.0001208997    1.038    0.037
       173  -6.9990    226.6554     52.3111   2.8957715383e+02   5.7942143786e+00   0.00700249  0.004926383  61.73  0.000704574    1.704    0.413
       174  -8.8558    157.1800     49.4316   2.9035385447e+02   6.2463883046e+00   0.01289616  0.009622758 -73.05 0.0009361776    1.437    0.304
       175  -9.5136    130.5641     46.0092   2.9063738387e+02   6.4457696481e+00    0.0408659   0.01042367 -52.59  0.001800891    3.449    0.710
       176  -8.5830    111.9075     47.1306   2.9085803046e+02   6.5452559573e+00   0.01271307  0.009461829 -72.04 0.0004918015    1.430    0.301
       177  -8.4313    112.7275     42.8305   2.9082200975e+02   6.5893795823e+00   0.02695765   0.01279894 -28.94  0.001885916    3.853    0.740
       178  -8.5948     39.9606     35.0000   2.9160777281e+02   7.1156544032e+00   0.01843295   0.01473226  48.88  0.002109867    1.310    0.237
       179 -10.0883     37.9114     42.1931   2.9167574743e+02   7.0458542121e+00   0.02759333   0.01732619  79.34  0.001652862    2.386    0.581
       180  -9.8062     35.5420     37.9667   2.9167680126e+02   7.1082778882e+00   0.01597783   0.01165953 -51.08 0.0003541695    1.345    0.257
       181  -7.8265    162.2988     46.6229   2.9027786168e+02   6.2475631238e+00  0.007013705  0.004986234  68.48 0.0007025595    1.756    0.431
       182  -9.7406     69.3187     42.3097   2.9131629985e+02   6.8561771317e+00   0.02970589   0.01653784  88.78  0.001159718    3.180    0.686
       183  -9.5096     69.6640     36.6319   2.9127721265e+02   6.9188860364e+00   0.02676038   0.01399201   8.00  0.002153462    2.915    0.657
       184  -9.1939    104.8973     41.0686   2.9090081666e+02   6.6565770306e+00   0.01824783   0.01178018 -77.31   0.00108458    1.832    0.454
       185  -8.6398    106.0316     36.4597   2.9085927995e+02   6.7023309384e+00   0.01321083   0.01052077   6.74  0.001108806    1.380    0.276
       186 -10.4792     89.0571     38.3652   2.9106561621e+02   6.7826400033e+00   0.04403449   0.02182002   8.56  0.003338095    3.305    0.697
       187  -9.5525     53.0407     40.0727   2.9148911842e+02   6.9793633500e+00   0.01948897  0.008282211 -52.81   0.00165627    2.225    0.551
       188  -9.0625    250.6340     40.6873   2.8923112869e+02   5.7817075776e+00   0.01147164  0.006223295 -61.88 0.0002220563    1.840    0.457
       189  -8.9393    153.0756     41.0914   2.9034915175e+02   6.3662482076e+00   0.01007709  0.009560697  64.93  0.000652159    1.094    0.086
       190  -7.8132    160.2958     38.9381   2.9025315449e+02   6.3472780945e+00   0.01303995   0.00621056 -69.93  0.001076656    2.493    0.599
       191  -9.1345    144.2236     36.6680   2.9042308512e+02   6.4700405729e+00   0.01262704  0.009718167  66.00 0.0005330009    1.512    0.339
       192  -9.4595    101.0626     31.9298   2.9088817117e+02   6.7838839390e+00   0.02096165   0.01184523 -73.75   0.00104079    2.118    0.528
       193  -8.6095    132.9395     35.9660   2.9054795919e+02   6.5460204025e+00   0.01204015  0.009635716 -73.11 0.0004513394    1.317    0.240
       194  -9.4034    133.9073     31.0346   2.9050631432e+02   6.5964300627e+00   0.01186752   0.01132291  -8.69 -0.0009232552    1.068    0.063
       195  -8.6659     47.9660    223.4911   2.9267759031e+02   4.9143086573e+00   0.01156759  0.009494143 -61.10 0.0003407301    1.210    0.173
       196  -6.9974     44.7015    210.6761   2.9263621775e+02   5.0803444579e+00  0.006907051  0.004890434 -28.99  0.000278802    1.628    0.386
       197  -9.6594     60.1201     33.8217   2.9136926563e+02   7.0082213578e+00   0.02086535   0.01415815 -87.29  0.001143199    1.878    0.468
       198  -9.0246     62.8394     26.7825   2.9129452404e+02   7.0722081824e+00   0.02322383   0.01258661   7.65  0.001621661    2.698    0.629
       199  -9.8902     10.2737    207.4946   2.9301048898e+02   5.3226536835e+00   0.03022915   0.01597702  11.88  0.002524476    2.554    0.608
       200  -7.8743    194.7883    199.7930   2.9085371817e+02   4.3034296190e+00   0.01683246  0.009281078 -79.01  0.001446332    2.478    0.596
       201  -8.2638    153.7729     34.9843   2.9030331480e+02   6.4316891054e+00   0.01076544  0.007425837  76.05  0.001063233    1.922    0.480
       202  -8.8250    118.9307     34.3578   2.9069846484e+02   6.6486999098e+00   0.01487721  0.009689987 -65.12 0.0006663048    1.571    0.363
       203  -7.2168    228.6737     34.6620   2.8944459374e+02   5.9831660241e+00  0.007090161  0.004886359 -27.47 0.0002947631    1.726    0.421
       204  -9.2290    110.1975     32.7331   2.9078846231e+02   6.7197800095e+00   0.01888073   0.01172109 -80.08  0.001236872    2.031    0.508
       205  -8.1945    162.7552     73.0942   2.9043663119e+02   5.9428415204e+00  0.009953805  0.008699681  75.58 0.0006989963    1.254    0.203
       206  -9.2527     71.4498     25.8711   2.9119013948e+02   7.0309216446e+00   0.02627588   0.01611163  28.97  0.002279461    1.628    0.386
       207  -9.9107     76.2176     31.7960   2.9117214401e+02   6.9347081771e+00   0.02202761   0.01248507  48.07  0.001279051    1.957    0.489
       208 -10.0999    190.3056    190.4572   2.9084729117e+02   4.4370262511e+00   0.02547452   0.01437416 -82.02 0.0007699331    2.530    0.605
       209  -8.8589     84.6799     21.9520   2.9101417413e+02   6.9961583679e+00   0.01358713  0.009550709 -62.43 0.0007204904    1.422    0.297
       210  -7.9713    189.8970    174.8346   2.9075550315e+02   4.6178837518e+00   0.01248156  0.008377303  46.54 0.0007440035    1.572    0.364
       211  -8.9165    229.2847    166.1304   2.9025194326e+02   4.4799035514e+00   0.01881061   0.01123039  81.09  0.001592805    2.740    0.635
       212  -7.0866     17.6995    151.7078   2.9258274167e+02   5.9159799607e+00  0.006730814  0.004936152 -26.50 0.0004691223    1.567    0.362
       213  -7.8936    245.4948     30.4721   2.8922641511e+02   5.9291776044e+00  0.006526385  0.006377179 -29.55 0.0008099148    1.021    0.021
       214  -9.3184    152.9892     28.6527   2.9027303521e+02   6.5086072710e+00   0.02577202   0.01367319 -29.48   0.00211885    2.760    0.638
       215  -7.3592    192.1443     28.8687   2.8982628314e+02   6.2699030985e+00  0.008656427  0.007237688 -34.45            0    1.244    0.196
       216  -8.4674    133.5597    146.1657   2.9122246126e+02   5.2843629395e+00   0.02453446  0.007205461 -65.70  0.001551914    4.185    0.761
       217 -10.3652    236.9350    145.0405   2.9003418605e+02   4.6744509983e+00   0.01781812   0.01659643 -19.48  0.002207323    1.104    0.094
       218  -9.2985     91.2997     26.4410   2.9096608171e+02   6.9051806236e+00   0.01971889   0.01291966  74.16  0.001015981    2.132    0.531
       219  -8.7119     92.2432     20.8559   2.9092067350e+02   6.9632055861e+00   0.01902058   0.01101787 -27.74  0.001534002    2.359    0.576
       220  -7.8175    136.2020     27.1200   2.9045577010e+02   6.6272461543e+00   0.01226994  0.008825824 -74.85 0.0005002079    1.530    0.346
       221  -8.2567    139.0777     22.6823   2.9039532359e+02   6.6605203595e+00   0.01928394    0.0104293  12.07  0.001664592    2.450    0.592
       222  -8.6794    144.3856     25.7546   2.9035358179e+02   6.5935073435e+00   0.01272448  0.009069115 -61.53 0.0005865289    1.396    0.284
       223  -8.2948    145.0303     22.0089   2.9032297513e+02   6.6323267219e+00  0.009822777  0.009408636 -45.68  0.000360717    1.034    0.033
       224  -8.7167    128.2161     24.7522   2.9053256918e+02   6.7023429990e+00   0.02183958  0.009619937 -59.10  0.001216271    2.187    0.543
       225  -9.7500     67.0254    144.5262   2.9197373632e+02   5.7026536940e+00   0.02499329   0.01703275  57.76  0.002566782    1.726    0.421
       226  -9.4102    134.3322    137.1055   2.9115768035e+02   5.3832022117e+00    0.0117256    0.0103446   4.46  0.000286785    1.195    0.163
       227  -7.7552    235.0096     23.0000   2.8929980957e+02   6.0777224222e+00   0.01117018   0.00374023  27.98 0.0001065438    3.006    0.667
       228  -8.3986    111.5180     21.9876   2.9070675916e+02   6.8343801964e+00   0.01438786  0.006547805 -63.06 0.0008218393    2.238    0.553
       229  -8.3503    112.2402    133.9101   2.9139071841e+02   5.5525186463e+00   0.01551895  0.009551729  65.78 0.0009324627    2.277    0.561
       230 -10.5866     69.8410    126.7668   2.9183200719e+02   5.8886842120e+00   0.03825676   0.02773155 -35.53  0.002361384    1.490    0.329
       231 -10.0500     58.3165    124.5488   2.9195030687e+02   5.9831311051e+00    0.0338551   0.01894841  69.17  0.002716487    3.063    0.674
       232  -8.9817    135.5697    131.6440   2.9110979158e+02   5.4381357693e+00   0.01800467  0.006561043 -51.20  0.001386248    2.598    0.615
       233  -7.5829    108.2890     22.6620   2.9074794296e+02   6.8461173416e+00  0.006803583  0.005017734  67.64 0.0007021222    1.638    0.390
       234  -9.0662    103.0221     21.0711   2.9079845009e+02   6.8959406804e+00   0.01667609   0.01138965 -88.79 0.0007356209    1.879    0.468
       235  -9.6440     98.6144    128.8225   2.9151526449e+02   5.6924956665e+00   0.02792741   0.01566423  63.79  0.002342325    2.734    0.634
       236 -10.0313    128.3920    100.6691   2.9100050571e+02   5.8350248134e+00    0.0427757   0.01779432 -43.36  0.002395837    2.713    0.631
       237 -10.0153    117.2311    124.6956   2.9127670829e+02   5.6277714179e+00   0.03739102   0.02199031 -84.37  0.002452093    2.416    0.586
       238  -9.8925    108.5879    114.5713   2.9131310540e+02   5.7953547574e+00   0.02756684   0.01635163  78.55  0.001513884    2.789    0.641
       239  -8.9139     40.9886     20.6109   2.9150698629e+02   7.2736465464e+00   0.01217353  0.009453914 -57.37 0.0002304193    1.266    0.210
       240 -11.0424    120.8493    109.6058   2.9114207677e+02   5.7783504273e+00   0.05683746   0.02751964 -68.00  0.003253236    2.310    0.567
       241  -7.3791    134.4683     13.5103   2.9039125279e+02   6.7928537165e+00   0.01042711  0.005681378 -50.26 0.0002771934    1.794    0.443
       242  -9.0251    109.5071    107.3113   2.9125773466e+02   5.8727416244e+00   0.02219305   0.01740436  -3.62  0.002172576    1.465    0.317
       243 -10.2853    108.7851     99.7234   2.9121911301e+02   5.9637299201e+00   0.04576545   0.02125676  51.41  0.003656684    2.824    0.646
       244  -9.8449      8.3290     47.0270   2.9204496847e+02   7.1677637787e+00   0.03771476   0.01312491  32.18  0.002856732    2.696    0.629
       245  -7.6696    160.4959    128.4919   2.9080521418e+02   5.3241175393e+00  0.006570781  0.006350478  66.68 0.0008097814    1.065    0.061
       246  -8.3813    198.9890    125.9573   2.9034951328e+02   5.1211150886e+00  0.009503826  0.009252778  73.06            0    1.055    0.052
       247  -9.5691     27.1532    122.8380   2.9229673213e+02   6.1893435582e+00   0.02852781   0.01617391  66.13  0.002256801    2.784    0.641
       248 -10.4612    131.3436    120.1304   2.9108701182e+02   5.5950464947e+00   0.03545815   0.02331311  60.86  0.002292837    1.892    0.471
       249 -10.5704    133.5833    109.4739   2.9099552472e+02   5.7032605925e+00   0.03953928   0.01736568 -67.30  0.002546834    2.572    0.611
       250  -9.1429     41.2571    121.8257   2.9212892072e+02   6.1164660754e+00   0.02240911   0.01165548 -73.46  0.001688218    2.384    0.580
       251  -7.7230    151.6852    121.3253   2.9086168205e+02   5.4589938190e+00  0.006907586  0.004985818  64.48 0.0007042941    1.667    0.400
       252  -9.7789    140.6066    118.3190   2.9096983411e+02   5.5600013056e+00   0.01901458   0.01319716  82.75  0.001144368    1.894    0.472
       253 -10.5470    244.5999    116.7600   2.8977164024e+02   4.9508526019e+00   0.01486072   0.01351674 -27.94 0.0004382975    1.131    0.116
       254 -10.0525     92.0246    113.4625   2.9149588776e+02   5.9075244889e+00   0.02732352   0.01889681  69.19  0.001722398    1.855    0.461
       255 -10.2137     78.2118    113.1469   2.9165211288e+02   5.9940523094e+00   0.02575697   0.01633846  81.09  0.001916405    2.319    0.569
