#   1 NUMBER                 Running object number                                     
#   2 MAG_AUTO               Kron-like elliptical aperture magnitude                    [mag]
#   3 X_IMAGE                Object position along x                                    [pixel]
#   4 Y_IMAGE                Object position along y                                    [pixel]
#   5 X_WORLD                Barycenter position along world x axis                     [deg]
#   6 Y_WORLD                Barycenter position along world y axis                     [deg]
#   7 A_WORLD                Profile RMS along major axis (world units)                 [deg]
#   8 B_WORLD                Profile RMS along minor axis (world units)                 [deg]
#   9 THETA_WORLD            Position angle (CCW/world-x)                               [deg]
#  10 FWHM_WORLD             FWHM assuming a gaussian core                              [deg]
#  11 ELONGATION             A_IMAGE/B_IMAGE                                           
#  12 ELLIPTICITY            1 - B_IMAGE/A_IMAGE                                       
         1 -15.4117     12.1074    149.2238   1.3968778603e+02   4.2684655241e+01     10.30573      3.31879 -82.12   0.03482334    4.311    0.768
         2 -13.3390    198.7437     30.4555   6.4814750394e+01   3.2073826874e+01     1.184936      1.17119  58.25  0.007870366    1.276    0.216
         3 -13.5143    215.4949     12.1807   5.8814850865e+01   3.0349219829e+01     1.002551    0.8489057  46.53   0.00660559    1.549    0.355
         4 -11.9104      2.5033     11.0799   1.1232739565e+02   7.0907487033e+01    0.6774571    0.1180703 -43.53  0.002817743    4.249    0.765
         5 -11.7050      3.5840      3.9616   1.0879735137e+02   7.1763546299e+01    0.3389617     0.257685  -1.37  0.002797559    1.211    0.174
         6 -11.0513     64.1544    247.4211   1.3866034550e+02   1.4872477406e+01    0.3264555    0.1916374  80.24 0.0009501868    1.681    0.405
         7 -12.0937    244.8427    246.1366   1.0361911668e+02  -1.3615462564e+01     0.718228    0.3272361  20.40  0.003301292    2.734    0.634
         8 -11.8479    139.2849    248.8035   1.2433196634e+02   2.8303250220e+00    0.4116851    0.3284642 -66.28  0.002543994    1.468    0.319
         9 -13.1847    125.4971    248.8352   1.2706144306e+02   5.1313638397e+00     1.026678    0.4514966  36.82  0.004613245    2.184    0.542
        10 -12.5107     36.8138    243.4081   1.4325317289e+02   1.9245551161e+01    0.4690249    0.3810455  34.67  0.003296294    1.689    0.408
        11 -11.3559     29.6885    248.9309   1.4487538291e+02   1.9019933279e+01    0.3458994    0.2407261 -82.70  0.002434269    1.308    0.235
        12 -13.4434      6.8820    247.4017   1.4855182267e+02   2.1855426465e+01     1.248133    0.8493416  80.77  0.009317499    1.064    0.060
        13 -12.6926     12.0895    239.4297   1.4723674295e+02   2.2860247102e+01    0.5712727    0.2886592  69.78  0.002295698    1.621    0.383
        14 -11.2800     46.1931    248.5894   1.4199359975e+02   1.7048879450e+01    0.3400634     0.216252 -88.85  0.002179976    1.389    0.280
        15 -10.5605    144.8086    243.1856   1.2245638706e+02   2.8927399092e+00     0.176892    0.1516699  18.28  0.001079287    1.328    0.247
        16 -11.4397    107.6207    240.1962   1.2953665906e+02   9.7032996576e+00    0.2506633    0.1654935 -64.80  0.001364261    1.654    0.395
        17 -14.4377    102.6687    228.9539   1.2914534098e+02   1.2760609730e+01     4.774583          nan  44.28  0.008479502   12.780    0.922
        18 -11.0465    225.6200    248.7947   1.0756323116e+02  -1.1225263817e+01    0.2392791    0.1609703  -5.07  0.001414232    1.585    0.369
        19  -9.6879    193.0063    194.8383   1.0423743177e+02   3.2019571123e+00    0.3815244    0.1990781 -66.08  0.001089129    5.489    0.818
        20 -12.7179     29.4952    229.5497   1.4352208632e+02   2.2929184928e+01    0.2894626    0.2409302 -86.26 0.0007409924    1.255    0.203
        21 -11.8010     64.1206    188.4095   1.3227458102e+02   2.7689059247e+01    0.2783673    0.2341522 -62.45 0.0004511736    1.250    0.200
        22 -12.6653     44.4600    212.4162   1.3919199263e+02   2.4792140408e+01    0.6830199    0.5654981 -59.52  0.003505951    1.463    0.317
        23 -11.7879      4.8187    229.1805   1.4784841088e+02   2.5659397418e+01    0.3159266    0.2148027  67.86  0.001693192    1.163    0.140
        24 -10.7277     74.8667    175.8293   1.2797746870e+02   2.9147871965e+01    0.2502915    0.2209594 -76.10 0.0003394576    1.071    0.066
        25 -13.2375     61.4061    173.5333   1.3088234764e+02   3.1603938560e+01    0.5532777    0.2813181 -46.47  0.002424226    2.328    0.570
        26 -11.7756     82.8158    166.9560   1.2460138160e+02   3.0087825850e+01    0.6188179    0.6024861 -22.97  0.003677163    1.237    0.192
        27 -13.8309     34.9548    222.3718   1.4193774602e+02   2.3794166447e+01    0.7437863    0.5480284  78.99  0.002473857    1.056    0.053
        28  -9.9953     95.9452    151.4265   1.1839003728e+02   3.1727839886e+01    0.2826831    0.2785359 -80.31  0.000815313    1.095    0.086
        29 -11.9009     84.4372    150.2916   1.2120300153e+02   3.3900702987e+01    0.3217921    0.2541529 -44.86 0.0009104498    1.322    0.243
        30  -9.0729     99.1553    147.2010   1.1669301068e+02   3.2199521651e+01    0.2150918    0.2001476 -25.48 0.0004323406    1.218    0.179
        31 -11.7718     68.7556    143.7441   1.2417707960e+02   3.7844029137e+01    0.5587754    0.3898686 -80.57  0.001632942    1.539    0.350
        32 -11.3998     65.3141    141.6764   1.2473225008e+02   3.8822927963e+01    0.3991274    0.2668709 -53.92  0.001031145    1.363    0.266
        33  -8.7963    152.5692    212.9814   1.1617029948e+02   7.2571237201e+00    0.1879477    0.1399537 -51.64 0.0003205901    1.456    0.313
        34  -9.5676    108.4367    136.6663   1.1195238554e+02   3.3058107041e+01    0.3926651    0.2461272 -21.53  0.001453189    2.792    0.642
        35 -10.4186     95.4023    133.7868   1.1485554542e+02   3.6088714345e+01    0.2507342    0.2324433 -24.16 0.0004120892    1.186    0.157
        36  -8.9929    106.0101    123.3706   1.0952232901e+02   3.6645096310e+01    0.1979144    0.1825535  42.97 0.0004018871    1.129    0.114
        37 -12.6292      9.9294    207.0255   1.4546192064e+02   2.9790983569e+01    0.6496622    0.4580958  33.50  0.002805568    1.803    0.445
        38 -10.0093    167.5127    112.5019   9.1272841800e+01   2.5856059874e+01    0.3115986    0.2600807 -81.19 0.0008588526    1.351    0.260
        39  -8.8927    203.4628    111.5223   8.3727088719e+01   1.7732808896e+01    0.1487992    0.1434271 -45.85 9.221951e-05    1.077    0.072
        40 -11.8056    244.4977     95.5184   7.3439582903e+01   1.1720996453e+01    0.5742108    0.1462712 -42.69  0.001899807    3.317    0.698
        41 -10.7255     54.2375    203.6977   1.3627932337e+02   2.5489100471e+01    0.3593973    0.1738761  56.91  0.001703849    2.060    0.515
        42 -11.6196     57.5666    196.4303   1.3473465428e+02   2.6710057444e+01    0.3126221    0.2365283 -54.23 0.0005644775    1.495    0.331
        43 -12.2278     99.9265    248.0833   1.3196950085e+02   9.4181211947e+00    0.4799018    0.2836919  49.57  0.002660004    1.412    0.292
        44 -10.5909     88.8301    249.1243   1.3420963878e+02   1.0939467759e+01    0.2010813    0.1442585  68.40 0.0006202368    1.222    0.181
        45 -11.1046      2.3790     37.4226   1.2168987070e+02   6.6864231082e+01     0.259522   0.09547819 -57.75  0.001257154    2.896    0.655
        46 -11.3214     81.3092    248.7148   1.3559075307e+02   1.2150026084e+01    0.2839663    0.2135993  59.67  0.001828443    1.079    0.073
