#   1 NUMBER                 Running object number                                     
#   2 MAG_AUTO               Kron-like elliptical aperture magnitude                    [mag]
#   3 X_IMAGE                Object position along x                                    [pixel]
#   4 Y_IMAGE                Object position along y                                    [pixel]
#   5 X_WORLD                Barycenter position along world x axis                     [deg]
#   6 Y_WORLD                Barycenter position along world y axis                     [deg]
#   7 A_WORLD                Profile RMS along major axis (world units)                 [deg]
#   8 B_WORLD                Profile RMS along minor axis (world units)                 [deg]
#   9 THETA_WORLD            Position angle (CCW/world-x)                               [deg]
#  10 FWHM_WORLD             FWHM assuming a gaussian core                              [deg]
#  11 ELONGATION             A_IMAGE/B_IMAGE                                           
#  12 ELLIPTICITY            1 - B_IMAGE/A_IMAGE                                       
         1 -14.3686    162.2847     47.4164   8.1162428629e+01   3.8692606376e+01     1.791422      1.21618   2.99  0.005637603    1.720    0.419
         2 -13.5018    178.8587     24.7321   7.0180994774e+01   3.7280463925e+01    0.6025152    0.5555767  21.42   0.00127456    1.024    0.024
         3 -14.4188    175.1843     31.5389   7.3155574124e+01   3.7461873933e+01     1.228573    0.9552401  -7.63  0.003856013    1.292    0.226
         4 -12.5647    189.6476     14.8203   6.5201320715e+01   3.5439286948e+01    0.3404405    0.2511762 -38.32  0.000758958    1.405    0.288
         5 -13.1016    192.9489      2.4554   6.0709976092e+01   3.5680609681e+01    0.7527737    0.3893277  68.53    0.0026749    1.875    0.467
         6 -11.6991    186.9632    221.1607   1.1552121816e+02   7.1878295432e+00    0.1718289    0.1296715  43.53  0.001100399    1.278    0.218
         7 -19.7779     51.8144    166.6854   1.3497818080e+02   3.4693569432e+01     15.69759     4.603058 -73.55   0.06778739    3.632    0.725
         8 -11.5737    117.8191    201.7622   1.2552401697e+02   2.0198496468e+01     0.287394    0.1331431  39.10  0.001569698    1.804    0.446
         9 -12.7334    113.4645    195.6448   1.2565380579e+02   2.1780200684e+01    0.5567223    0.3462951  15.78   0.00289473    2.808    0.644
        10 -11.7071    180.0867    193.4271   1.1273417288e+02   1.1663797591e+01    0.3846315    0.2642269 -64.50   0.00209643    2.729    0.634
        11 -10.3643    158.6301    194.1091   1.1684385021e+02   1.5090299514e+01    0.1667154    0.1458059  80.14 0.0009396164    1.502    0.334
        12 -12.4181    104.6707    193.7067   1.2712166820e+02   2.3331793527e+01    0.3750896    0.2464904  26.85  0.002307106    1.781    0.439
        13 -11.9265    212.0511    181.3431   1.0489437237e+02   7.7813383830e+00    0.3179085    0.2258243   9.07  0.001161765    1.339    0.253
        14 -10.3033    223.9875    184.0191   1.0327383665e+02   5.4472413142e+00    0.1517051    0.1151468  21.17            0    1.009    0.009
        15 -11.9436    207.6663    185.3741   1.0638612062e+02   8.0419455396e+00    0.3387364    0.2540714   5.13  0.001229098    1.282    0.220
        16 -10.2273    136.0151    196.9996   1.2152092672e+02   1.8229630925e+01    0.1897581    0.1287481  65.39  0.001138341    1.787    0.441
        17 -11.4191    198.2944    177.5069   1.0671202259e+02   1.0646421652e+01    0.3381574    0.2630189 -48.04  0.001390488    1.816    0.449
        18  -9.8930    145.4936    178.4425   1.1708224027e+02   1.9594561100e+01    0.1252818     0.105727  38.98 0.0002765142    1.008    0.008
        19 -10.5563    178.5190    173.4885   1.0975079081e+02   1.4680848740e+01    0.1304252    0.1084168  28.95 9.400498e-05    1.005    0.005
        20 -12.3619    137.3378    171.1879   1.1762958488e+02   2.2121112715e+01    0.5096858    0.2872548  45.44  0.002700034    1.567    0.362
        21 -11.4305    125.7355    172.4458   1.2021576319e+02   2.3780119925e+01    0.2394512    0.2161036  55.11  0.001631845    1.062    0.058
        22 -10.3795    228.6453    171.3224   1.0012213338e+02   6.1075132143e+00    0.1107692    0.1032036  68.14 0.0007046499    1.760    0.432
        23 -10.8020    150.4832    220.5125   1.2176675922e+02   1.2767294681e+01    0.1129708   0.08601658  39.96 4.127487e-05    1.001    0.001
        24 -11.3971    145.3264    168.4615   1.1555010723e+02   2.1238036500e+01    0.2465489    0.2180437  39.20 0.0008383532    1.020    0.020
        25 -12.6113     20.6836    213.9618   1.4355335789e+02   2.9510895138e+01    0.2625546    0.1803571  37.92  0.002218053    1.546    0.353
        26 -10.5053    165.2810    208.1246   1.1757026770e+02   1.2123210737e+01    0.2173726    0.1361962  41.98 0.0006194296    1.272    0.214
        27 -11.4679     23.2600    205.4413   1.4276691965e+02   3.0642851845e+01    0.3203279    0.1001003  45.55  0.001469836    2.250    0.555
        28  -9.9209    200.5016    163.9856   1.0380087153e+02   1.2050855115e+01    0.1633741    0.1154519 -58.49 0.0006349636    2.517    0.603
        29 -11.7199    100.3475    163.1292   1.2428420031e+02   2.9294581919e+01    0.2122383    0.2028869  84.55 0.0003508688    1.118    0.106
        30 -10.2794     13.3852    160.2644   1.4230909500e+02   3.9437374017e+01    0.1643564    0.1251608  78.61 0.0006960731    1.014    0.014
        31 -11.3311    164.7272    157.7766   1.0968160775e+02   1.9555590456e+01    0.2300165    0.1879292  15.24 0.0005094133    1.236    0.191
        32 -12.8576    104.6011    155.5380   1.2228292426e+02   3.0097988026e+01    0.5334392    0.3522527 -40.02   0.00258141    1.896    0.473
        33 -11.2557     27.7627    156.6278   1.3916025273e+02   3.8953299970e+01    0.2024064    0.1754407  69.22  0.000513258    1.160    0.138
        34 -11.1375     23.0133    156.3709   1.4012532181e+02   3.9408344686e+01    0.2361697    0.1640786  58.36 0.0009183359    1.254    0.203
        35 -12.5585     15.8096    206.3873   1.4403830151e+02   3.1142293995e+01    0.1810971    0.1424561 -83.84  0.001214041    1.383    0.277
        36 -11.7715    113.0618    149.5727   1.1946258961e+02   2.9932219004e+01    0.3639866    0.1990298 -37.81  0.001696325    2.467    0.595
        37 -10.5163     98.6138    150.5077   1.2288803116e+02   3.1951491122e+01    0.2302704    0.1686432  43.76 0.0008547688    1.281    0.219
        38 -11.9687    133.6977    144.5423   1.1392087103e+02   2.7433455400e+01    0.8828766    0.2413289 -53.75  0.002639066    5.253    0.810
        39 -10.8936    174.5162    149.0163   1.0597267438e+02   1.9125872072e+01    0.2518005    0.2183382  38.44   0.00073739    1.120    0.107
        40 -11.0443     91.7835    148.0283   1.2408753490e+02   3.3419409641e+01    0.2490024     0.160633  50.22 0.0006892509    1.475    0.322
        41 -11.6981    144.5655    145.6407   1.1170213849e+02   2.5294879581e+01    0.3260118    0.2442946  74.36  0.001691229    1.854    0.461
        42  -9.9418      2.4604    146.9440   1.4380625584e+02   4.2785547226e+01    0.1374984    0.1123398  57.07 0.0005018147    1.255    0.203
        43 -12.2524    113.1462    140.2832   1.1788428879e+02   3.1715136102e+01    0.4462378    0.2735802 -35.80  0.002188557    2.094    0.522
        44 -12.5590    102.6264    140.7049   1.2043150274e+02   3.3284987186e+01    0.2661999    0.2299511  52.03 0.0005500265    1.097    0.089
        45 -11.5832     21.4751    135.8604   1.3897319610e+02   4.3622982825e+01    0.1803184    0.1526643  76.06  0.000294319    1.106    0.096
        46 -10.9398    150.2737    134.4213   1.0819315856e+02   2.6244350631e+01    0.2967541    0.2176029  74.37 0.0009253832    2.028    0.507
        47 -11.7320    118.5812    130.5489   1.1480381949e+02   3.2732271472e+01    0.3256851    0.2572956 -42.58 0.0009736868    1.339    0.253
        48 -12.0955    106.3978    128.8450   1.1745299847e+02   3.5088368299e+01    0.5634543    0.2736865 -46.61  0.002533774    2.165    0.538
        49 -11.3433    160.1410    128.4509   1.0470189515e+02   2.5380975234e+01    0.3684444    0.2483332 -35.90   0.00182823    1.566    0.361
        50 -11.9587    135.3359    122.7338   1.0916186832e+02   3.1257776963e+01     0.728229    0.1360891 -47.19  0.001881236    5.784    0.827
        51 -11.6560    125.2097    127.2358   1.1254679334e+02   3.2233025589e+01     0.292757    0.2371866  88.51  0.001038912    1.556    0.357
        52 -11.7861    248.9314    121.2358   8.6047456654e+01   8.3658532117e+00    0.2996891    0.2194859  36.82  0.001694306    1.338    0.253
        53 -12.4740     84.5854    121.1830   1.2158679245e+02   3.9964918247e+01    0.4659722    0.2749642  35.53  0.002402674    1.773    0.436
        54 -10.8174    112.9579    119.4938   1.1398439712e+02   3.5917608987e+01    0.2483235    0.2023981 -51.56 0.0005448755    1.238    0.192
        55 -13.7003     11.6460    205.8696   1.4469783774e+02   3.1577665519e+01    0.3328815    0.2283999  38.33  0.002211815    1.547    0.353
        56 -11.3180    167.9107    113.4793   9.9469268771e+01   2.6401127994e+01    0.3538791    0.3001618  75.06  0.001001658    1.557    0.358
        57 -11.8577    157.4792    218.4955   1.2029607051e+02   1.1983201520e+01    0.2215767    0.1615119  55.86  0.001530327    1.460    0.315
        58 -10.9114    120.1443    205.1832   1.2547414779e+02   1.9344728314e+01    0.1626208    0.1362505  32.89 0.0005398344    1.225    0.184
        59 -10.6438    205.4556    110.1575   9.0918107375e+01   1.8800411724e+01    0.3298809    0.1947344  37.57  0.001046062    1.618    0.382
        60 -10.7592     89.8737    108.7086   1.1783471830e+02   4.1880588164e+01    0.2301671    0.1730372 -46.32 0.0005592241    1.326    0.246
        61 -11.1143    134.5422    104.5239   1.0510901455e+02   3.4953179957e+01    0.5320398    0.1418023 -44.82  0.001597294    3.824    0.739
        62 -13.5637    196.0800    195.8013   1.1019828117e+02   8.7147516118e+00    0.7583128    0.5036491  47.21  0.002253764    1.521    0.343
        63 -12.3588    248.9098     88.9095   7.8188870554e+01   1.2304658998e+01     0.579388    0.3348236 -26.74  0.002297343    1.563    0.360
        64  -9.8131    148.4406     78.4697   9.4454892018e+01   3.6932231603e+01    0.1539623     0.143929   1.51 0.0001062284    1.006    0.006
        65 -10.6795     88.0048     77.9760   1.1117831493e+02   4.8826822920e+01    0.2066732    0.1936513 -41.37 0.0003340383    1.019    0.018
        66 -10.0293     13.6421     59.9354   1.3244979822e+02   6.0712144500e+01    0.1684072    0.1165941 -69.38 0.0004101787    1.138    0.122
        67 -11.5603    188.7690    187.1135   1.1011994922e+02   1.1034970934e+01    0.3855736    0.3144306 -53.46  0.001837978    1.780    0.438
        68 -11.5306    176.8564    243.3777   1.1996848694e+02   6.2625726861e+00    0.1514156    0.1327345  42.57 0.0006536532    1.328    0.247
        69 -11.6696    181.9469    240.3392   1.1878516967e+02   5.8521549498e+00    0.1921031    0.1596776 -47.96   0.00100563    1.805    0.446
        70 -12.2194    196.7652    227.0891   1.1466216082e+02   5.0635662771e+00    0.2550811    0.1942318  23.89  0.001911718    1.103    0.093
