#   1 NUMBER                 Running object number                                     
#   2 MAG_AUTO               Kron-like elliptical aperture magnitude                    [mag]
#   3 X_IMAGE                Object position along x                                    [pixel]
#   4 Y_IMAGE                Object position along y                                    [pixel]
#   5 X_WORLD                Barycenter position along world x axis                     [deg]
#   6 Y_WORLD                Barycenter position along world y axis                     [deg]
#   7 A_WORLD                Profile RMS along major axis (world units)                 [deg]
#   8 B_WORLD                Profile RMS along minor axis (world units)                 [deg]
#   9 THETA_WORLD            Position angle (CCW/world-x)                               [deg]
#  10 FWHM_WORLD             FWHM assuming a gaussian core                              [deg]
#  11 ELONGATION             A_IMAGE/B_IMAGE                                           
#  12 ELLIPTICITY            1 - B_IMAGE/A_IMAGE                                       
         1 -14.8242    164.4494     40.3879   2.9009005399e+02   6.3655292867e+00   0.06646064   0.04358193 -50.95  0.004109006    1.491    0.329
         2 -14.5978    180.0921      7.3088   2.8970886440e+02   6.6581218830e+00   0.07130757   0.04790058  15.96  0.006020507    1.619    0.382
         3 -11.0373    133.6988    248.1686   2.9169206133e+02   4.1304253910e+00   0.01090654  0.007215444 -58.57 0.0005282807    1.474    0.322
         4 -19.8840     73.0993    168.5391   2.9192227983e+02   5.4062214621e+00    0.9278062    0.3943245 -65.85   0.07587019    2.487    0.598
         5 -10.3784     10.4341    210.6374   2.9290307197e+02   5.2779355563e+00   0.00845417  0.005941455 -49.17 0.0004934564    1.402    0.287
         6 -13.3258     11.7316    206.1369   2.9286119518e+02   5.3228061285e+00    0.0297869   0.01761366  19.84  0.002405234    1.813    0.448
         7 -10.9013      9.4223    201.5446   2.9286077674e+02   5.3894976919e+00  0.008202932  0.006437005   6.90 0.0001819124    1.391    0.281
         8 -11.5297    125.0117    246.8781   2.9178538521e+02   4.1956465645e+00    0.0156734  0.007777599 -62.72  0.001401993    2.000    0.500
         9 -11.5482    119.2725    243.1670   2.9183000711e+02   4.2719527610e+00   0.01017675  0.008823131 -86.71 0.0009088378    1.241    0.194
        10 -12.0838    169.0011    202.5464   2.9100911451e+02   4.4562432225e+00   0.01554731   0.01093948  73.13 0.0006111846    1.806    0.446
        11 -10.8350    157.1611    202.1143   2.9114424109e+02   4.5298424925e+00   0.02299121   0.01077494  52.88  0.001797733    2.915    0.657
        12 -12.6169    163.6104    203.3365   2.9107653346e+02   4.4782891481e+00   0.02123861   0.01585886 -35.98  0.001593034    1.420    0.296
        13 -12.9401    161.3539    197.8898   2.9107021888e+02   4.5546450464e+00   0.02063376   0.01647102  83.38  0.001734904    1.447    0.309
        14  -9.8946    136.9411    197.9579   2.9135464510e+02   4.6951990611e+00   0.02658696   0.01287118  67.16  0.001643618    5.056    0.802
        15 -11.4269    154.6097    196.2391   2.9113880340e+02   4.6128857507e+00   0.01720172   0.01141667  85.76  0.001660076    2.010    0.503
        16 -10.3132    135.1576    234.6226   2.9159429782e+02   4.2794131716e+00  0.008180112   0.00636847 -57.25 0.0004040725    1.260    0.206
        17  99.0000     16.4266    233.2780   2.9296788594e+02   4.9801614085e+00   0.02710429  0.008437986  37.77  0.001984573    3.031    0.670
        18  -9.8836     25.5804    232.0394   2.9285397087e+02   4.9418725036e+00  0.008504678   0.00639892 -62.88 8.928452e-05    1.322    0.244
        19  -7.6128     28.2355    229.2857   2.9280669178e+02   4.9586063001e+00  0.006480676  0.004802114 -34.25 0.0002693079    1.451    0.311
        20 -11.2605     24.7444    226.2219   2.9282911528e+02   5.0143360173e+00   0.02725083  0.006958945 -51.77  0.001840712    3.482    0.713
        21 -10.4459    108.7930    182.5113   2.9159000254e+02   5.0375599730e+00  0.009244515  0.008662315 -70.70  0.001129742    1.080    0.074
        22 -12.0332    219.2225    224.6693   2.9055768085e+02   3.9081903273e+00   0.01771238  0.009985066 -74.98  0.001151943    2.116    0.528
        23 -10.6068    116.9769    180.3003   2.9148151271e+02   5.0159272368e+00   0.01336782  0.008801546  59.11  0.001316503    1.841    0.457
        24 -11.9528      4.0884    180.3615   2.9279686880e+02   5.6665185701e+00   0.01821119   0.01181058   7.14  0.001328953    1.852    0.460
        25 -12.2168    195.6980    174.3311   2.9052983010e+02   4.6292446539e+00   0.02257699   0.01350248  62.95 0.0007462372    2.296    0.564
        26 -13.3515    195.7837    170.8683   2.9050809696e+02   4.6689659542e+00    0.0346745   0.02191286 -83.94  0.002798629    2.020    0.505
        27 -10.8378     10.5432    174.7970   2.9268851906e+02   5.6940826402e+00  0.009805701  0.008892024  20.93 0.0002889287    1.114    0.102
        28 -12.7608    177.4810    171.4310   2.9072433766e+02   4.7685806780e+00   0.02462643   0.01480052 -84.28  0.002241332    2.229    0.551
        29 -13.1767    138.4262    170.9561   2.9117595862e+02   5.0003870478e+00   0.03849809   0.03418085  -7.06  0.004627635    1.188    0.158
        30 -13.0841    143.8394    168.4328   2.9109785649e+02   4.9983602672e+00   0.02817835   0.01875285  70.04  0.002687359    1.984    0.496
        31 -11.5418    203.0164    172.4604   2.9043353300e+02   4.6085122563e+00   0.01259176  0.009511167 -89.08 0.0008548024    1.551    0.355
        32 -11.3418    125.7285    172.2651   2.9133160225e+02   5.0586764704e+00   0.01289135   0.01143306 -35.88   0.00132727    1.142    0.125
        33 -11.5126    230.1158    166.5827   2.9008332050e+02   4.5194529123e+00   0.01726637  0.009225971 -89.40  0.001308781    3.293    0.696
        34 -12.6116    122.6111    222.4419   2.9166756297e+02   4.4935367992e+00   0.01875878   0.01386626  12.57  0.001058392    1.466    0.318
        35 -11.1523    201.1072    165.0933   2.9041160425e+02   4.7051480750e+00   0.01605329  0.009502324  75.29  0.001114713    2.681    0.627
        36 -11.2862    122.7753    165.9396   2.9132816769e+02   5.1492768737e+00   0.01911079  0.008193334  44.03  0.001031057    2.533    0.605
        37 -10.1315     24.6957    165.4249   2.9246773875e+02   5.7215733844e+00  0.008634458  0.006459079   8.53 0.0004645722    1.477    0.323
        38 -10.1593     13.9972    163.9579   2.9258369512e+02   5.8002332033e+00   0.01271257  0.008717563  38.76  0.001337649    1.464    0.317
        39 -10.6257    222.8064    162.3405   2.9014284256e+02   4.6111524685e+00   0.01551779  0.009102337 -84.88  0.001051143    2.366    0.577
        40 -12.7098    130.1163    160.9041   2.9121258028e+02   5.1653029798e+00   0.02098743   0.01664326 -56.14  0.001927427    1.236    0.191
        41 -10.9194    110.1995    222.9086   2.9181475280e+02   4.5598627873e+00  0.009179512  0.008473081  88.16 0.0003617562    1.141    0.124
        42 -12.6204    163.8452    156.4223   2.9079313885e+02   5.0219824844e+00   0.01707845   0.01383959 -59.18 0.0008094716    1.217    0.178
        43 -11.6047    173.9622    148.7269   2.9062932169e+02   5.0527097412e+00   0.01677399   0.01341161  48.34  0.001332015    1.308    0.236
        44 -14.0882    143.1612    143.0027   2.9095356848e+02   5.2977484869e+00   0.04647545   0.02443271 -82.99  0.003727414    2.903    0.656
        45 -11.4268     19.7428    222.8761   2.9286745228e+02   5.0820378612e+00  0.009942327  0.008075505 -34.38 0.0007993377    1.284    0.221
        46 -10.1849     14.2105    221.8698   2.9292588173e+02   5.1255812420e+00  0.008435757  0.004840444 -52.73 0.0004061275    1.681    0.405
        47 -10.9562    118.6587    225.2270   2.9173016160e+02   4.4840177935e+00  0.009226163  0.007732182 -60.52 0.0002561479    1.181    0.153
        48 -11.0489     22.3476    138.0825   2.9233205698e+02   6.0529698623e+00   0.01224802  0.009141541  -0.07 0.0006307598    1.546    0.353
        49 -11.7545      5.5215    137.0706   2.9252224302e+02   6.1616026874e+00   0.01914029   0.01394452  -3.48  0.001485233    1.629    0.386
        50  -9.9801     13.8163    137.2100   2.9242633959e+02   6.1122408042e+00  0.008899628  0.007391382 -19.64  0.000237524    1.307    0.235
        51 -12.3542    160.6320    128.0212   2.9066042205e+02   5.3705065580e+00     0.018163   0.01565344  82.83   0.00213284    1.278    0.217
        52 -10.6918      1.3349    214.4876   2.9303192581e+02   5.2855020745e+00  0.006866033  0.005726764 -37.51 0.0003366827    1.226    0.184
        53 -11.8030    139.9849    120.7451   2.9085725884e+02   5.5747068361e+00   0.01537335   0.01117826  45.66 0.0009138913    1.433    0.302
        54 -11.7696    116.1333    211.9169   2.9168012866e+02   4.6533249942e+00   0.01489588   0.01009873  62.69  0.001077914    1.815    0.449
        55 -10.7269    167.6355    112.6476   2.9048672873e+02   5.5084161254e+00   0.01421306  0.008910115  62.37  0.001331877    2.080    0.519
        56 -11.6613      7.3486    111.0277   2.9234554671e+02   6.4537852966e+00   0.01405145  0.009925587 -21.41   0.00144624    1.693    0.409
        57 -11.8061    110.6040    212.1183   2.9174567465e+02   4.6829487829e+00   0.01179926  0.009179156  64.06 0.0008656677    1.467    0.319
        58 -10.8364    205.3120    110.2512   2.9003386678e+02   5.3174796549e+00   0.01381806  0.009487708  17.44  0.001036332    1.555    0.357
        59 -11.6656      7.5681    102.1227   2.9228981657e+02   6.5560032518e+00   0.01689071   0.01349871  34.16  0.001265662    1.251    0.201
        60 -12.3340    109.7095    208.2269   2.9173286427e+02   4.7333537891e+00   0.01553427   0.01303191 -15.95 0.0009196398    1.296    0.228
        61 -10.5027    144.5333     80.0653   2.9056037855e+02   6.0207157032e+00   0.01001371  0.006454191 -62.03 0.0004387838    1.537    0.349
        62 -14.4062    152.9147     55.4292   2.9031482895e+02   6.2580112098e+00   0.05516339   0.04838809  31.43 0.0009417852    1.143    0.125
        63  -9.9107    160.0082    249.0187   2.9139125980e+02   3.9683597682e+00  0.008338403  0.007099445 -61.21 0.0005585518    1.165    0.142
        64 -12.8535    168.4230     32.6356   2.8999715680e+02   6.4323517337e+00   0.01910799   0.01571658 -45.18 0.0009278984    1.212    0.175
        65 -10.8669     13.5141     59.9529   2.9196834376e+02   7.0116175326e+00    0.0118365  0.008823772  45.36 0.0004262108    1.393    0.282
        66 -10.3680    142.3985     33.0315   2.9030286023e+02   6.5788733854e+00   0.01004682  0.008593751  28.94 0.0001331896    1.172    0.146
