#   1 NUMBER                 Running object number                                     
#   2 MAG_AUTO               Kron-like elliptical aperture magnitude                    [mag]
#   3 X_IMAGE                Object position along x                                    [pixel]
#   4 Y_IMAGE                Object position along y                                    [pixel]
#   5 X_WORLD                Barycenter position along world x axis                     [deg]
#   6 Y_WORLD                Barycenter position along world y axis                     [deg]
#   7 A_WORLD                Profile RMS along major axis (world units)                 [deg]
#   8 B_WORLD                Profile RMS along minor axis (world units)                 [deg]
#   9 THETA_WORLD            Position angle (CCW/world-x)                               [deg]
#  10 FWHM_WORLD             FWHM assuming a gaussian core                              [deg]
#  11 ELONGATION             A_IMAGE/B_IMAGE                                           
#  12 ELLIPTICITY            1 - B_IMAGE/A_IMAGE                                       
         1 -13.6649    231.2247     36.3386   2.9739605728e+01   2.2774082068e+01     1.343309    0.9167449  37.43  0.007527193    1.992    0.498
         2 -11.8539      2.5016      6.2555   8.8399668681e+01   7.9440146832e+01     1.049622    0.1833129 -60.02  0.003608374    3.978    0.749
         3 -10.3294     21.6860      4.3723   6.7550623661e+01   7.7664379916e+01    0.2562906    0.1859501  77.68  0.001266006    2.638    0.621
         4 -15.8706     18.6721    195.0220   1.0746562304e+02   3.2505231614e+01     5.747327     2.010721  86.56   0.02598956    3.074    0.675
         5  -9.4294    139.4908    250.5006   8.6165001027e+01   8.6773078396e+00    0.1094938   0.07858292  29.58 -1.862235e-05    1.011    0.011
         6 -11.2000    100.3491    249.8152   9.3432283916e+01   1.3610388040e+01    0.3395701    0.1205444  32.25  0.001748056    2.120    0.528
         7 -12.8238     10.4890    230.4884   1.1038825621e+02   2.6601580308e+01    0.8049954    0.4408391  57.63  0.002200037    1.345    0.256
         8 -15.3779     13.8238    246.5369   1.1011385953e+02   2.3602107518e+01     8.844524     2.705672  21.23   0.03405467    5.381    0.814
         9 -10.0205    192.5898    193.8392   6.9167900793e+01   8.7410653664e+00    0.3454093    0.2145136 -59.72  0.001648805    3.870    0.742
        10 -11.8756     44.1352    176.1371   9.9996637525e+01   3.3781428143e+01    0.3856095    0.3204005 -11.19  0.001295883    1.735    0.424
        11 -11.5195     51.5101    170.2362   9.7539938071e+01   3.4187086318e+01    0.2895764    0.2603129  13.68 0.0007702924    1.388    0.280
        12  -8.3610    110.7152    167.3719   8.1891097988e+01   2.6092223662e+01    0.1389481   0.09891876  69.60 0.0006092586    1.708    0.414
        13 -10.7032     64.0558    160.9150   9.3153719839e+01   3.4629507646e+01    0.2554764    0.2272666  46.96 0.0003878499    1.118    0.105
        14 -12.5957     54.8651    123.0714   9.0835672801e+01   4.4961055941e+01     2.530409    0.7759548 -78.37  0.005415516    8.484    0.882
        15 -10.2671     48.4310    111.4261   9.1197246498e+01   4.8789009574e+01    0.2917767    0.2178959  65.54 0.0004538113    1.296    0.229
        16 -12.4853     73.0723    154.4331   8.9832674047e+01   3.4810120018e+01    0.7488106     0.526532  55.92  0.001830809    1.300    0.231
        17 -12.9383     68.2206    144.1290   8.9790550234e+01   3.7911262292e+01    0.9248269    0.5473394  62.99  0.002884615    1.808    0.447
        18 -13.0106     49.5142    156.9003   9.6790679908e+01   3.7457032264e+01    0.4972536    0.3822969 -33.89  0.001704278    1.827    0.453
        19  -9.9856     49.4551    222.4419   1.0187520891e+02   2.4038664651e+01    0.1966514    0.1086165 -80.63  0.001190401    2.113    0.527
        20  -9.5579     93.6642    138.6848   8.1563141838e+01   3.5084164164e+01    0.3665684    0.2593575  12.72  0.001110708    2.030    0.507
        21 -11.9678     76.9704    139.5146   8.6509976187e+01   3.7662217583e+01    0.3921909    0.3100091  71.79 0.0004489239    1.251    0.201
        22 -10.4706     89.8123    141.9909   8.3225534339e+01   3.4993334310e+01    0.3249276    0.2432913  42.21 0.0009024052    1.232    0.188
        23 -10.3988    105.2847    130.7608   7.6814090290e+01   3.4765847375e+01    0.4155615    0.3041248  37.14  0.001032545    1.348    0.258
        24  -9.5068     66.6441    125.3118   8.7333581031e+01   4.2688023132e+01    0.1595308   0.09987092  64.36 9.890486e-05    1.735    0.424
        25  -9.9642     91.0616    126.4782   8.0004676106e+01   3.8344650111e+01    0.3214208    0.2696835   0.03 0.0006882763    1.591    0.371
        26  -9.3860    103.0157    119.0608   7.4963736950e+01   3.7820402215e+01     0.217007     0.204587  56.29            0    1.041    0.040
        27 -10.5474     81.7247    214.3615   9.4252019890e+01   2.1533602877e+01    0.2946185    0.2216139 -43.78 0.0005140409    1.820    0.450
        28  -8.6936     67.4915    117.5162   8.5662452587e+01   4.4484416057e+01    0.1499139    0.1327921  71.22 -1.319612e-05    1.038    0.037
        29  -9.1679    204.4885    110.8616   5.1012077819e+01   1.8441966334e+01    0.2778959    0.1596522  34.12  0.001328352    2.058    0.514
        30 -10.6208     53.2055     90.8902   8.5389471096e+01   5.3400668359e+01    0.3482807    0.2485239 -50.79   0.00166763    1.451    0.311
        31  -9.4243     41.6273     92.1475   9.0347303575e+01   5.4653122130e+01    0.2347799    0.1819221  50.49 0.0004094494    1.271    0.213
        32 -11.8355      2.0000     82.4480   1.0627883032e+02   6.0709432532e+01     1.282073    0.1043885 -78.58  0.002896407    7.839    0.872
        33  -9.9914     13.3578     59.9536   9.7500146035e+01   6.5851356164e+01    0.2176186    0.2005614  -6.05 0.0004462734    1.233    0.189
        34 -15.0850     10.2014    204.0346   1.0974330463e+02   3.1502369707e+01     8.104256     1.067245 -84.68  0.003054091    8.749    0.886
        35 -12.6240    215.0761     48.0537   3.4095834519e+01   2.4839682114e+01    0.8398758    0.4681061 -40.45  0.004239559    1.513    0.339
        36  -8.5459     94.5488     46.5042   5.5140886017e+01   5.5318983036e+01    0.1541406    0.1454784 -82.50 8.041401e-05    1.046    0.044
        37 -11.3978     43.1652    214.1896   1.0277733686e+02   2.6236449005e+01    0.4419928    0.2808871 -33.57  0.002415867    2.966    0.663
        38 -10.2008    116.6020     24.7060   4.0118253312e+01   5.2971901763e+01    0.2978748    0.2328573 -68.34 0.0003010162    1.329    0.248
        39 -11.6431    208.3776     51.2527   3.5618216085e+01   2.5918863683e+01    0.6735193    0.2596922 -43.23  0.002761334    2.259    0.557
