#   1 NUMBER                 Running object number                                     
#   2 MAG_AUTO               Kron-like elliptical aperture magnitude                    [mag]
#   3 X_IMAGE                Object position along x                                    [pixel]
#   4 Y_IMAGE                Object position along y                                    [pixel]
#   5 X_WORLD                Barycenter position along world x axis                     [deg]
#   6 Y_WORLD                Barycenter position along world y axis                     [deg]
#   7 A_WORLD                Profile RMS along major axis (world units)                 [deg]
#   8 B_WORLD                Profile RMS along minor axis (world units)                 [deg]
#   9 THETA_WORLD            Position angle (CCW/world-x)                               [deg]
#  10 FWHM_WORLD             FWHM assuming a gaussian core                              [deg]
#  11 ELONGATION             A_IMAGE/B_IMAGE                                           
#  12 ELLIPTICITY            1 - B_IMAGE/A_IMAGE                                       
         1 -12.6355    188.2900     23.1304   7.0124382363e+01   3.4694386886e+01     1.042448    0.5301591  -5.49  0.003951307    2.805    0.643
         2 -13.7064    198.0954     13.4916   6.6122256476e+01   3.3132293671e+01      2.65125     1.451613  29.58   0.01098659    2.616    0.618
         3 -10.5529     32.8284      4.4756   1.1001751133e+02   7.4704860810e+01    0.3391648     0.153065 -43.40  0.001571148    2.060    0.515
         4 -10.2999    248.8813    241.2537   1.0900043397e+02  -4.0350240674e+00    0.2423211    0.1279312 -41.39  0.001331017    4.418    0.774
         5  -9.1434    205.3721    249.7181   1.1726982350e+02   4.9464908426e-01    0.1280108   0.08502453  -6.05 0.0006371074    1.552    0.356
         6  -8.9835    150.7394    239.5575   1.2595336981e+02   8.8967323521e+00    0.1533512    0.1107084  44.16 0.0006624393    1.353    0.261
         7  -9.6694    152.6424    243.8414   1.2606587186e+02   8.1020566063e+00    0.1892838    0.1183362 -56.29  0.001227695    2.553    0.608
         8 -10.4909    143.4069    249.4114   1.2838648717e+02   8.6505426358e+00    0.3687991    0.1669632  26.11  0.002009426    2.023    0.506
         9 -10.8850    150.1892    247.8916   1.2696157022e+02   7.9354350140e+00    0.4332873    0.1290583  35.31  0.002057574    2.351    0.575
        10 -11.2701    134.0009    249.6065   1.3017131115e+02   9.8671449072e+00    0.6594542    0.1349699  39.20  0.002710086    3.216    0.689
        11 -11.0137    121.9411    245.1994   1.3205008164e+02   1.2029185859e+01    0.5721143    0.2002814  52.35  0.002240537    4.547    0.780
        12 -11.7367    109.8398    248.5218   1.3465629005e+02   1.3140566357e+01    0.8175136    0.1879359  39.49  0.003644767    2.755    0.637
        13  -9.2778    100.9531    250.4548   1.3649938040e+02   1.3990842405e+01    0.2033956   0.09710529  39.44  0.000939918    1.429    0.300
        14 -10.7493     98.0443    246.6633   1.3676441440e+02   1.4883951011e+01    0.4252917    0.1572096  40.75  0.002335557    1.833    0.454
        15 -10.8852     87.7899    249.1872   1.3890389755e+02   1.5778061097e+01    0.3938964    0.2499834  41.38  0.002838763    1.091    0.083
        16 -10.6788     81.7874    247.1553   1.3990867124e+02   1.6788421419e+01     0.447967    0.2559906  88.58  0.002906954    2.445    0.591
        17 -10.4653     84.0957    242.1608   1.3912749530e+02   1.7249816554e+01    0.2411208    0.1813221  17.76  0.001745118    1.577    0.366
        18  -9.5716     83.2198    238.1663   1.3901855006e+02   1.7958145390e+01    0.1600733    0.1190603  37.17 0.0004300964    1.128    0.113
        19 -10.9192     87.2119    236.4938   1.3810914192e+02   1.7725068432e+01    0.4936215    0.1919255  33.77  0.002623154    1.937    0.484
        20  -9.0726     74.7765    250.5995   1.4144984701e+02   1.7105487782e+01    0.2146394   0.08065981  31.19  0.001149906    2.165    0.538
        21 -15.1750      2.4640     88.1946   1.4940401214e+02   5.7225351446e+01     20.69557     1.134148 -81.85   0.03374738   17.216    0.942
        22 -11.5656    135.3541    236.4115   1.2858454834e+02   1.1420099210e+01    0.3616338    0.2019482  41.05  0.002243798    1.376    0.273
        23 -12.0996    126.1894    240.9792   1.3083156012e+02   1.2039219068e+01    0.4073137    0.3816095 -77.15  0.002103294    1.496    0.331
        24 -11.4054     96.2625    239.3247   1.3654023106e+02   1.6171027573e+01    0.3584692    0.2778864  54.68  0.001836915    1.232    0.188
        25 -10.5464    107.9800    240.3594   1.3432660902e+02   1.4523382968e+01    0.2591861    0.1913855 -89.71 0.0004551315    1.892    0.472
        26 -11.2036     98.8928    231.4925   1.3537366930e+02   1.7014152133e+01    0.3411606    0.2668665  56.12  0.001845828    1.246    0.197
        27 -12.2234    110.5298    230.1533   1.3290135670e+02   1.5685621045e+01    0.6918149    0.2817069  35.28  0.002318149    1.809    0.447
        28  -9.5119    173.4458    240.2773   1.2177230350e+02   5.7015801397e+00    0.1992179    0.1828422  82.19  0.000909637    1.890    0.471
        29  -9.8028    156.2915    231.8443   1.2399651053e+02   9.1128064840e+00    0.2071613    0.1435053  24.63 0.0009789007    1.159    0.137
        30  -9.0395     92.5020    231.6084   1.3667299037e+02   1.7814874638e+01    0.1896841    0.1130935 -65.89  0.001217468    2.194    0.544
        31 -12.7007     45.9196    245.9905   1.4660268127e+02   2.0948933799e+01     0.590654    0.4328747  30.64  0.004661775    1.385    0.278
        32  -9.0212     83.9625    230.4483   1.3830736013e+02   1.9065650534e+01    0.1855108   0.08595509  34.35  0.001043664    1.644    0.392
        33  -9.3185    240.4795    228.9448   1.0855393518e+02  -1.9466597192e+00    0.1166658   0.09202996 -41.97 0.0008092786    2.595    0.615
        34  -8.5392    180.5594    229.4928   1.1908487170e+02   5.9849164854e+00    0.1180797   0.08486027  24.28 8.379763e-05    1.010    0.010
        35  -9.9082    142.7434    228.9378   1.2630902870e+02   1.1412656673e+01    0.1849251    0.1572518  68.15 0.0009261313    1.607    0.378
        36 -10.6218    121.1494    232.8739   1.3102956222e+02   1.3853654716e+01    0.2413331    0.1863508  31.96 0.0009942044    1.097    0.089
        37  -9.0147     79.4601    229.2880   1.3913306610e+02   1.9802506294e+01      0.13499   0.09420118  70.54 0.0006465967    1.527    0.345
        38  -9.8388    190.6987    228.2603   1.1704386533e+02   4.7101224780e+00    0.1928284    0.1312546  28.75  0.000182852    1.115    0.104
        39 -10.2961    164.9409    226.8805   1.2171212145e+02   8.5236747324e+00    0.2108166    0.1813443 -53.14   0.00122876    1.748    0.428
        40 -10.4372    136.3120    227.6013   1.2743963133e+02   1.2506995300e+01     0.204787    0.1474908  34.47 0.0009094666    1.026    0.026
        41 -10.6628     98.6474    223.1474   1.3469305484e+02   1.8350677510e+01    0.2982171    0.2099743  40.81 0.0002723826    1.059    0.056
        42  -8.8119     93.6623    217.1563   1.3519997878e+02   1.9982920026e+01    0.2442216    0.1585373  86.14  0.001479393    2.063    0.515
        43  -9.5385    132.6122    224.6947   1.2786074728e+02   1.3446259921e+01    0.2198205    0.1193045  27.54  0.001222263    1.611    0.379
        44 -10.0382    117.5153    224.5145   1.3092434933e+02   1.5586829356e+01    0.2298333    0.1764378  35.12 0.0006753362    1.049    0.047
        45  -9.0481     78.7767    223.1407   1.3881890388e+02   2.0885955250e+01     0.260882    0.1840722  63.62   0.00179936    1.376    0.273
        46 -10.2230    101.4835    241.5262   1.3569420474e+02   1.5188334814e+01    0.2443239    0.1160091 -71.15  0.001370515    3.245    0.692
        47  -8.2493    220.2614    223.6582   1.1113587398e+02   1.1685707717e+00   0.09326694   0.08143654  25.91 0.0006969682    1.592    0.372
        48  -9.9258    149.9479    222.3645   1.2409290800e+02   1.1288239041e+01    0.1829405    0.1620039   6.09 0.0002489748    1.266    0.210
        49  -8.6692    149.5502    218.5622   1.2369889284e+02   1.1878272016e+01    0.1675959     0.125603  49.16 0.0005861391    1.436    0.303
        50 -10.8433    142.0000    221.9531   1.2564184584e+02   1.2497143546e+01    0.2061967    0.1979874  55.33 0.0003208311    1.360    0.265
        51 -11.0602    142.3249    218.7133   1.2518522803e+02   1.2915530334e+01    0.4208105    0.2239952  52.76 0.0002990895    2.295    0.564
        52 -10.2200    110.5611    222.7723   1.3218434090e+02   1.6809759653e+01    0.4284817    0.1449149  41.46  0.002012295    2.179    0.541
        53  -9.5586    104.7622    222.9933   1.3340880383e+02   1.7560803284e+01    0.1944105     0.178901  50.04 0.0006570679    1.231    0.188
        54 -10.5833    105.0308    218.9981   1.3296929286e+02   1.8160297318e+01    0.2149502    0.1542025  41.31  0.001426223    1.061    0.058
        55  -8.9630    164.5211    220.5387   1.2097184483e+02   9.4104769282e+00    0.1873725    0.1048763 -26.29  0.001027876    2.447    0.591
        56  -9.4305    176.9057    218.3558   1.1826870665e+02   7.8795225974e+00    0.2667533     0.221443 -73.74  0.001431347    2.286    0.563
        57  -9.2604     89.4644    218.7895   1.3623247473e+02   2.0259470047e+01    0.2207282    0.1337903  51.25 0.0009527049    1.404    0.288
        58  -8.3005    133.7345    217.9893   1.2686316657e+02   1.4272658031e+01    0.1217846    0.1088731 -45.99 0.0004523516    1.470    0.320
        59  -9.5396     87.8173    213.6077   1.3613279779e+02   2.1344315122e+01    0.2724244    0.2085246   2.38  0.001122745    1.838    0.456
        60  -9.2127    183.2251    214.1068   1.1645287734e+02   7.4882616674e+00    0.2142125    0.1321289  48.71  0.000892447    2.009    0.502
        61  -9.2901    142.0036    213.3389   1.2458523184e+02   1.3751523415e+01    0.3061524    0.1802843  48.91  0.001718091    1.713    0.416
        62  -9.8924     41.4037    212.8165   1.4596332017e+02   2.6902377491e+01    0.4975308    0.2808132  15.64  0.002808077    2.461    0.594
        63  -9.9531    101.6226    212.1253   1.3301828774e+02   1.9752246111e+01      0.36529    0.1977958  36.93  0.002069211    1.419    0.295
        64  -8.7299    152.2927    212.0564   1.2229936654e+02   1.2399451051e+01    0.1650489    0.1371255  26.51 0.0004436521    1.096    0.088
        65  -9.6535    131.4277    211.9406   1.2662491759e+02   1.5530119886e+01    0.2279458    0.1428964  38.28  0.000429165    1.234    0.189
        66  -8.9868    134.6801    208.4980   1.2551255887e+02   1.5581957581e+01    0.2136296    0.1567614 -19.98  0.001061052    1.821    0.451
        67 -12.2584     42.8635    237.3544   1.4680896490e+02   2.2611619303e+01    0.4042924    0.2964514  20.29 0.0001522112    1.659    0.397
        68  -8.1860    197.5718    208.4202   1.1289236001e+02   6.0711591856e+00    0.1218288   0.09034043  20.24 6.284268e-05    1.003    0.003
        69  -9.9923    174.6964    206.3390   1.1697650473e+02   9.7906867466e+00    0.3164922    0.1980408 -17.22  0.001209088    2.007    0.502
        70  -9.2207     97.0058    207.5138   1.3356423154e+02   2.1167037393e+01     0.197723    0.1359973  55.02 0.0005869472    1.353    0.261
        71 -10.5283     91.8964    204.9333   1.3443888464e+02   2.2309567295e+01    0.5361194    0.2105031  34.04  0.001326259    2.050    0.512
        72  -9.8547    108.6451    203.5805   1.3058070532e+02   2.0216014614e+01    0.3209158    0.2040692 -48.28 0.0005258932    2.001    0.500
        73 -10.2529    166.2892    204.7523   1.1842842602e+02   1.1305837638e+01    0.3157788    0.2450303 -10.54  0.002043668    1.439    0.305
        74  -9.8837     45.1781    204.9652   1.4474215163e+02   2.7933142048e+01    0.3149652    0.1413839  49.66  0.001775777    1.705    0.414
        75  -8.2848    148.9672    205.2661   1.2207312286e+02   1.3907109136e+01     0.219353     0.126098  -4.57  0.000903564    3.699    0.730
        76  -9.0051    125.9655    205.5507   1.2701576338e+02   1.7352763136e+01    0.1975335   0.09853871  36.73 0.0004637341    1.560    0.359
        77  -9.8242    133.0588    202.9721   1.2515581456e+02   1.6701413300e+01    0.2179461     0.179945  10.26 0.0003194143    1.306    0.234
        78  -9.9055    134.0755    197.9558   1.2427303145e+02   1.7359550386e+01    0.2501389    0.2309854  82.14 0.0004210025    1.378    0.274
        79  -8.9105    103.5245    203.1901   1.3167465415e+02   2.1011602557e+01    0.2407883    0.1512936  19.17  0.001304672    1.858    0.462
        80  -8.6945    224.8692    202.5147   1.0704753393e+02   2.7943903000e+00    0.1657786   0.09264117  31.64 0.0004147259    1.460    0.315
        81 -10.1432    197.3519    200.8503   1.1174536511e+02   7.0428145418e+00    0.2376954    0.1408672  32.08 0.0007761798    1.347    0.258
        82 -13.4354     10.4048    206.8650   1.5213003467e+02   3.0849296397e+01     1.299466    0.9412594  23.57  0.008196897    1.580    0.367
        83  -8.6555    169.5226    200.4736   1.1713749145e+02   1.1408803627e+01    0.1279321    0.1001319  27.79 0.0002430048    1.042    0.040
        84  -9.0656    141.9469    198.2066   1.2259363366e+02   1.6092145416e+01    0.2398648     0.164394  10.02  0.001228233    1.743    0.426
        85  -9.4291    100.5744    198.1939   1.3179423129e+02   2.2309412039e+01    0.2140969    0.1690009  26.70 0.0002748285    1.246    0.197
        86  -8.3630     86.2795    199.0424   1.3512882463e+02   2.4119642146e+01    0.1547894    0.1378831  54.74 0.0003214255    1.131    0.116
        87 -13.8506     27.2469    248.3869   1.5009287719e+02   2.2425494916e+01    0.9923345    0.4183342  29.03  0.005408722    2.115    0.527
        88  -9.6459     56.7103    194.4908   1.4149842633e+02   2.8641057045e+01    0.3145006    0.1833173 -77.86  0.001860537    1.885    0.469
        89  -8.9906     52.8934    198.1019   1.4261614407e+02   2.8381557736e+01     0.169786    0.1438404  51.49 0.0005523077    1.110    0.099
        90 -11.0155     77.1911    187.8969   1.3615906044e+02   2.7419057852e+01    0.2668247    0.2345418 -38.62 0.0007301983    1.488    0.328
        91 -11.0623     72.6205    194.7574   1.3786137879e+02   2.6684844338e+01    0.4030971     0.320859 -12.61  0.001736814    1.862    0.463
        92  -9.3639     70.6957    190.1361   1.3790148868e+02   2.7811808256e+01    0.1882651    0.1640606  86.54 0.0002689338    1.238    0.192
        93  -8.3504    113.9825    196.2034   1.2852523527e+02   2.0714835144e+01    0.1834394   0.08356514  35.97 0.0008690024    1.761    0.432
        94  -9.7384    159.6179    194.2242   1.1823798553e+02   1.3903729328e+01    0.3011473    0.1813643  44.52   0.00106286    1.565    0.361
        95  -8.9885    120.8215    194.7270   1.2679597706e+02   1.9942095602e+01     0.314182    0.1350322  44.26   0.00138396    1.990    0.497
        96  -9.2251    177.5037    194.1629   1.1454216726e+02   1.1038525198e+01    0.2750473    0.1417012  22.80  0.001314965    2.026    0.506
        97  -9.6987    172.8977    192.8288   1.1526371100e+02   1.1969738608e+01    0.2995849    0.1951985 -12.19  0.001131996    1.911    0.477
        98  -8.8563     83.5734    193.3095   1.3519001546e+02   2.5543727417e+01    0.3111121    0.1933305  -2.68 0.0008777149    3.463    0.711
        99  -9.7184    191.6127    191.4462   1.1130721613e+02   9.1604050074e+00    0.2390592    0.1850008  19.53 0.0006608794    1.010    0.010
       100  -8.2781    113.0253    192.0333   1.2822873615e+02   2.1595489651e+01    0.1523428    0.1250809  39.59            0    1.012    0.011
       101  -9.1202    135.2682    190.4539   1.2297115738e+02   1.8419907616e+01    0.1839826    0.1793953  -2.31 0.0006053348    1.227    0.185
       102 -11.1365     31.9389    188.9439   1.4681684694e+02   3.2322150646e+01    0.4697762    0.2604459  77.51  0.002817047    1.713    0.416
       103 -11.0345     25.3563    184.0871   1.4808583553e+02   3.3896422009e+01     0.351769     0.236845  60.04  0.002363189    1.181    0.153
       104 -10.7617     28.2123    181.4176   1.4729363676e+02   3.4173144252e+01    0.4705549     0.103133  46.65  0.001979814    3.017    0.669
       105 -10.0910    250.3156    187.8853   1.0034929289e+02   8.1521719524e-01    0.2686732    0.1174136 -20.19  0.001415509    2.244    0.554
       106  -9.2533     44.2794    188.7330   1.4396937167e+02   3.1126082397e+01    0.2794739    0.1858665   6.34  0.001597958    2.237    0.553
       107  -9.4211    175.7706    187.0764   1.1374051694e+02   1.2340311790e+01     0.181538    0.1592373  32.83 0.0004534418    1.231    0.187
       108  -8.3888    123.9514    186.0011   1.2491597892e+02   2.0988655255e+01    0.1592488    0.1255205  36.68 0.0002907455    1.043    0.042
       109  -8.5033    142.9662    184.9688   1.2044058490e+02   1.8098079854e+01    0.1639779    0.1319293  32.06 0.0005442158    1.019    0.018
       110  -9.2549     87.2314    183.8094   1.3333361716e+02   2.6869350924e+01    0.4681038    0.1361379  33.05  0.001768676    2.949    0.661
       111 -11.8078     18.9967    250.0385   1.5160015912e+02   2.2935602424e+01    0.1961188    0.1201056  36.67  0.000348502    1.324    0.245
       112  -8.4336    217.4651    183.4310   1.0509218023e+02   6.1228600165e+00    0.1246774   0.09741848  14.49 7.241711e-05    1.044    0.042
       113 -10.3204     17.6640    180.9507   1.4971980211e+02   3.5192905907e+01    0.2909317    0.1732588 -62.59  0.001547873    1.970    0.492
       114  -8.4323    116.3090    181.6937   1.2610698570e+02   2.2973389044e+01    0.1337087   0.09103253  58.46 0.0005984245    1.612    0.380
       115  -9.5276    104.2571    180.9865   1.2889154125e+02   2.4957500466e+01    0.2051915    0.1568369  38.91 0.0002781384    1.097    0.089
       116  -9.0705    128.9234    179.5094   1.2282580730e+02   2.1353079521e+01    0.1800401    0.1732543  35.64 0.0003007801    1.157    0.136
       117  -8.7768     48.2824    179.9233   1.4242064300e+02   3.2469170773e+01    0.1600247    0.1313343  57.12   0.00036216    1.020    0.020
       118  -8.8214     37.3346    180.1454   1.4506689541e+02   3.3559708936e+01    0.1618903    0.1234905  66.97 0.0004215557    1.114    0.102
       119 -11.5586     91.4056    167.5297   1.3034495894e+02   2.9546593130e+01    0.7037045    0.4516129 -49.03  0.003710063    1.846    0.458
       120 -10.7309     72.3206    174.5719   1.3601519541e+02   3.0719894080e+01    0.3229156    0.2638963 -29.11 0.0008180899    1.670    0.401
       121  -8.9931     77.0943    175.5188   1.3491952114e+02   2.9900653772e+01    0.2067131    0.1540209  67.27  0.000369657    1.322    0.243
       122 -11.2438     12.2341    161.5026   1.5023551409e+02   3.9657335112e+01    0.2513115    0.1730127  72.82  0.001664209    1.204    0.169
       123 -11.9044     18.5648    172.2367   1.4914390282e+02   3.6897770189e+01    0.6695054    0.2377406  70.33  0.003049389    2.812    0.644
       124  -9.2415    154.6835    172.9952   1.1587651647e+02   1.8134647201e+01    0.2737591    0.1854145   9.78  0.000887441    1.783    0.439
       125 -10.2694     31.5106    171.5398   1.4596156015e+02   3.5903333938e+01    0.3377854    0.2084456 -60.79  0.001732267    1.854    0.461
       126 -10.7620     28.5264    170.4964   1.4663607640e+02   3.6397817174e+01    0.3640068    0.1512915 -76.54  0.001720492    2.344    0.573
       127 -11.1753    248.6225    172.0562   9.7763558372e+01   2.7603651400e+00    0.3754551     0.249599  24.65  0.002418945    1.298    0.230
       128  -9.7140     89.2869    176.2974   1.3197113232e+02   2.8067365785e+01    0.2202757    0.1570929 -30.02 0.0007997016    2.031    0.508
       129  -9.4132     68.8774    168.2660   1.3623475053e+02   3.2479487721e+01    0.3401444    0.1558524 -60.59 0.0007782924    2.337    0.572
       130 -10.0161     43.7853    169.4850   1.4276194533e+02   3.5124103552e+01    0.3065661    0.2389203   0.06  0.001007049    1.777    0.437
       131  -9.1573    107.3407    168.4672   1.2642842030e+02   2.6928121699e+01    0.2329502    0.1206156  32.97 0.0007957637    1.752    0.429
       132  -9.7578     85.0094    165.7938   1.3177308911e+02   3.0830859536e+01    0.3330747    0.1892086 -67.18 0.0009487282    1.976    0.494
       133 -15.0947      8.3350    245.2220   1.5336595301e+02   2.4605738720e+01     1.516603     1.262677 -47.14    0.0132309    2.005    0.501
       134  -8.9556    175.9373    166.3161   1.1004810470e+02   1.5475305493e+01    0.1930083    0.1528801  29.74 0.0003780117    1.087    0.080
       135 -11.3368    245.0468    162.4547   9.6515077884e+01   4.3832392564e+00    0.2881118    0.2171656  -3.86  0.001904467    1.083    0.076
       136  -9.4484     80.4921    163.4930   1.3266663193e+02   3.1951126714e+01    0.2269316    0.1878466  46.91 7.519725e-05    1.049    0.047
       137 -10.9855     23.3358    164.2595   1.4758648817e+02   3.8179162745e+01    0.3257926     0.154831  30.73  0.001762447    1.923    0.480
       138  -9.0831     47.0546    163.3160   1.4143625996e+02   3.6104525368e+01    0.1765728    0.1345709  49.12 0.0003055604    1.125    0.111
       139  -8.6932     36.7859    162.6139   1.4405197635e+02   3.7307292499e+01    0.1725058   0.09100611  41.84 0.0007230461    1.594    0.373
       140 -10.7433     23.5384    149.0572   1.4666314693e+02   4.1498329221e+01    0.4123548    0.1130682 -73.36  0.001670856    3.211    0.689
       141 -11.1864     33.8811    160.0644   1.4462930646e+02   3.8141629279e+01    0.4239714    0.2858431 -65.66  0.002491834    1.582    0.368
       142 -12.0361     23.2112    155.1972   1.4711703089e+02   4.0159006993e+01    0.5114825    0.2982782  31.43 0.0004113061    1.637    0.389
       143 -11.4592    242.9384    155.1867   9.5432238939e+01   5.5661737159e+00      0.47874    0.2691277  46.33  0.002585931    2.077    0.519
       144 -10.8052     85.3746    176.0456   1.3291343109e+02   2.8667891393e+01     0.298367    0.2690879  27.41 0.0005113065    1.199    0.166
       145  -9.5668     59.1316    159.7253   1.3791268573e+02   3.5524004672e+01    0.1984341     0.153713  69.49 0.0003091119    1.200    0.167
       146  -8.2543    171.4255    159.5105   1.0972047685e+02   1.7388391081e+01    0.1387366    0.1204329  23.24 0.0001551033    1.039    0.038
       147  -8.7669    119.8439    159.1161   1.2182021046e+02   2.6741275696e+01    0.2021459    0.1696584  56.15 0.0002400124    1.210    0.174
       148  -9.6260    182.2733    176.9357   1.1066835745e+02   1.2746741034e+01    0.2279974    0.1648146  29.47 0.0006893026    1.151    0.131
       149  -8.5721     52.5153    158.4690   1.3956245748e+02   3.6567017457e+01    0.1258886    0.1111679  60.63  5.77069e-06    1.049    0.047
       150  -9.1537     73.8917    156.9806   1.3362846039e+02   3.4259781245e+01    0.4454203    0.1677114  32.10  0.001415784    2.429    0.588
       151  -8.8880    134.4901    155.9835   1.1761501520e+02   2.4786275362e+01    0.1926489    0.1434724 -48.46 0.0003835744    1.529    0.346
       152 -10.8143     33.0257    154.0138   1.4443133387e+02   3.9558240315e+01    0.3751574    0.2420683 -39.06  0.001516359    2.177    0.541
       153  -8.8467    113.9906    152.5241   1.2221786903e+02   2.9078016851e+01     0.201556    0.1910411 -58.28 0.0004812081    1.182    0.154
       154 -11.1024    249.4619    149.5235   9.3286063850e+01   5.2133879269e+00    0.3847021    0.2293649 -36.11  0.002169708    1.858    0.462
       155  -9.6257    103.1667    151.1028   1.2485534908e+02   3.1182212637e+01    0.2816986    0.2476973 -48.93 0.0009613284    1.278    0.217
       156  -8.9602    105.8528    146.2658   1.2332108563e+02   3.1773707177e+01    0.2626357    0.1789666 -26.92  0.001218168    2.073    0.518
       157  -8.3164     62.2697    152.3025   1.3626423815e+02   3.6793730811e+01    0.1199325    0.1001103 -33.69 0.0001963195    1.530    0.346
       158  -9.4008     55.8048    150.4532   1.3786115234e+02   3.7984451896e+01    0.2685466    0.1386498  49.55  0.001178212    1.767    0.434
       159 -12.3537     67.3744    143.6308   1.3376943950e+02   3.8120552944e+01    0.8502936    0.5617428  76.03  0.004359517    1.679    0.404
       160 -10.3274    133.3942    142.1570   1.1526365086e+02   2.7701359491e+01    0.6775875    0.2744551 -53.01  0.002472972    3.001    0.667
       161  -9.1678    236.0512    146.3257   9.4754845294e+01   7.7698707503e+00    0.2513657   0.09786787  37.64  0.001102134    2.489    0.598
       162 -11.0831     74.4217    138.6943   1.3103393485e+02   3.8313555824e+01    0.5809563    0.4122401 -82.18  0.001947737    1.524    0.344
       163 -11.3669     32.6290    141.8371   1.4361739926e+02   4.2359364840e+01    0.5286189    0.1738207 -71.74  0.002046224    2.759    0.638
       164 -11.7714    248.4024    133.9124   9.0243453569e+01   7.2538232042e+00    0.7257465    0.5253857 -35.87  0.004405766    1.540    0.350
       165 -11.0135    247.8469    141.5614   9.1917419444e+01   6.4182138088e+00    0.7022875    0.2396346  37.17  0.002959972    3.005    0.667
       166 -10.8864     27.1613    141.1668   1.4512725436e+02   4.2991934908e+01    0.3759069    0.1709274  66.78  0.001675115    2.230    0.552
       167  -8.3217     53.7060    140.3164   1.3734776865e+02   4.0557826321e+01     0.139751   0.08716606  62.44  0.000323582    1.602    0.376
       168  -8.8330     36.6319    140.3064   1.4233552775e+02   4.2343683629e+01    0.1421208   0.07673567  57.49 0.0007035552    1.753    0.429
       169  -8.8216    119.0720    138.6382   1.1833418997e+02   3.1086376707e+01    0.2093241     0.166838  37.93 0.0003726384    1.146    0.127
       170  -9.8522     60.9186    137.6083   1.3488612568e+02   4.0335310847e+01    0.2494967    0.2074834  47.29 0.0005495528    1.118    0.105
       171 -10.2237     59.0629    133.4864   1.3491120641e+02   4.1533627134e+01    0.2920245    0.1856824 -75.82 0.0007419222    1.590    0.371
       172  -9.9647     49.2477    138.2260   1.3842917705e+02   4.1545235751e+01    0.4549515    0.1667151  21.07  0.001687518    3.454    0.711
       173  -9.8525    112.7699    136.3078   1.1960519833e+02   3.2722702824e+01    0.3544168    0.2841831  12.67   0.00105738    1.441    0.306
       174  -8.9285     87.8082    133.1703   1.2619680503e+02   3.7617892652e+01     0.198729    0.1743819  61.35 0.0002507285    1.099    0.090
       175 -10.9740     44.3501    129.5993   1.3895770840e+02   4.4110345351e+01    0.4232212    0.2494636 -73.39  0.001795185    1.622    0.383
       176  -8.2941    136.6855    134.2788   1.1279548140e+02   2.8647508176e+01    0.1448445    0.1144176  67.66 0.0001629995    1.569    0.363
       177 -10.1250     66.3068    128.0597   1.3191851309e+02   4.1911244347e+01    0.3173007    0.1939645 -69.69  0.001266876    1.661    0.398
       178  -8.4929     85.8011    126.8904   1.2569730259e+02   3.9386824488e+01    0.1982182    0.1860672   3.59 0.0003106692    1.196    0.164
       179  -9.5719    209.7652    125.7585   9.4814020067e+01   1.5338111138e+01    0.2375465    0.2173998  -6.55 0.0005006879    1.123    0.110
       180 -11.0766     32.7599    126.9854   1.4228467302e+02   4.5844065718e+01    0.3412019    0.2198382  71.38  0.001201365    1.494    0.330
       181  -8.8269    124.8264    125.6272   1.1407031393e+02   3.2755624298e+01    0.2081025    0.1317489  48.47 0.0001336645    1.558    0.358
       182 -11.4952    247.8940    101.0031   8.3090903518e+01   1.1418321276e+01    0.8113926    0.3743012 -19.51  0.003624406    2.203    0.546
       183 -10.7390    245.0807    121.5208   8.8078932818e+01   9.3510712033e+00      0.43303    0.3465632  60.81  0.002624017    1.754    0.430
       184 -10.1922    249.2123    117.8980   8.6687260248e+01   9.0828164090e+00    0.2965488    0.2137927  -7.95 0.0009863672    1.234    0.189
       185 -11.2005    248.2788    112.9224   8.5722034443e+01   9.8632632826e+00    0.4961255    0.3708809  11.49  0.002993361    1.301    0.232
       186  -8.4980    114.6224    122.8396   1.1632031385e+02   3.5318493523e+01    0.1908071    0.1446238 -66.37 0.0001738907    1.540    0.350
       187  -8.4474    107.6413    130.3022   1.1987370677e+02   3.4952026880e+01    0.1549507     0.109401  65.43 0.0007037939    1.718    0.418
       188 -10.4810     20.4741    120.8356   1.4560597982e+02   4.8302241239e+01    0.2119175    0.1757284  30.79 0.0006861421    1.306    0.234
       189 -11.1026     32.2970    116.7619   1.4141419426e+02   4.8358578969e+01    0.4010559    0.2203504 -66.77  0.002039118    1.672    0.402
       190 -12.4270     49.1297    228.4617   1.4517660969e+02   2.3403133429e+01     0.685674    0.4471011  12.03  0.001884914    2.232    0.552
       191  -9.7400     70.0492    111.0951   1.2786683047e+02   4.5505673443e+01    0.2094747    0.1992868  72.87 0.0002984665    1.005    0.005
       192  -9.7377     55.5819    111.2101   1.3281788490e+02   4.7352059940e+01    0.2102622    0.1693046  20.82 0.0005498343    1.371    0.271
       193  -9.3141     72.9631    115.0529   1.2762427210e+02   4.4130359508e+01    0.2078193    0.2012166  58.95  0.001220569    1.045    0.043
       194  -9.3007    134.4727    105.0609   1.0647662637e+02   3.5076337452e+01    0.2378652    0.1550053 -42.80  0.001037457    1.608    0.378
       195  -9.8931    168.2876    113.4193   1.0024270748e+02   2.6021483533e+01    0.3375501     0.273893  74.36  0.001128315    1.646    0.393
       196  -8.8887    102.0122     88.0269   1.1157952289e+02   4.5574744902e+01    0.2210132    0.2202989  31.91            0    1.022    0.021
       197 -13.9065     57.9933    217.3107   1.4274713930e+02   2.4324414844e+01     2.567995     1.703257 -79.84   0.01760183    1.732    0.423
       198 -10.0910    247.6158    248.0846   1.1014854401e+02  -4.4554450057e+00     0.192002   0.08425381 -25.04  0.001249437    2.432    0.589
       199 -10.9530    146.0167    240.8989   1.2700231347e+02   9.3711784983e+00    0.2687699    0.2113575  34.85 0.0005462905    1.147    0.128
       200  -8.5188    158.2086    241.9853   1.2481209835e+02   7.5742889800e+00    0.1127534    0.0919994 -34.37 0.0005165944    1.658    0.397
       201 -10.8972    135.5194    241.6082   1.2909042994e+02   1.0702173994e+01    0.2587728    0.1534822  46.35  0.001658985    1.513    0.339
