#   1 NUMBER                 Running object number                                     
#   2 MAG_AUTO               Kron-like elliptical aperture magnitude                    [mag]
#   3 X_IMAGE                Object position along x                                    [pixel]
#   4 Y_IMAGE                Object position along y                                    [pixel]
#   5 X_WORLD                Barycenter position along world x axis                     [deg]
#   6 Y_WORLD                Barycenter position along world y axis                     [deg]
#   7 A_WORLD                Profile RMS along major axis (world units)                 [deg]
#   8 B_WORLD                Profile RMS along minor axis (world units)                 [deg]
#   9 THETA_WORLD            Position angle (CCW/world-x)                               [deg]
#  10 FWHM_WORLD             FWHM assuming a gaussian core                              [deg]
#  11 ELONGATION             A_IMAGE/B_IMAGE                                           
#  12 ELLIPTICITY            1 - B_IMAGE/A_IMAGE                                       
         1 -14.6052     68.3574    144.2624   1.0413396329e+02   3.7420984696e+01      4.99042     2.681293  72.44  0.008288421    3.994    0.750
         2 -12.7429    215.5328     28.3732   4.0749102890e+01   2.8341253410e+01    0.5043046    0.4417885  46.15  0.001036203    1.448    0.309
         3 -14.0675    222.9486     20.8561   3.8504607481e+01   2.7647796800e+01     1.060444    0.9129931  46.79  0.004038551    1.522    0.343
         4 -13.7335    198.4204     42.3259   4.5725232872e+01   3.0354963646e+01      1.24298    0.9267542  29.54  0.002823038    1.866    0.464
         5 -14.1993    207.2787     36.2886   4.3330766097e+01   2.9165999386e+01     1.497317     1.263875 -10.10  0.006525632    1.513    0.339
         6 -12.1738    245.6087      2.3540   3.3379771193e+01   2.5157258997e+01    0.5474842    0.2193036  81.28  0.003002542    2.478    0.596
         7 -10.3334      2.7286      3.0060   9.2433299437e+01   7.6146826775e+01    0.2515826     0.131153 -24.23  0.001415372    1.707    0.414
         8 -10.6451     49.2671      3.0995   6.3837679331e+01   6.9312110382e+01    0.2815665    0.1762001  59.88   0.00123459    1.959    0.490
         9 -10.1202     44.9770      1.4699   6.4800488752e+01   7.0287173470e+01    0.2719561    0.1168808  55.01  0.001171144    2.608    0.617
        10 -13.1818     35.0354    204.5815   1.2101903183e+02   2.6540916581e+01    0.4620641    0.3984284 -37.67  0.001348432    1.414    0.293
        11 -12.9599     64.9751    174.8454   1.0994865314e+02   3.0168756381e+01     1.359273    0.6113244 -30.11  0.003862401    5.410    0.815
        12 -15.3711    121.5700    229.8253   1.0295379647e+02   1.0354778032e+01     11.00044     1.091239  34.19   0.02770212    6.194    0.839
        13 -15.1883     44.6527    194.6563   1.1774165120e+02   2.7809081068e+01     2.604012     1.505088  65.11  0.009510485    1.895    0.472
        14  -9.7616    110.0074    201.2759   1.0170243939e+02   1.7707239656e+01    0.1929342    0.1667922  27.41 0.0001840358    1.043    0.041
        15 -11.0818    193.2126    195.0224   8.1387306183e+01   5.9786724507e+00    0.8852022    0.5027441 -62.62  0.002696456    6.680    0.850
        16  -9.4483     79.7620    183.5464   1.0704329284e+02   2.6098217815e+01    0.2046063    0.1216626  41.60 0.0009375475    1.597    0.374
        17 -10.2000    150.6958    179.1567   8.7770350402e+01   1.5782590632e+01    0.4456426    0.2602945 -64.48  0.001564071    3.016    0.668
        18  -9.5697     99.2157    180.9955   1.0134868665e+02   2.3851113548e+01    0.2234855    0.1913817 -15.42 0.0009127999    1.268    0.212
        19 -10.0132    144.1414    179.1791   8.9363569080e+01   1.6892999788e+01    0.2937583    0.1921445 -39.94  0.001303415    1.559    0.358
        20 -13.3326     86.4398    225.9990   1.1068223823e+02   1.5885494661e+01    0.9744805    0.4181522 -56.19  0.002924162    2.565    0.610
        21 -13.5939     64.4959    158.5735   1.0772509477e+02   3.4289355869e+01    0.6049548    0.4471318 -41.13  0.001548863    1.438    0.305
        22 -12.6728     84.4318    155.9303   1.0126089279e+02   3.2142881504e+01     1.322336    0.6596259 -51.41  0.001755623    1.977    0.494
        23 -12.3253     77.3048    162.1033   1.0445321784e+02   3.1655585551e+01    0.6376517    0.4880139 -51.94  0.001956523    1.316    0.240
        24 -15.9570      8.4880    239.8432   1.2896930449e+02   2.1637780116e+01     6.374516     1.689097 -73.78   0.02860832    3.602    0.722
        25 -11.8451     32.3613    155.9022   1.1711597481e+02   3.8565678415e+01    0.5037559    0.3843712  28.77  0.002800516    1.368    0.269
        26  -9.1537     72.9859    172.7153   1.0736643242e+02   2.9635777410e+01    0.1907397    0.1771963  34.74 0.0002474904    1.049    0.047
        27 -10.7591    134.0000    146.0533   8.5071704794e+01   2.5884322398e+01    0.6745751    0.1985776 -50.75  0.001915424    3.865    0.741
        28  -9.7966    174.9839    148.9742   7.5854516290e+01   1.7476549963e+01    0.2189009    0.1892817 -88.39 0.0007419434    1.675    0.403
        29 -11.1261     32.3974    143.9861   1.1566247328e+02   4.1627573322e+01    0.4026751    0.3061727  57.46   0.00217678    1.384    0.277
        30 -10.3679     98.6426    141.7023   9.4155521563e+01   3.3360167627e+01    0.3371554    0.2725441 -34.59 0.0008803279    1.268    0.212
        31  -9.7631    101.3473    138.9626   9.2742065379e+01   3.3557682368e+01    0.4500519    0.2314926 -36.71  0.001130232    2.291    0.564
        32 -12.3691     86.6095    140.6698   9.7649780830e+01   3.5611640832e+01    0.3126318    0.2737701 -31.08 0.0006126215    1.161    0.138
        33 -10.8249     46.3322    134.9902   1.0977847143e+02   4.2560210386e+01    0.2462586    0.2139671  27.79 0.0006913943    1.205    0.170
        34  -9.8866     27.2740    135.2701   1.1620575097e+02   4.4342747728e+01    0.1895862    0.1509991  64.48  0.001041664    1.333    0.250
        35 -10.9785    107.5981    130.9032   8.9017048140e+01   3.4365955827e+01    0.6292855    0.3438944  33.09  0.002493567    1.852    0.460
        36 -13.5788     19.8680    220.3157   1.2561521730e+02   2.4569954956e+01    0.7843264    0.5493782  49.23  0.003403362    1.203    0.169
        37 -10.4040    135.6569    128.4535   8.0483343329e+01   2.9450599183e+01      0.42562    0.1907524 -48.07  0.001523482    2.314    0.568
        38  -9.8267    137.5345    168.2514   8.8872404613e+01   2.0352997975e+01    0.2501147    0.2394494 -44.97   0.00138556    1.172    0.147
        39 -11.3771     96.7422    127.1318   9.1468568243e+01   3.7242695022e+01    0.3346822    0.2728302 -11.71 0.0008872873    1.363    0.266
        40 -10.1171     28.7020    128.0251   1.1473315849e+02   4.6107580895e+01     0.197647    0.1658572 -69.70 0.0003269271    1.097    0.089
        41  -9.7089    116.2419    125.1400   8.5059371961e+01   3.4068682530e+01    0.2730739    0.1694921  -9.92 0.0009425755    2.829    0.647
        42 -10.6529     43.7434    122.5448   1.0855520414e+02   4.6084292971e+01    0.2768889    0.1551307 -52.01 0.0005638925    1.630    0.387
        43  -9.2806    135.0000    119.9464   7.8516602311e+01   3.1433637447e+01    0.2582138   0.08848092 -44.29 0.0007808558    2.911    0.656
        44  -9.8229    106.8276    119.5363   8.6467340405e+01   3.7191505617e+01    0.2360886    0.2038558 -27.38 0.0003698221    1.166    0.142
        45 -11.7019     23.0581    117.9197   1.1526560484e+02   4.9195584543e+01    0.3637174    0.2896055  61.74  0.002025236    1.400    0.286
        46  -9.4466    168.0358    113.0128   6.8820117503e+01   2.5848601748e+01    0.2414126     0.187778 -75.44  0.001131657    1.782    0.439
        47  -9.6857    134.8424    112.6271   7.6646448131e+01   3.3030987532e+01    0.3052764     0.111127 -41.32 0.0009766642    2.771    0.639
        48 -10.1208    205.3759    110.3297   6.1091955563e+01   1.8704247022e+01    0.3036433    0.2253497  31.25  0.001239484    1.558    0.358
        49  -9.3774     82.5824    117.0098   9.3681972197e+01   4.2155609932e+01    0.2682104    0.1973835  54.59 0.0008645119    1.613    0.380
        50 -10.9310     33.8947    160.3228   1.1715890427e+02   3.7296330945e+01    0.2998537    0.1636972  49.66  0.001383835    1.899    0.473
        51  -9.4661    134.4930    105.5042   7.4816405083e+01   3.4597129310e+01    0.2926783    0.1451301 -52.31  0.001042829    2.425    0.588
        52 -12.4400    242.8068     99.7023   5.3351050491e+01   1.3548169298e+01     0.354354    0.3312874   5.89  0.002481595    1.244    0.196
        53 -10.6709     53.3047     91.2855   9.8040705085e+01   5.2855377252e+01    0.3834701    0.2097803 -60.60  0.001524279    1.936    0.483
        54  -8.4712     88.3279     92.6644   8.5151608961e+01   4.6889183347e+01    0.1546897    0.1260741  79.49 0.0007051859    1.724    0.420
        55  -9.9226     41.7400     92.0054   1.0298664201e+02   5.4083283390e+01    0.2295991    0.2020176   3.91 0.0004552729    1.159    0.137
        56 -11.6577    245.5641     87.8106   5.0546969616e+01   1.4804578872e+01    0.3088242    0.2097105   3.76  0.001617064    2.496    0.599
        57 -11.2757    249.9938     87.2468   4.9935865314e+01   1.4128424912e+01    0.3634159    0.1167954 -38.22  0.001454024    2.432    0.589
        58  -9.4219    234.3165     86.3055   5.1549739477e+01   1.7015879794e+01    0.1191975   0.09545032   1.57 0.0003326653    1.627    0.385
        59  -9.3134     73.0923     83.8587   8.8058384389e+01   5.1589475427e+01    0.2207043     0.200439  61.31  0.000670898    1.336    0.252
        60  -9.4620    160.1674     81.8887   6.2211106595e+01   3.3278080081e+01    0.2012663     0.174942  10.99 0.0005054915    1.304    0.233
        61  -8.9386    150.8434     82.6233   6.4401617526e+01   3.5308341465e+01    0.2055884    0.1420747  65.16 0.0005161677    1.652    0.395
        62 -10.9780    242.8359     78.1662   4.8841627115e+01   1.6644916529e+01    0.1613218    0.1394735 -13.88 0.0006611416    1.345    0.256
        63  -9.3055     91.0884     66.1824   7.5632213455e+01   5.1817106587e+01    0.2400711    0.1751436  67.68  0.001072934    1.956    0.489
        64  -9.3071     47.8853     62.2060   9.1610797160e+01   6.0203200045e+01    0.1936108    0.1840116  15.89 0.0003407227    1.203    0.169
        65 -10.7074     13.5281     59.8261   1.0796182422e+02   6.4239897301e+01    0.2336763    0.2031824 -26.86 0.0003802722    1.073    0.068
        66 -15.7218      4.2866    182.4042   1.2710421400e+02   3.4335123629e+01     8.711083    0.6456131 -75.97  0.001807548    7.885    0.873
        67 -10.2017     60.1942    198.0073   1.1407218747e+02   2.5253676632e+01     0.222352     0.174987  39.95 0.0003385966    1.166    0.142
        68 -15.4528     53.5760    246.8400   1.1998345450e+02   1.5796238473e+01      4.77022     1.063784  25.14   0.01002794    6.002    0.833
        69  -9.2850    197.5178    222.9957   8.5460743667e+01   8.8089960080e-01    0.1719023    0.1138076 -32.79 0.0006122129    1.514    0.340
        70  -9.8273    136.9017     43.1068   5.5335078339e+01   4.4827381940e+01    0.2137888    0.1826717 -81.05  0.000412213    1.277    0.217
        71 -10.0714    139.2635     37.2215   5.2986482734e+01   4.5001017453e+01    0.2729707    0.2107579 -83.20 0.0004650421    1.464    0.317
        72  -9.2304    136.3135     34.6923   5.2727072543e+01   4.6038313921e+01    0.1933629    0.1393894 -37.58 0.0003604841    1.478    0.323
        73  -8.4845    115.5127     31.4531   5.5949649133e+01   5.1537946280e+01    0.1410303    0.1266802  52.31 0.0001191457    1.009    0.009
        74 -10.0323    189.6841     15.0504   3.9947501344e+01   3.5386938483e+01    0.1706682    0.1488008 -61.05 0.0005816918    1.099    0.090
        75 -10.3573    208.5418    197.0124   7.8730329186e+01   3.4191676911e+00    0.1921609    0.1144249 -34.80 0.0004143014    1.574    0.365
        76 -15.0133      9.4352    207.3998   1.2725819388e+02   2.8256722037e+01     2.073982      1.20322 -42.98   0.01045051    2.357    0.576
        77 -11.8544    184.8367    216.3458   8.6906323446e+01   3.6572916842e+00    0.3594783    0.3084043  57.08  0.002156006    1.882    0.469
