#   1 NUMBER                 Running object number                                     
#   2 MAG_AUTO               Kron-like elliptical aperture magnitude                    [mag]
#   3 X_IMAGE                Object position along x                                    [pixel]
#   4 Y_IMAGE                Object position along y                                    [pixel]
#   5 X_WORLD                Barycenter position along world x axis                     [deg]
#   6 Y_WORLD                Barycenter position along world y axis                     [deg]
#   7 A_WORLD                Profile RMS along major axis (world units)                 [deg]
#   8 B_WORLD                Profile RMS along minor axis (world units)                 [deg]
#   9 THETA_WORLD            Position angle (CCW/world-x)                               [deg]
#  10 FWHM_WORLD             FWHM assuming a gaussian core                              [deg]
#  11 ELONGATION             A_IMAGE/B_IMAGE                                           
#  12 ELLIPTICITY            1 - B_IMAGE/A_IMAGE                                       
         1 -15.0056    168.4097     46.0901   6.9329423791e+01   3.7259301092e+01     1.443795     1.150869   0.70  0.004076561    1.374    0.272
         2 -15.2807    188.8312     12.5187   5.5515567535e+01   3.5826929938e+01     2.831993     1.403816  67.38  0.008280913    1.888    0.470
         3 -13.9232    102.9072    240.0104   1.2460240712e+02   1.4881552297e+01    0.5283344    0.2385809 -55.49  0.003050174    2.809    0.644
         4 -19.6881     67.7339    160.1614   1.2377709734e+02   3.4137578737e+01      16.0335     6.564592 -70.34   0.06995074    2.630    0.620
         5 -12.9266    107.8520    203.6612   1.1990696941e+02   2.0093539169e+01     0.310416    0.2538321 -49.87  0.001150736    1.480    0.324
         6 -12.2387    104.3012    202.6750   1.2053650751e+02   2.0780113111e+01    0.2071685    0.1889431  71.83 0.0005908041    1.152    0.132
         7 -12.2843     11.5398    206.0512   1.3936870573e+02   3.0780499002e+01    0.2279616    0.1430061  36.70  0.001475122    1.550    0.355
         8 -10.9162    135.0813    240.9374   1.1873839702e+02   1.0324958687e+01    0.1510665    0.1181856  29.76            0    1.160    0.138
         9 -10.7612    149.8812    195.1125   1.0989951844e+02   1.4985255440e+01    0.1995725    0.1600974  53.29 0.0008482338    1.330    0.248
        10 -12.0292    156.6076    190.1726   1.0771112822e+02   1.4667315229e+01     0.249937    0.2017531  21.19 0.0003659235    1.158    0.137
        11 -11.6866    147.8547    184.7749   1.0870304508e+02   1.7058464334e+01    0.2403197    0.2091935  35.02  0.000715228    1.036    0.034
        12 -12.3635    151.3188    189.4094   1.0870601767e+02   1.5687423837e+01    0.4256263    0.2112962 -56.89  0.001879924    2.955    0.662
        13 -12.5721    153.4796    184.4458   1.0743898623e+02   1.6152360189e+01    0.2962851    0.2810863 -70.11 0.0009066541    1.314    0.239
        14 -12.9182    215.8723    186.2593   9.5254076963e+01   5.1460449787e+00    0.3914044    0.2316732 -11.82  0.002035324    1.894    0.472
        15 -12.5321    165.2252    187.1387   1.0540525679e+02   1.3685943668e+01    0.3901303    0.1848796  41.58  0.001124172    1.838    0.456
        16 -12.3916    174.5966    184.6128   1.0302857307e+02   1.2461436959e+01    0.3596335    0.1620444 -49.49  0.001514378    3.069    0.674
        17 -10.2430    151.1489    238.9604   1.1553753090e+02   8.2848619279e+00     0.198862    0.1237123  18.61  0.001182821    1.823    0.451
        18 -10.9159    238.7990    185.1670   9.0959537462e+01   1.5732164546e+00    0.1786957    0.1196743   7.78 0.0006787066    1.310    0.237
        19 -11.8276    169.1662    183.5079   1.0396092275e+02   1.3584853211e+01    0.2213987    0.1731624   4.25  0.001029914    1.352    0.260
        20 -11.7584     29.6246    183.4006   1.3462170442e+02   3.3450958338e+01    0.2125488    0.1374277  53.46 0.0009880331    1.306    0.235
        21 -11.5751    162.9557    181.6561   1.0494575743e+02   1.4973443466e+01    0.2466881    0.2038064 -46.37  0.001469042    1.451    0.311
        22 -10.4538     23.5940    182.7433   1.3584323107e+02   3.4131743956e+01   0.09668149   0.08183334 -33.34 0.0006953856    1.724    0.420
        23 -11.5835    125.2943    237.4579   1.2019237343e+02   1.2198599948e+01    0.1565116    0.1385682 -71.55 0.0006785325    1.465    0.317
        24 -13.0958    124.9905    172.0665   1.1175322795e+02   2.3231289601e+01    0.6058779    0.4270627  82.44  0.002617328    2.120    0.528
        25 -14.2600    140.3395    174.1545   1.0860066564e+02   2.0229112876e+01    0.9438061    0.6167212  67.00  0.004398562    2.325    0.570
        26 -14.4590    140.9298    169.3383   1.0763886878e+02   2.1010519013e+01     1.271465     0.437066  45.11 0.0005008248    2.784    0.641
        27 -13.1627    189.3785    178.3932   9.8897244075e+01   1.0818737372e+01    0.5567164    0.4518213 -45.41  0.001251273    1.580    0.367
        28 -12.0948    168.5679    177.6224   1.0304536115e+02   1.4646389906e+01    0.3940216    0.2182426  56.18  0.001680603    2.596    0.615
        29 -11.3617    225.2085    176.1688   9.1638741541e+01   4.9154299414e+00    0.1627865    0.1512714  -0.60 0.0007568805    1.354    0.261
        30 -11.0606     11.0910    174.4361   1.3799375550e+02   3.6831121972e+01    0.1400427    0.1115779  77.05 0.0004006423    1.040    0.039
        31 -11.5142    194.9707    172.6745   9.6695144760e+01   1.0684596323e+01    0.3261239    0.2052193 -39.86  0.001523085    1.817    0.450
        32 -10.6811    207.8629    171.7982   9.4008929359e+01   8.5115636214e+00    0.2411438    0.1781676 -42.53  0.001050892    1.716    0.417
        33 -10.9237    160.4800    236.5342   1.1351335523e+02   7.2394804968e+00    0.1782087    0.1168901 -42.65 0.0006336782    1.986    0.496
        34 -11.0980     35.9237    168.7907   1.3218649124e+02   3.5817865496e+01    0.2701615      0.16746  65.91  0.001654331    1.477    0.323
        35 -11.2403    218.4661    220.4973   1.0064163951e+02   5.4146985499e-01    0.2707139    0.1089433 -37.69  0.001339289    3.069    0.674
        36 -12.6532    188.5056    174.0201   9.8250057100e+01   1.1642609553e+01    0.8118972    0.4428066 -56.56  0.002968891    3.793    0.736
        37 -10.4914     24.5235    165.4087   1.3451496403e+02   3.7568468758e+01    0.1554349    0.1331517 -10.96 0.0008087104    1.671    0.402
        38 -10.5438     13.7352    163.3899   1.3680233659e+02   3.8875399412e+01    0.2272984    0.1566502  37.26 0.0001959151    1.494    0.331
        39 -11.5267      3.9589    178.8210   1.3967573240e+02   3.6508045019e+01    0.2010876    0.1392777  75.67  0.001022696    1.125    0.111
        40 -10.7323     22.9037    219.6446   1.3789025680e+02   2.7372624311e+01    0.1855114    0.1104148 -66.13  0.001313877    1.938    0.484
        41 -11.6942    188.3042    154.1599   9.4314801561e+01   1.4834322867e+01    0.6606928    0.3337479  37.05  0.002905129    1.839    0.456
        42 -11.8608    163.5096    151.4835   9.9098215152e+01   2.0100357388e+01    0.2818819    0.2484736  59.55 0.0007734746    1.335    0.251
        43 -11.0583    174.6228    149.0555   9.6132265960e+01   1.8359955850e+01       0.2592    0.2251792  40.12 0.0006018416    1.168    0.144
        44 -12.4869    161.2543    128.2716   9.4473658130e+01   2.4840171045e+01    0.5993303    0.4393901 -82.63  0.002553061    2.444    0.591
        45 -11.7133    168.4041    113.4317   8.9173735737e+01   2.6063043517e+01    0.4000745    0.3225749 -81.64 0.0009219807    1.837    0.456
        46 -10.9949    231.3483    113.7487   7.6990737704e+01   1.2498498667e+01    0.2566496    0.2264275  10.30 0.0007911087    1.066    0.062
        47 -11.0020    205.4570    110.1680   8.0668171871e+01   1.8454242887e+01    0.3189818    0.2003276  37.94 0.0009513702    1.586    0.370
        48 -10.6278     98.4712    247.9555   1.2608706022e+02   1.4290680566e+01    0.1164245   0.09954692  77.66 0.0003567214    1.322    0.244
        49 -10.5979    143.2490    208.4304   1.1319781548e+02   1.3914266886e+01    0.2412996    0.1031562  35.54    0.0011224    1.986    0.497
        50 -11.1090    113.2964    207.3118   1.1920510465e+02   1.8667336307e+01     0.217221     0.160538  51.40  0.000735194    1.202    0.168
        51  99.0000    112.9488    195.3692   1.1780571386e+02   2.0811305940e+01      1.18539    0.7461396  -7.65  0.005002187    3.792    0.736
        52 -11.7774    101.7674    199.6492   1.2072065397e+02   2.1683822336e+01    0.3310169    0.1971552  39.27 0.0006433082    1.425    0.298
        53 -10.5908    146.8108     82.1694   8.5619148683e+01   3.6773063668e+01    0.2196176    0.1801274  12.78 0.0004622997    1.312    0.238
        54 -10.7885     95.1561     80.0053   9.9843502384e+01   4.8088808697e+01    0.3072364    0.2018309  43.81 0.0009942271    1.605    0.377
        55 -14.4388    155.8996     60.3244   7.6568298849e+01   3.8336372043e+01     1.417382     1.139349  41.12 0.0009448693    1.207    0.172
        56 -10.6357    163.5483    248.7275   1.1442303421e+02   5.2572991946e+00    0.1633439    0.1089115 -33.88 0.0008642549    1.979    0.495
        57 -13.1801    172.7755     38.1590   6.5956617535e+01   3.7175078610e+01    0.4580634    0.4136667  31.86 0.0008747989    1.099    0.090
        58 -10.8688     13.6060     59.9156   1.2559545644e+02   6.2257720210e+01    0.1895255    0.1759591  39.47 0.0004151757    1.322    0.243
