#   1 NUMBER                 Running object number                                     
#   2 MAG_AUTO               Kron-like elliptical aperture magnitude                    [mag]
#   3 X_IMAGE                Object position along x                                    [pixel]
#   4 Y_IMAGE                Object position along y                                    [pixel]
#   5 X_WORLD                Barycenter position along world x axis                     [deg]
#   6 Y_WORLD                Barycenter position along world y axis                     [deg]
#   7 A_WORLD                Profile RMS along major axis (world units)                 [deg]
#   8 B_WORLD                Profile RMS along minor axis (world units)                 [deg]
#   9 THETA_WORLD            Position angle (CCW/world-x)                               [deg]
#  10 FWHM_WORLD             FWHM assuming a gaussian core                              [deg]
#  11 ELONGATION             A_IMAGE/B_IMAGE                                           
#  12 ELLIPTICITY            1 - B_IMAGE/A_IMAGE                                       
         1 -19.6608    185.1222    186.8260   2.6769311570e+01   1.0200086328e+01     5.186596     4.802755 -16.02     0.026027    1.203    0.169
         2 -11.5362     49.6576     12.3635   1.2916517502e+01   7.0028886066e+01    0.4777595    0.2567434  50.36   0.00154028    1.630    0.387
         3 -13.3998     51.1106      5.1458   7.9836217281e+00   7.0536180970e+01     1.411239    0.8007459  65.10  0.005768897    1.751    0.429
         4 -11.2983    186.5461      1.5180   3.4540519687e+02   3.8819733381e+01    0.3237656    0.1419611 -79.21  0.001635929    2.183    0.542
         5 -12.7848    175.1697      3.6068   3.4662088632e+02   4.1058989587e+01     0.874843    0.3291326 -78.45  0.003744461    2.928    0.658
         6 -11.1616    120.2113      8.7604   3.5341504973e+02   5.3467071841e+01    0.3099944    0.2905667  71.07  0.001359641    1.181    0.153
         7 -10.9209     68.0469      2.9065   1.0125578519e+00   6.6842366345e+01    0.3732062    0.2024083  56.03  0.001888183    1.561    0.359
         8 -10.1240    127.5159    233.0243   4.5593047113e+01   9.2724191907e+00    0.3126786    0.2310467  71.12  0.001490804    2.261    0.558
         9 -10.1628    242.1931    246.0343   2.6345920767e+01  -3.9867762597e+00     0.231674    0.1335964 -26.13 0.0007385772    1.333    0.250
        10 -10.8865    247.3924    250.3710   2.6174154181e+01  -4.8787519751e+00    0.2512031    0.1262816  15.11 0.0006135496    1.814    0.449
        11  -9.2967    243.6054    250.7087   2.6770385288e+01  -4.6317567620e+00    0.1404961   0.07390311  11.84 0.0006641824    1.689    0.408
        12  -9.0566    236.0065    250.1705   2.7827913509e+01  -3.9828441870e+00    0.1688136   0.08242977  -5.83  0.000699289    2.039    0.510
        13  -8.4371    185.6667    250.3333   3.6185436286e+01   3.8239040664e-01    0.0961658   0.08160131  35.42 0.0007052239    1.732    0.423
        14  -9.7810    145.6532    249.4845   4.3764993915e+01   4.5454393366e+00    0.2733777    0.1222963  45.94  0.001181592    3.702    0.730
        15 -10.2209    234.5360    239.2476   2.6554033234e+01  -2.5641586135e+00    0.2047658    0.1747505  -2.84  0.001097361    1.493    0.330
        16 -12.6107     74.6234    216.7849   5.6308122364e+01   1.8720017189e+01    0.5909888    0.5638041  65.09  0.003847786    1.140    0.123
        17  -9.9050    100.3336    155.3653   4.0757619978e+01   2.9458197153e+01    0.2565584    0.2307688 -40.00  0.000543671    1.140    0.122
        18 -10.8892     85.6031    146.3202   4.3468639429e+01   3.4061125623e+01    0.2916715    0.2719492 -66.13 0.0003375732    1.086    0.079
        19 -12.4202     67.3037    144.0642   4.8944969760e+01   3.7410787244e+01    0.7802477    0.3947837  50.02  0.001502964    2.177    0.541
        20 -12.1211      9.2076    137.7776   6.8753033790e+01   4.5375455447e+01    0.7851387    0.4165429  77.88  0.003392574    1.934    0.483
        21 -13.1507     94.5235    221.5807   5.1874327026e+01   1.5357416222e+01     1.476002     1.110435  39.89  0.008704608    1.244    0.196
        22 -11.4069     37.0041    215.4934   6.5887914188e+01   2.3080400729e+01    0.4221395    0.2854638   9.96  0.002286942    1.628    0.386
        23  -9.6294    217.7803    124.8914   9.8577814436e+00   1.5942221307e+01     0.179128    0.1370861 -31.77  0.000274431    1.135    0.119
        24  -9.9520    217.6272    116.9863   8.3090995699e+00   1.7219741363e+01    0.3204448    0.1575908 -46.39  0.001227308    1.748    0.428
        25 -10.2073    103.5895    215.5638   4.8962427570e+01   1.5459819716e+01    0.2752896    0.2181432 -36.68  0.001234516    1.369    0.270
        26 -11.5597     54.1596    231.1571   6.2674317666e+01   1.7953622960e+01    0.4079946    0.2349195 -89.13  0.001979343    2.164    0.538
        27 -10.5894     45.5399    236.4827   6.5133004523e+01   1.7740338722e+01    0.2275347    0.1961691  -2.97 8.043346e-05    1.344    0.256
        28  -9.8422     41.5998    109.8888   5.2354717172e+01   5.0147007903e+01    0.4471255     0.175282  33.50  0.001612241    2.394    0.582
        29 -10.2235     96.2049    117.5365   3.4091221017e+01   3.9468711961e+01    0.3399518    0.2746373   4.82 0.0008444127    1.554    0.357
        30 -10.8463     56.2888    210.0577   6.0418025100e+01   2.2291492608e+01    0.4849643    0.1438512 -62.96  0.001819598    3.337    0.700
        31 -13.5555    164.1138     99.4504   1.2847701741e+01   2.9742176235e+01     1.131717     0.718826  42.41  0.005538472    1.835    0.455
        32  -9.7116    107.9960    210.9912   4.7313789742e+01   1.5830485973e+01    0.2523375    0.2015481  49.15 0.0008027125    1.359    0.264
        33 -10.3896    105.5951    205.7011   4.7208518638e+01   1.7231278098e+01    0.3952186      0.18096 -54.48  0.001747839    2.315    0.568
        34 -10.5495      4.6783     93.5673   6.6375714277e+01   5.7906136254e+01    0.3625668    0.2012639 -81.99  0.001083045    1.737    0.424
        35 -10.5086    199.3835     88.7393   4.7867452982e+00   2.4799533640e+01     0.259017    0.1611325 -61.99 0.0009753469    1.754    0.430
        36 -11.5377    194.7855     88.4016   5.3342707190e+00   2.5702008195e+01    0.3653192    0.2697174  19.75  0.001967012    2.171    0.539
        37 -10.1110    215.1237     89.7858   3.0300998705e+00   2.1858416813e+01    0.3478371    0.1460166  67.64   0.00148122    3.778    0.735
        38 -11.0018     10.3143    206.7346   7.2374052936e+01   2.7488515203e+01    0.5139305    0.3148118   3.86  0.002651133    1.993    0.498
        39 -12.3120     57.1385    239.5965   6.2575399343e+01   1.5936934686e+01    0.6120871    0.3622819  79.62  0.002462894    2.161    0.537
        40 -10.9042     90.9978    200.8774   5.0287296305e+01   2.0167585269e+01    0.4302002    0.2136957 -35.66  0.001651299    2.754    0.637
        41 -12.0235    242.4589     83.4951   3.5885859933e+02   1.8362441848e+01    0.3429832      0.26439 -88.43  0.002471345    1.585    0.369
        42 -10.6948    190.3201     78.2441   3.6071590468e+00   2.8171743849e+01    0.4116899      0.23399 -58.45  0.002048922    1.817    0.449
        43 -12.4743    183.9522     77.2356   4.2453723213e+00   2.9586385189e+01    0.6982327    0.5609974 -48.75  0.001896053    1.080    0.074
        44 -10.3964     97.6530     67.3258   1.9342405828e+01   5.0429135405e+01    0.2394414    0.2046677  83.94 0.0009842034    1.243    0.195
        45 -11.8915     94.2644     62.5943   1.8770554443e+01   5.2105066256e+01     0.626499    0.5037148 -64.69  0.001594658    1.337    0.252
        46 -11.6924    248.2963     77.7874   3.5723323545e+02   1.8257403529e+01    0.4068269    0.1633035 -40.83  0.002116464    1.788    0.441
        47 -12.7679    233.4305     63.8416   3.5578233012e+02   2.2476045672e+01     0.531639    0.2463852 -35.39  0.002897835    1.818    0.450
        48 -12.6912    230.9221     51.8111   3.5354200455e+02   2.4476815275e+01    0.4870537    0.2766702 -73.52  0.002888402    1.943    0.485
        49 -11.8668    223.3377     48.8726   3.5353909925e+02   2.6180461846e+01    0.3748356    0.2550251  65.86  0.001554335    1.751    0.429
        50 -10.0817     79.4908    241.0669   5.7420795023e+01   1.3267364659e+01    0.1599743    0.1263558 -69.38 0.0004378994    1.540    0.351
        51  -9.7408    144.0301     59.4847   5.9210799942e+00   4.1081700573e+01    0.2558243    0.1761516 -59.67  0.001029133    1.441    0.306
        52 -11.3136    246.9282     58.7349   3.5368693884e+02   2.0961824864e+01    0.2877067     0.111165 -40.70  0.001147218    1.834    0.455
        53 -11.5917    240.9979     54.6258   3.5333097029e+02   2.2433472729e+01    0.3092196    0.1707957 -80.09  0.001306209    2.236    0.553
        54 -11.5274     84.0997     50.2035   1.7508621258e+01   5.6681341956e+01    0.5041035    0.4260928 -53.84  0.002724818    1.240    0.193
        55  -9.9644    249.9638     47.7108   3.5135875330e+02   2.1858016820e+01    0.1510176    0.1120365 -56.09 0.0005903407    1.085    0.078
        56  -9.3040    137.1613     46.3260   3.2045129559e+00   4.4722422417e+01    0.2114686    0.1598178  53.55 0.0005437877    1.417    0.294
        57 -12.2772    221.7046     40.3797   3.5187095477e+02   2.7547041240e+01    0.4712205    0.2330514 -56.59  0.001966154    1.712    0.416
        58  -9.5396     24.3275     26.3199   3.5698426952e+01   7.2464389523e+01     0.137407   0.09580224  -9.07 0.0007047302    1.684    0.406
        59 -10.6730     69.0387     22.5539   1.0711650389e+01   6.4420754148e+01    0.2586772    0.1864198 -54.96  0.001326713    1.632    0.387
        60 -10.7704     23.9395     17.8797   3.1268664331e+01   7.4028180104e+01    0.2922406    0.1911047 -52.43  0.001519696    1.849    0.459
        61 -10.8447    197.0922    247.8314   3.3829286828e+01  -3.5664505428e-01    0.3154185    0.1630663   3.75  0.001472438    1.962    0.490
        62 -12.0067     81.8061    218.3139   5.4655070675e+01   1.7550253997e+01    0.5489485    0.2897367 -47.36   0.00196656    2.158    0.537
        63  -9.7793     51.5175    197.0310   6.0525553605e+01   2.5850316540e+01    0.2079413     0.175005  34.95 0.0004793344    1.080    0.074
        64 -10.0900     70.5294    192.8683   5.4807155028e+01   2.4605728588e+01    0.3854827    0.2243824 -41.04  0.001745685    2.063    0.515
        65 -10.9488    162.3615     14.1421   3.5042926149e+02   4.2853744737e+01    0.2148039    0.1571743  74.65 0.0007434523    1.335    0.251
        66 -11.1450    175.2113     12.9989   3.4904169541e+02   4.0099021163e+01    0.2930207    0.1573494  75.20  0.001195652    1.777    0.437
        67  -9.7203    244.7296    233.6401   2.4254719587e+01  -2.7252424382e+00    0.1933739     0.129098 -13.18  0.001539791    1.054    0.051
