#   1 NUMBER                 Running object number                                     
#   2 MAG_AUTO               Kron-like elliptical aperture magnitude                    [mag]
#   3 X_IMAGE                Object position along x                                    [pixel]
#   4 Y_IMAGE                Object position along y                                    [pixel]
#   5 X_WORLD                Barycenter position along world x axis                     [deg]
#   6 Y_WORLD                Barycenter position along world y axis                     [deg]
#   7 A_WORLD                Profile RMS along major axis (world units)                 [deg]
#   8 B_WORLD                Profile RMS along minor axis (world units)                 [deg]
#   9 THETA_WORLD            Position angle (CCW/world-x)                               [deg]
#  10 FWHM_WORLD             FWHM assuming a gaussian core                              [deg]
#  11 ELONGATION             A_IMAGE/B_IMAGE                                           
#  12 ELLIPTICITY            1 - B_IMAGE/A_IMAGE                                       
         1 -15.1735     14.2678    155.0530   1.4169619670e+02   4.1314562820e+01     10.66286     4.699625  78.62   0.04488151    3.222    0.690
         2 -13.2401    197.0530     30.9130   6.6272743968e+01   3.2069270747e+01     1.262152     1.063233  60.36  0.007284613    1.209    0.173
         3 -13.5103    213.1595     11.6836   5.9911986031e+01   3.0448719399e+01     1.209707    0.9391744  38.63  0.007301537    1.765    0.433
         4 -11.2134      2.1328      8.6310   1.1408104470e+02   7.1368879280e+01    0.4158944    0.1056799 -39.75  0.002050833    2.906    0.656
         5 -10.7637      7.2806      2.6919   1.0894677406e+02   7.1759665930e+01    0.1754758    0.1169277  29.55  0.001284618    1.916    0.478
         6 -11.7598    249.2113    243.8219   1.0418906647e+02  -1.3986754802e+01     0.502703    0.2731562 -31.01  0.002880891    1.854    0.461
         7 -11.2605    140.7620    249.8745   1.2602773387e+02   2.8712107974e+00    0.3800764    0.1548408  41.39  0.001692102    2.033    0.508
         8 -10.3034     65.5587    248.9776   1.4027058727e+02   1.4989517270e+01    0.2583466    0.1712384  77.97 0.0007844325    1.331    0.248
         9 -10.7872     46.1961    248.7599   1.4368706343e+02   1.7636853774e+01     0.312948    0.1688028  85.82  0.001246792    1.755    0.430
        10 -11.0457     28.6935    249.2564   1.4669808814e+02   1.9697103153e+01    0.2927093    0.2581516 -72.27  0.002131813    1.594    0.373
        11 -12.2844     35.2854    245.0319   1.4530037605e+02   1.9714757731e+01    0.5479755    0.4380961 -75.84  0.004052638    1.431    0.301
        12 -12.8631      5.5819    248.1618   1.5037076757e+02   2.2455003366e+01     1.236342    0.5440042  48.97  0.001383314    1.850    0.459
        13 -12.8140     12.0255    240.7726   1.4893274069e+02   2.3178833599e+01    0.8999879    0.3547063  86.61  0.004517907    2.439    0.590
        14 -12.0599     17.8497    241.1605   1.4799366045e+02   2.2476174824e+01    0.5559663    0.1844039  63.13  0.002611718    2.919    0.657
        15 -10.4609    216.2131    248.6178   1.1109668480e+02  -9.6663211899e+00    0.1877862   0.09758927  29.70 0.0009585519    1.720    0.419
        16 -11.6868    125.9857    249.6492   1.2890084299e+02   5.4259057378e+00    0.4037613    0.2921812  23.77  0.002280616    1.765    0.433
        17 -10.7674    186.3384    239.9938   1.1549824083e+02  -3.4243078507e+00    0.2507526    0.1695459 -51.60   0.00137358    1.882    0.469
        18 -11.3534    119.8257    237.2769   1.2855840089e+02   8.7378460873e+00    0.4009902     0.208943 -74.06   0.00175425    2.848    0.649
        19 -11.0024     22.0044    237.3201   1.4705123260e+02   2.2762466721e+01    0.2541888    0.2138179  89.19  0.001965209    1.316    0.240
        20 -11.5217     51.2783    236.2742   1.4178300618e+02   1.9411280162e+01    0.4790192    0.2389455  70.36   0.00251208    1.987    0.497
        21 -10.4233    163.1428    249.1385   1.2150449248e+02  -8.6871569498e-01    0.2025601    0.1629768  25.35  0.001242907    1.239    0.193
        22  -9.3647    192.4818    193.9609   1.0600245731e+02   3.4760046842e+00    0.2017435    0.1291721 -67.63 0.0008098788    2.684    0.627
        23 -11.4395     59.5386    196.7309   1.3619423438e+02   2.6749597734e+01    0.3197694    0.2308248 -53.99 0.0006346959    1.576    0.366
        24 -11.6983     65.9268    188.7171   1.3379677393e+02   2.7702338949e+01    0.2906837    0.2395108 -59.68 0.0004859779    1.309    0.236
        25 -10.6923     76.2861    176.2477   1.2964629680e+02   2.9120010295e+01    0.2507876    0.2207572 -70.31  0.000341382    1.125    0.111
        26 -13.0925     62.9398    173.9994   1.3251299004e+02   3.1558174253e+01    0.5300857    0.2776615 -46.32  0.001940121    2.299    0.565
        27 -11.6540     84.0767    167.3884   1.2633896473e+02   3.0034200015e+01    0.5917633    0.5730308 -18.64  0.003524277    1.257    0.205
        28 -13.7687     37.9772    222.7428   1.4311995017e+02   2.3849512211e+01    0.7661722    0.5970881  81.28  0.002458027    1.051    0.048
        29 -11.0290    138.3596    231.7488   1.2400532314e+02   6.5419674259e+00    0.4223908    0.1585387  31.84  0.001368839    3.959    0.747
        30  -9.6731     97.2708    151.6307   1.2009857287e+02   3.1644599863e+01    0.2724791     0.257505 -39.23  0.000835862    1.162    0.140
        31 -11.9135     85.4846    150.5258   1.2299238118e+02   3.3872695673e+01    0.3091802    0.2598971 -42.05 0.0005295622    1.289    0.224
        32 -12.8739      9.4093    207.5149   1.4727467176e+02   3.0144332073e+01    0.6833748    0.6520183  18.10  0.003942983    1.645    0.392
        33  -8.7556    100.0106    147.4889   1.1854586722e+02   3.2161232234e+01    0.2093805     0.148266  38.56 0.0003633082    1.475    0.322
        34 -12.1343     67.7764    143.8089   1.2648675064e+02   3.8138333107e+01    0.6877757    0.4623443  66.20  0.002417702    1.783    0.439
        35 -10.2631     96.1783    133.9188   1.1671454578e+02   3.6079295837e+01     0.244259    0.2237254 -14.41 0.0004037129    1.239    0.193
        36  -9.4108    109.0585    136.7905   1.1383019579e+02   3.3062454577e+01    0.3722656     0.252254 -22.22  0.001474461    2.195    0.544
        37 -12.5710     32.1727    230.1431   1.4476815436e+02   2.3024833328e+01    0.2897681    0.2446968 -79.67  0.000772213    1.357    0.263
        38  -9.0125    106.4838    123.5077   1.1145139083e+02   3.6659705748e+01    0.1507126    0.1461669 -51.13 7.230895e-05    1.014    0.013
        39 -10.0890    167.8676    112.8277   9.3011808561e+01   2.5621957070e+01    0.3345022    0.2769705  84.82 0.0006519428    1.397    0.284
        40  -8.6916    203.3384    111.3433   8.5257051631e+01   1.7486445634e+01    0.1569673    0.1226837  10.01 0.0007049187    1.773    0.436
        41  -8.7522    152.7633    212.8538   1.1800280356e+02   7.5239665740e+00    0.1855687    0.1551153  69.15 0.0003658978    1.294    0.227
        42 -10.8903     57.5727    206.1911   1.3767343284e+02   2.4901432330e+01    0.6041558    0.2213167  62.00  0.002075128    4.149    0.759
        43 -10.6602      2.7542     38.8421   1.2439941700e+02   6.6621515600e+01    0.1964383    0.1461739 -63.42  0.001395275    1.661    0.398
        44 -10.2437     87.8252    248.9106   1.3615527993e+02   1.1730035144e+01    0.2664844    0.1216095  59.48   0.00126223    2.162    0.538
        45 -10.2220     81.8265    249.1113   1.3729727164e+02   1.2601178723e+01    0.2022655      0.13623  68.08  0.001095919    1.283    0.221
        46 -11.8529    239.1647    248.2020   1.0675589329e+02  -1.3102805813e+01    0.4635762    0.2469367  18.47  0.002423962    1.985    0.496
