#   1 NUMBER                 Running object number                                     
#   2 MAG_AUTO               Kron-like elliptical aperture magnitude                    [mag]
#   3 X_IMAGE                Object position along x                                    [pixel]
#   4 Y_IMAGE                Object position along y                                    [pixel]
#   5 X_WORLD                Barycenter position along world x axis                     [deg]
#   6 Y_WORLD                Barycenter position along world y axis                     [deg]
#   7 A_WORLD                Profile RMS along major axis (world units)                 [deg]
#   8 B_WORLD                Profile RMS along minor axis (world units)                 [deg]
#   9 THETA_WORLD            Position angle (CCW/world-x)                               [deg]
#  10 FWHM_WORLD             FWHM assuming a gaussian core                              [deg]
#  11 ELONGATION             A_IMAGE/B_IMAGE                                           
#  12 ELLIPTICITY            1 - B_IMAGE/A_IMAGE                                       
         1 -14.7456    153.3645     50.8674   8.5079152240e+01   4.0451674361e+01     1.232505     1.191396 -13.90  0.003575275    1.058    0.055
         2 -14.9736    163.1011     21.8326   7.3127729756e+01   4.1654757789e+01     1.143874     1.066037  85.07   0.00346808    1.043    0.042
         3 -13.4086    175.7070      4.6661   6.5644409141e+01   3.9901514127e+01      1.16602     0.406978 -86.62  0.003098202    5.285    0.811
         4 -13.4887    189.6478     13.4149   6.6957751534e+01   3.5342420133e+01    0.6498986    0.3912126 -41.44  0.002217574    1.595    0.373
         5 -12.6406    187.3960    241.3046   1.1935732703e+02   3.7017634137e+00    0.4299938    0.1539407  36.08  0.002243426    2.035    0.508
         6 -11.7759    189.9675    250.0247   1.1997997862e+02   2.4369902523e+00    0.3334837    0.1167412  34.79 0.0006585159    2.015    0.504
         7 -11.9420    156.7326    247.7470   1.2572841410e+02   7.0791218324e+00      0.22844    0.1711202 -22.32 0.0006707814    1.732    0.423
         8 -20.6264     89.9570    183.7227   1.3266733146e+02   2.6507058372e+01     12.67798     6.962472 -67.06   0.06595975    2.150    0.535
         9 -12.1244    207.6957    171.5964   1.0472030189e+02   9.2143043349e+00    0.3092217    0.2148965 -42.22 0.0007958068    1.887    0.470
        10 -13.0299    195.5292    172.9863   1.0730432948e+02   1.1065499897e+01    0.6893116    0.4210794 -49.50  0.003381494    2.495    0.599
        11 -12.9279    192.5350    164.5032   1.0629799181e+02   1.2807509526e+01    0.3201907    0.2434934  18.10 0.0006382335    1.145    0.126
        12 -14.1789    189.8613    161.0979   1.0617392640e+02   1.3789640223e+01     1.007298    0.4716976 -34.66  0.002702111    2.294    0.564
        13 -13.0717    230.4877    167.4881   9.9875362842e+01   6.0430001862e+00     0.382498    0.2246111 -36.36  0.002115829    1.956    0.489
        14 -10.7774    186.5494    236.8804   1.1894575072e+02   4.3047990949e+00    0.2002569    0.1370801  -8.81 0.0008665908    1.628    0.386
        15 -10.8896    249.0000    226.9640   1.0690122682e+02  -2.8095798775e+00    0.1484898   0.05258767 -27.55 0.0006687514    2.920    0.658
        16 -11.1116    176.7010    154.8352   1.0766707491e+02   1.7177453182e+01    0.2380241    0.2042016  45.91 0.0004579982    1.295    0.228
        17 -12.9315     27.7889    145.6185   1.4526801485e+02   4.1918668795e+01    0.4894496    0.3073198 -79.31  0.002129593    1.496    0.332
        18 -10.8101    207.8006    226.2316   1.1368092407e+02   2.5778121334e+00    0.1599438    0.1016043  12.43  0.000525477    1.331    0.249
        19 -12.6346    174.1805    148.6828   1.0696093200e+02   1.8668114511e+01    0.3861967    0.3242725 -47.44  0.001136301    1.460    0.315
        20  -9.7096      6.2584    225.2768   1.5335928250e+02   2.7985688942e+01    0.0772707   0.07390137  69.92 0.0006850133    1.467    0.319
        21 -11.9938    172.9209    138.9943   1.0518336706e+02   2.0554517589e+01    0.2263373    0.2006795  18.57 0.0007437886    1.006    0.006
        22 -10.0857     13.4966    137.4446   1.4877366944e+02   4.4895343738e+01    0.1197528    0.1008061  74.36 4.798027e-05    1.026    0.025
        23 -12.8172    151.6479    239.0267   1.2572064540e+02   8.8393619006e+00    0.4021663    0.2715177  -7.76  0.002589728    2.022    0.505
        24 -12.4913    148.0998    133.8625   1.0983427441e+02   2.6463872911e+01    0.2449371    0.2303767 -82.77 0.0003420706    1.282    0.220
        25 -11.6618    207.4992    220.5667   1.1291184094e+02   3.2368615365e+00    0.2040934    0.1628617  21.23 0.0006595245    1.231    0.188
        26 -13.4756    160.4663    128.1882   1.0559043652e+02   2.5006553030e+01    0.4753707    0.4314771 -33.10  0.001631381    1.187    0.157
        27 -10.6653     17.3262    131.1132   1.4729408311e+02   4.6092441516e+01    0.1810987    0.1672959 -25.49 0.0008609513    1.361    0.266
        28 -11.4627      5.6814    131.0554   1.5068824094e+02   4.6861851677e+01    0.1912424      0.17281  25.95 0.0003914372    1.304    0.233
        29 -10.9884    217.4378    216.9019   1.1061077151e+02   2.2622105393e+00    0.3111748    0.1037454 -36.90  0.001469368    3.662    0.727
        30 -11.2867     12.0292    125.7767   1.4854809846e+02   4.7700115797e+01    0.3350395    0.1905705 -41.20  0.001540717    2.258    0.557
        31  -9.8768     39.1934    250.7130   1.4802086810e+02   2.0915666872e+01   0.09358908   0.05086159  57.47 0.0002494083    1.419    0.295
        32 -10.0352     13.6854    238.2338   1.5226842653e+02   2.5238892893e+01    0.1038186   0.04524306  50.14 0.0006499048    1.499    0.333
        33 -12.1800    141.1853    120.7970   1.0860783224e+02   3.0446123133e+01    0.5476556     0.275466  59.59  0.001811595    3.250    0.692
        34 -12.5173     39.5524    115.3537   1.3884283324e+02   4.8045508140e+01    0.3939056    0.2655245 -11.80  0.001462609    2.098    0.523
        35 -11.0776    167.9017    112.8007   1.0017469659e+02   2.6217062155e+01    0.3610332    0.2699064 -85.46  0.001258186    2.275    0.560
        36 -10.9284      9.7456    212.6877   1.5240953032e+02   2.9862838164e+01    0.1417016    0.1069921  77.90 0.0003234892    1.263    0.208
        37 -11.0426    205.4867    110.2552   9.1931154418e+01   1.8513789965e+01    0.2950866    0.2125327  35.84 0.0009253781    1.360    0.265
        38 -13.1234     12.2391    206.2498   1.5174011019e+02   3.0808241374e+01    0.5893472    0.2677504  28.33  0.003379182    2.023    0.506
        39 -11.3307    211.8795    236.8776   1.1446027085e+02   9.2801085473e-01    0.2155342    0.1317371  16.30  0.001150965    1.273    0.215
        40 -11.2122     16.9456    192.2861   1.5030655748e+02   3.3023221589e+01    0.1620089    0.1340153  85.38 0.0004003657    1.258    0.205
        41 -10.0482     24.7737    188.9199   1.4843727282e+02   3.2992284461e+01    0.1256887   0.08290306 -87.58 0.0003297419    1.489    0.328
        42 -12.2449    140.5618     83.4432   9.8754507395e+01   3.8012296179e+01    0.4540786    0.2597216 -23.02  0.001453331    2.347    0.574
        43 -11.7042    109.5032     83.0435   1.0768084745e+02   4.5139752093e+01    0.2861909    0.2253862  42.57 0.0003344564    1.240    0.194
        44 -14.9182    144.0894     65.2196   9.2076203121e+01   4.0504203131e+01     1.363432     1.231931  46.41  0.003139301    1.073    0.068
        45 -14.1384    238.3263    175.0945   9.9987617522e+01   3.9353717702e+00    0.5213905     0.477834  45.43  0.003640815    1.758    0.431
        46 -13.6997    157.2607     41.9516   8.1199212470e+01   4.0717219538e+01    0.5887619    0.5623226  80.83 0.0007911137    1.060    0.057
        47 -11.6183     13.4507     59.8718   1.4175902016e+02   6.3767973459e+01    0.2161316    0.2078687  85.50 0.0004209857    1.139    0.122
        48 -10.6572      3.3429    245.8139   1.5424459111e+02   2.4933251064e+01    0.1577632    0.1028589  17.80  0.000773977    2.020    0.505
        49 -12.7458      8.3110     24.5835   1.3766409657e+02   7.2470081595e+01    0.4452885    0.2185638 -13.12 0.0006555103    2.298    0.565
        50 -12.9692    203.8506    174.6690   1.0601356023e+02   9.4379660819e+00    0.5163938    0.3421696 -52.82  0.002628708    2.650    0.623
