#   1 NUMBER                 Running object number                                     
#   2 MAG_AUTO               Kron-like elliptical aperture magnitude                    [mag]
#   3 X_IMAGE                Object position along x                                    [pixel]
#   4 Y_IMAGE                Object position along y                                    [pixel]
#   5 X_WORLD                Barycenter position along world x axis                     [deg]
#   6 Y_WORLD                Barycenter position along world y axis                     [deg]
#   7 A_WORLD                Profile RMS along major axis (world units)                 [deg]
#   8 B_WORLD                Profile RMS along minor axis (world units)                 [deg]
#   9 THETA_WORLD            Position angle (CCW/world-x)                               [deg]
#  10 FWHM_WORLD             FWHM assuming a gaussian core                              [deg]
#  11 ELONGATION             A_IMAGE/B_IMAGE                                           
#  12 ELLIPTICITY            1 - B_IMAGE/A_IMAGE                                       
         1 -14.4775    151.0942     56.3596   8.8664990217e+01   4.0140876014e+01     1.306736     1.152766  20.11 0.0009429502    1.130    0.115
         2 -14.9494    162.5707     41.5118   8.1124789894e+01   3.9513062217e+01     1.530132      1.08568 -10.47  0.003919962    1.475    0.322
         3 -14.5409    175.9629      8.5182   6.7105399476e+01   3.9807130935e+01     1.158004     1.030751  24.41  0.003785845    1.099    0.090
         4 -13.1285    194.0665      4.6901   6.3524640156e+01   3.5302548712e+01    0.9898938    0.4446805 -78.33  0.003118185    4.005    0.750
         5 -11.5892    189.8590     14.6479   6.7351948645e+01   3.5501133513e+01    0.2583871    0.2023079   0.89 0.0007506729    1.316    0.240
         6 -10.5134    150.7861    245.3443   1.2586791040e+02   1.0232951743e+01    0.1359729    0.1113827  50.82 0.0004040389    1.187    0.158
         7 -20.0576     75.2661    176.1732   1.3201166088e+02   3.0680722347e+01     13.95219     5.367389 -68.26   0.07010017    2.760    0.638
         8 -12.3805    209.6960    175.6997   1.0645454384e+02   9.2115256983e+00     0.314512    0.2678909  83.02  0.001351883    1.966    0.491
         9 -11.7818    139.2341    248.7717   1.2797886393e+02   1.1425454327e+01    0.2583576    0.2021504 -69.43  0.002204416    1.772    0.436
        10 -11.0498     31.4687    183.2915   1.4085502892e+02   3.4258250275e+01    0.3151723    0.1617604  44.80  0.001372535    1.680    0.405
        11 -11.0753    126.5574    236.4881   1.2882905330e+02   1.4612070848e+01    0.2057407    0.1487448 -35.65  0.001243255    2.160    0.537
        12 -10.3988     25.6939    184.9637   1.4198995759e+02   3.4510565639e+01    0.1307108    0.1040069  78.54 0.0003122662    1.138    0.121
        13  -9.7584     24.7463    181.7338   1.4197661005e+02   3.5165277275e+01    0.1314761    0.1074852  64.53  0.001112685    1.199    0.166
        14 -11.3795    144.8488    179.0421   1.1883682863e+02   1.9948922671e+01    0.2440447    0.1660447 -37.83 0.0009940822    1.806    0.446
        15 -12.1458      5.0572    178.0009   1.4530435761e+02   3.7510216150e+01    0.2438218    0.1693556  59.02   0.00102603    1.199    0.166
        16 -13.5926    195.5369    170.8354   1.0806760854e+02   1.2334914204e+01    0.6733523    0.3804242 -44.10  0.002982525    2.235    0.553
        17 -13.2715    177.4920    171.6519   1.1150069426e+02   1.5442694965e+01    0.4376083    0.3313424 -62.56  0.002563588    1.919    0.479
        18 -11.3161    166.8809    173.3896   1.1377564215e+02   1.7059755997e+01    0.1941946     0.176413 -63.08  0.001080535    1.367    0.268
        19 -14.3965    138.7512    171.7235   1.1891482062e+02   2.2122405371e+01     1.144369    0.3808384  47.79  0.004672171    2.799    0.643
        20 -14.2534    141.4981    167.2785   1.1768258385e+02   2.2389937402e+01     0.924435    0.3629802  49.61  0.003981357    2.486    0.598
        21 -11.7764    203.0726    172.3254   1.0699965770e+02   1.0798283566e+01    0.2172398    0.1853213 -31.00 0.0009400043    1.390    0.281
        22 -10.6687     13.8467    238.6472   1.4617505270e+02   2.7130023995e+01   0.07017694   0.04921792 -83.59 0.0006455691    1.543    0.352
        23 -10.1689     25.5876    230.4176   1.4417100613e+02   2.7235804800e+01   0.09031604   0.06109643  64.12 0.0001104816    1.010    0.010
        24 -10.8085     25.3229    224.9782   1.4398831253e+02   2.8064866697e+01    0.1320574   0.09186301 -80.78 0.0007575125    1.526    0.345
        25 -11.9170    230.1957    166.4999   1.0128805843e+02   6.7011036450e+00    0.2719034    0.1600454 -44.60  0.001385615    2.546    0.607
        26 -12.6450    123.0996    166.1327   1.2119142469e+02   2.5616357895e+01    0.4667825    0.2228517  60.12  0.001820067    2.925    0.658
        27 -11.6548    201.2047    165.1388   1.0600913938e+02   1.2064009107e+01    0.2562414    0.2181137 -74.68 0.0009861266    1.876    0.467
        28 -10.7664    222.7971    162.2958   1.0171259056e+02   8.5075647759e+00     0.270968    0.1557621 -43.50  0.001010307    2.398    0.583
        29 -12.9101    164.2946    157.6561   1.1153704153e+02   1.9923210278e+01    0.3039072     0.301512 -86.83 0.0009766374    1.164    0.141
        30 -14.6074    134.5243    146.8702   1.1567011058e+02   2.7106478644e+01     1.371044     0.472285 -57.02  0.004569082    4.542    0.780
        31 -10.7971     22.9701    156.0816   1.4070311699e+02   4.0058668908e+01    0.1568742    0.1240202  82.10 0.0005600491    1.067    0.062
        32 -10.7220     25.3428    165.1408   1.4084615080e+02   3.8128595201e+01    0.1446883    0.1273106  61.21 0.0005935945    1.294    0.227
        33 -12.4599    159.6293    151.0334   1.1123746388e+02   2.1846920329e+01    0.3067016    0.2295612 -16.63  0.001694661    1.662    0.398
        34 -11.4647     21.9264    243.5372   1.4519512703e+02   2.5711157933e+01    0.1504913   0.09187909  82.59  0.001354738    1.404    0.288
        35 -12.4487    174.0983    148.9782   1.0796899612e+02   1.9453998655e+01    0.3319168    0.3060189 -32.33  0.001421078    1.202    0.168
        36 -14.0125    143.5992    143.7114   1.1316205989e+02   2.6044903686e+01    0.8485264    0.4179947 -59.61  0.003467003    3.013    0.668
        37 -10.0377     22.3559    221.3100   1.4428937414e+02   2.8894590175e+01   0.07343577   0.06978752 -69.58 0.0007043202    1.730    0.422
        38 -11.6022    174.1905    140.8591   1.0631117434e+02   2.0717262992e+01    0.1998413    0.1855667  66.97 0.0007419292    1.254    0.202
        39 -10.6428      1.7667    139.9445   1.4404271516e+02   4.4870991165e+01    0.1452225    0.1097686 -82.88 0.0004613205    1.180    0.153
        40 -12.7033    134.6423    112.5137   1.0861494836e+02   3.3509134869e+01    0.6191255    0.1576223 -44.55  0.001892731    3.974    0.748
        41 -14.5734    135.8795    128.1145   1.1175481474e+02   3.0309066780e+01     1.283403    0.4598037 -48.26  0.004826957    2.946    0.661
        42 -11.4775      7.6326    138.3160   1.4270029552e+02   4.4776156759e+01     0.236975    0.1976601  31.68   0.00137621    1.565    0.361
        43 -13.0510     11.8524    205.8203   1.4531031955e+02   3.2256153632e+01       0.3431    0.2343618  28.83  0.002735194    1.990    0.498
        44 -12.2915    154.4634    196.0631   1.1948846080e+02   1.5873011649e+01     0.352964    0.2397806 -82.82  0.001960793    2.663    0.625
        45 -12.6513    160.5161    127.9948   1.0636526107e+02   2.5563015859e+01    0.3715226    0.3051074 -52.66  0.001879793    1.373    0.272
        46 -12.2869    157.6924    202.5507   1.1979328636e+02   1.4470306019e+01    0.4746932     0.250425  62.15  0.002272233    3.012    0.668
        47 -11.9540    140.6287    120.7219   1.0910040518e+02   3.0792302474e+01    0.3254579    0.2172806  68.30   0.00102322    2.063    0.515
        48 -12.3186    163.7905    203.0816   1.1879829920e+02   1.3435106365e+01     0.277734    0.2322978 -49.38  0.001042771    1.522    0.343
        49 -12.7506    161.3415    197.7704   1.1849819700e+02   1.4534709420e+01    0.3000624     0.270433  81.45  0.001605565    1.382    0.276
        50 -11.7966    168.8215    202.5263   1.1784662658e+02   1.2706182413e+01    0.2172064    0.1611342  70.07 0.0006292673    1.870    0.465
        51 -11.4544    138.0529    198.5952   1.2277073561e+02   1.8086168899e+01    0.4817085    0.2702984  66.41  0.002466197    2.666    0.625
        52 -10.9492    205.3900    110.1797   9.3287494529e+01   1.8960820994e+01    0.3217231    0.1908405  39.03  0.001038816    1.635    0.388
        53  -9.9780    140.9903    240.9313   1.2696490427e+02   1.2093778466e+01    0.1214946   0.08904561  45.39 0.0004571704    1.009    0.009
        54 -12.3176    155.5321    190.2779   1.1848430690e+02   1.6519291152e+01    0.2530001     0.182863  59.02  0.001361899    1.470    0.320
        55 -12.5594    154.1088    185.6454   1.1807394954e+02   1.7423867292e+01    0.2566611     0.228426  80.80  0.001167972    1.338    0.253
        56 -10.9982      8.0000    239.9817   1.4703935404e+02   2.7456091182e+01    0.1071581   0.03910619 -83.80 0.0007455706    2.562    0.610
        57 -13.9585    210.1100    187.5658   1.0844172074e+02   7.7327820154e+00     1.071969    0.5441357 -50.37  0.004802464    3.956    0.747
        58 -12.7413    207.0525    178.7035   1.0744195778e+02   9.3064017968e+00    0.4467637     0.241867  27.41  0.001954714    1.844    0.458
        59 -12.1817    168.2306    245.7098   1.2320606453e+02   7.7574574931e+00    0.3118291    0.1616934 -50.84  0.002069632    2.902    0.655
        60 -12.1649    133.8054    246.7843   1.2863398266e+02   1.2385601754e+01    0.1481024    0.1274231  51.54 0.0004574682    1.207    0.171
        61 -13.0846    166.3918     33.1287   7.7438223533e+01   3.9641994776e+01    0.4657995    0.4073766   9.27 0.0009349391    1.122    0.109
        62 -10.7340     13.4300     59.8701   1.3255236667e+02   6.1214157056e+01    0.1684155    0.1470584  83.39 0.0004393819    1.252    0.201
        63 -10.3298    144.9680     34.0026   8.2019338854e+01   4.5007108354e+01    0.2258805    0.1819114 -64.51 0.0003576988    1.562    0.360
        64 -10.1273    159.9857    247.3137   1.2464435900e+02   8.7408945761e+00    0.1393185    0.0984756  39.83 0.0005457781    1.044    0.042
        65 -12.0655    125.0635    243.6784   1.2971314576e+02   1.3924937114e+01    0.1755623    0.1344172 -62.31  0.001458883    1.742    0.426
