#   1 NUMBER                 Running object number                                     
#   2 MAG_AUTO               Kron-like elliptical aperture magnitude                    [mag]
#   3 X_IMAGE                Object position along x                                    [pixel]
#   4 Y_IMAGE                Object position along y                                    [pixel]
#   5 X_WORLD                Barycenter position along world x axis                     [deg]
#   6 Y_WORLD                Barycenter position along world y axis                     [deg]
#   7 A_WORLD                Profile RMS along major axis (world units)                 [deg]
#   8 B_WORLD                Profile RMS along minor axis (world units)                 [deg]
#   9 THETA_WORLD            Position angle (CCW/world-x)                               [deg]
#  10 FWHM_WORLD             FWHM assuming a gaussian core                              [deg]
#  11 ELONGATION             A_IMAGE/B_IMAGE                                           
#  12 ELLIPTICITY            1 - B_IMAGE/A_IMAGE                                       
         1 -14.7096    169.8603     40.3171   9.4170980945e+01   3.9278532416e+01  0.003268757  0.002483888 -56.11   0.00422525    1.258    0.205
         2 -14.7129    188.5767      7.7092   9.4188388357e+01   3.9255968703e+01  0.005216722  0.002480678 -15.00  0.008079587    2.084    0.520
         3 -10.2878    150.6795    247.9195   9.4147921202e+01   3.9421675557e+01 0.0004994856 0.0004135466 -85.53 0.0007371737    1.191    0.160
         4 -19.8493     63.2712    168.4390   9.4073398960e+01   3.9367308728e+01   0.04964527   0.01633427  88.11   0.06901216    3.044    0.672
         5 -12.3288    106.2788    204.1700   9.4110154059e+01   3.9391738782e+01  0.001086854 0.0009057064 -47.75  0.001610719    1.150    0.131
         6 -10.8192     30.0800    205.4245   9.4043052122e+01   3.9392930742e+01 0.0006550226 0.0003940627 -32.60 0.0009898148    1.609    0.378
         7 -11.9452    157.5027    199.8186   9.4155366189e+01   3.9388498515e+01 0.0008801373 0.0005324676  41.16 0.0008421178    1.733    0.423
         8 -11.6505    153.6881    195.1089   9.4152149935e+01   3.9385271925e+01 0.0009102279 0.0006033934  70.23  0.001787091    1.546    0.353
         9 -12.2988    163.2108    202.6092   9.4160306459e+01   3.9390393379e+01  0.000974489 0.0005980818  39.32 0.0008906635    1.707    0.414
        10 -10.1554    138.9705    200.0762   9.4139048956e+01   3.9388765550e+01 0.0005971612 0.0003672444  49.45  0.001116398    1.702    0.413
        11  -9.9160    121.8952    198.6851   9.4124063581e+01   3.9387887519e+01 0.0004471631 0.0004325959 -47.70 0.0004009835    1.012    0.012
        12 -10.6121    112.6760    196.4194   9.4116018749e+01   3.9386369020e+01  0.001166027 0.0003194969 -39.52  0.001514868    3.365    0.703
        13 -10.7117    169.4588    195.2545   9.4166024112e+01   3.9385294646e+01  0.000491619 0.0003155884  71.81 0.0009351652    1.594    0.373
        14 -10.5517    103.6121    194.4946   9.4108100586e+01   3.9385084132e+01  0.001031804 0.0004173551 -22.87  0.001597586    2.412    0.585
        15 -13.4158    165.1903    188.6989   9.4162463118e+01   3.9380798705e+01  0.001618592  0.001042959  -1.29  0.003159005    1.572    0.364
        16 -12.0418    170.4346    183.3504   9.4167236948e+01   3.9377087250e+01  0.001049834 0.0006555315  25.82  0.001394474    1.668    0.400
        17 -12.7523    173.1034    189.7203   9.4169395964e+01   3.9381463164e+01  0.001016655 0.0008510614  68.35  0.001877518    1.224    0.183
        18 -12.4750    175.3733    185.7364   9.4171511742e+01   3.9378706683e+01  0.001242349 0.0005807837  72.47  0.002039608    2.208    0.547
        19 -11.8585    180.6468    193.3528   9.4175926153e+01   3.9383928216e+01 0.0008184808 0.0004925899  46.61  0.001386572    1.742    0.426
        20 -11.1777    153.4916    186.0615   9.4152247503e+01   3.9379038808e+01  0.000540723 0.0004842262 -11.71   0.00068345    1.121    0.108
        21 -10.4072    139.3224    230.0336   9.4138458961e+01   3.9409405912e+01 0.0006553734 0.0004501942  37.74  0.001177931    1.522    0.343
        22 -12.3864    206.2285    178.0359   9.4198888883e+01   3.9373242689e+01  0.001126127 0.0009220032 -13.64  0.002476003    1.218    0.179
        23 -11.0904    205.2608    168.9859   9.4198303910e+01   3.9367011687e+01  0.001463583 0.0006414008  79.56  0.002333574    2.325    0.570
        24 -11.9262    202.2430    170.0121   9.4195618620e+01   3.9367734541e+01  0.002316789  0.000591688  87.55  0.002818323    3.958    0.747
        25 -10.1817    136.8991    179.4850   9.4137844548e+01   3.9374587158e+01 0.0005079283 0.0003434398  -3.99 0.0003266467    1.492    0.330
        26 -10.1865    219.1951    224.1680   9.4208944582e+01   3.9404962387e+01 0.0004890639 0.0003838095  55.28 0.0003527197    1.323    0.244
        27 -11.1084    119.2883    243.6757   9.4120410155e+01   3.9418899958e+01 0.0005730477 0.0004528777  52.20 0.0007882889    1.316    0.240
        28 -11.7826    132.7055    168.9877   9.4134470347e+01   3.9367373945e+01 0.0009957526 0.0004749787  81.52  0.001654371    2.121    0.529
        29 -12.6025    143.4505    174.5083   9.4143758226e+01   3.9371126636e+01  0.001646744 0.0007317252 -52.17  0.002699811    2.118    0.528
        30 -12.4060    137.9019    171.5689   9.4138964619e+01   3.9369127809e+01  0.001124659 0.0006615082  49.37  0.001505791    1.782    0.439
        31 -12.2487    126.6701    172.9827   9.4129040099e+01   3.9370155138e+01  0.001280954 0.0006515451  29.24  0.002067238    2.058    0.514
        32 -12.9340    195.1547    168.5564   9.4189425360e+01   3.9366768157e+01   0.00120248 0.0009908103  71.05 0.0008187502    1.240    0.193
        33 -11.3679    192.5310    163.4882   9.4187266758e+01   3.9363289338e+01 0.0009071138 0.0005726066 -37.58  0.001222307    1.525    0.344
        34 -11.5938     20.3136    219.4209   9.4034021730e+01   3.9402613675e+01 0.0006579002 0.0004741152   9.40 0.0007033683    1.424    0.298
        35 -11.4116    230.1191    166.6037   9.4220243426e+01   3.9365238516e+01 0.0009713508 0.0003198803  64.82  0.001307565    3.267    0.694
        36 -11.2635    122.2718    165.3516   9.4125400442e+01   3.9364917604e+01 0.0006093375 0.0005478828  38.77 0.0003195055    1.161    0.138
        37 -10.2073    188.4967    158.4861   9.4183865607e+01   3.9359863282e+01 0.0006381065  0.000283058 -20.27 0.0009307713    2.213    0.548
        38 -11.6250     16.6910    217.5672   9.4030890543e+01   3.9401350865e+01  0.000700944 0.0005094698 -46.47  0.001447101    1.317    0.241
        39 -13.6665    133.8771    145.4880   9.4136207178e+01   3.9351176071e+01  0.003375056 0.0006475329  80.84  0.003435294    5.714    0.825
        40 -10.4216    188.8154    154.3826   9.4184267288e+01   3.9357034056e+01 0.0005094377 0.0003035334 -20.43  0.000665844    1.652    0.395
        41 -11.5408     14.2841    151.3305   9.4030831969e+01   3.9355722187e+01  0.000953804 0.0005578874 -31.38  0.001527398    1.657    0.396
        42 -11.1829    174.2233    148.4847   9.4171606309e+01   3.9353043944e+01  0.001017595 0.0005640914  62.52  0.001596421    1.877    0.467
        43 -13.2284    144.5563    146.0097   9.4145584863e+01   3.9351484468e+01  0.001786311 0.0007807257  54.55  0.002826631    2.427    0.588
        44 -13.0890      5.3544    139.8656   9.4023334125e+01   3.9347857739e+01  0.001767884   0.00137219 -19.97   0.00206282    1.272    0.214
        45 -13.3970      2.8894    125.8553   9.4021602653e+01   3.9338214039e+01  0.003485938   0.00136532 -86.75   0.00531517    2.510    0.602
        46 -12.4312      3.4387    112.2726   9.4022508913e+01   3.9328853242e+01  0.001221843 0.0008488797   2.05  0.001724608    1.464    0.317
        47 -12.2778     20.8489    141.2699   9.4036918767e+01   3.9348764152e+01 0.0007939808 0.0005804772  16.02 0.0007305468    1.413    0.292
        48 -13.3920    135.5838    127.9149   9.4138235890e+01   3.9339059253e+01  0.003293585 0.0005250845  84.05   0.00304529    6.888    0.855
        49 -11.7805      9.3849    145.8523   9.4026692857e+01   3.9351966903e+01   0.00102427 0.0005272221  89.53   0.00164898    1.928    0.481
        50 -11.6007    160.5369    127.8692   9.4160181997e+01   3.9338906864e+01 0.0009403527 0.0006086719  66.37  0.001686521    1.592    0.372
        51 -12.4769    113.8510    118.7354   9.4119400482e+01   3.9332836178e+01 0.0008833256 0.0006545712  87.66 0.0007087584    1.344    0.256
        52 -10.8082    130.7811    213.4370   9.4131439597e+01   3.9398010594e+01 0.0006303068 0.0004129629  67.28 0.0007079471    1.571    0.364
        53 -10.7064    168.1117    113.0846   9.4167283034e+01   3.9328681897e+01 0.0009286327 0.0004106608  44.86  0.001471267    2.400    0.583
        54 -12.2432    134.8777    111.6444   9.4138103360e+01   3.9327851501e+01  0.001336336 0.0003283362 -88.16  0.001600932    4.017    0.751
        55 -10.9244    205.5051    110.2508   9.4200246595e+01   3.9326538338e+01 0.0007567518  0.000545305 -19.12  0.001083985    1.371    0.271
        56 -12.8386    117.0415    109.8126   9.4122475265e+01   3.9326673181e+01  0.001093126 0.0006492325  -2.37  0.001597507    1.702    0.412
        57 -12.3521     10.8990    110.8904   9.4029111776e+01   3.9327871660e+01   0.00183931 0.0004485827 -14.28  0.002223297    4.029    0.752
        58  -7.0636    132.7769    235.7049   9.4132526064e+01   3.9413344713e+01  0.001176467 0.0004372466 -22.44  0.001173842    2.622    0.619
        59 -10.2244    124.4953     81.0956   9.4129893331e+01   3.9306851083e+01 0.0005319798 0.0004709645 -11.86 0.0006907752    1.132    0.117
        60 -10.4767    147.0123     80.5062   9.4149704179e+01   3.9306337444e+01 0.0005227142 0.0003434146  -4.11  0.000450882    1.536    0.349
        61  -9.7024    120.3456     79.2853   9.4126300127e+01   3.9305623213e+01 0.0003900557  0.000226481 -42.40 0.0006831085    1.647    0.393
        62 -11.7318    133.5956    249.7521   9.4132824037e+01   3.9423019960e+01 0.0006959132 0.0004587936 -80.48   0.00136424    1.479    0.324
        63 -14.4542    157.4309     55.4186   9.4159609762e+01   3.9288999899e+01   0.00332958  0.002849557  -8.67  0.002508708    1.175    0.149
        64 -12.1676    125.0050    247.3066   9.4125333833e+01   3.9421375252e+01  0.001014789 0.0004514934 -86.97  0.001637919    2.212    0.548
        65 -10.6624     13.4711     59.7975   9.4032959738e+01   3.9292657539e+01 0.0005945051 0.0004866112   1.01 0.0003881775    1.243    0.195
        66 -12.9000    173.8611     33.0132   9.4174712737e+01   3.9273479529e+01  0.001083238 0.0008333735 -58.62 0.0009960919    1.243    0.196
        67 -10.2800    131.1703     28.8455   9.4137328908e+01   3.9270816863e+01 0.0005333283 0.0004536922  39.92 0.0005978141    1.227    0.185
