#   1 NUMBER                 Running object number                                     
#   2 MAG_AUTO               Kron-like elliptical aperture magnitude                    [mag]
#   3 X_IMAGE                Object position along x                                    [pixel]
#   4 Y_IMAGE                Object position along y                                    [pixel]
#   5 X_WORLD                Barycenter position along world x axis                     [deg]
#   6 Y_WORLD                Barycenter position along world y axis                     [deg]
#   7 A_WORLD                Profile RMS along major axis (world units)                 [deg]
#   8 B_WORLD                Profile RMS along minor axis (world units)                 [deg]
#   9 THETA_WORLD            Position angle (CCW/world-x)                               [deg]
#  10 FWHM_WORLD             FWHM assuming a gaussian core                              [deg]
#  11 ELONGATION             A_IMAGE/B_IMAGE                                           
#  12 ELLIPTICITY            1 - B_IMAGE/A_IMAGE                                       
         1 -11.8065     87.0968     40.3044   6.6328299720e+01   5.7237106647e+01    0.9555833    0.3739795 -29.01  0.003673115    2.845    0.649
         2 -11.6595     60.4230     27.2016   7.0149485391e+01   6.3992065493e+01    0.7544538    0.4124274  14.80  0.003401511    2.555    0.609
         3 -12.7936     68.6110     30.9330   6.8729143584e+01   6.2061556447e+01    0.8918897      0.60275  37.66  0.005018674    1.409    0.290
         4 -11.7350     30.5322     23.9201   8.1670637244e+01   6.8774240836e+01    0.5006794    0.2821586 -41.27  0.001522859    1.729    0.422
         5 -11.5482     90.4274     20.6313   5.7364755646e+01   5.9068116620e+01    0.5789491    0.2675561 -12.29  0.002074474    3.037    0.671
         6 -11.0811     93.3461      9.5623   5.2003019204e+01   5.9543723872e+01     0.433028    0.2200264 -12.37    0.0020753    2.321    0.569
         7 -10.9909     50.2201     24.6399   7.3083622298e+01   6.5983909130e+01    0.4599425    0.2692892 -22.04  0.002506754    1.676    0.403
         8 -10.4217     54.9384     17.6496   6.7889602426e+01   6.6139997753e+01    0.2907377    0.2152766 -12.32 0.0009738934    1.246    0.198
         9 -12.1744    116.1748     14.4676   4.8748244799e+01   5.3949126316e+01    0.9400382    0.4879045  58.45  0.004567787    1.676    0.403
        10 -11.1003    100.7788      5.4188   4.8569281885e+01   5.8261431714e+01    0.3223172    0.2216363  18.81 0.0002901769    1.563    0.360
        11 -10.9970    105.0786      1.9035   4.6272636189e+01   5.7569645194e+01     0.494231    0.2617739  65.29  0.002510122    1.730    0.422
        12 -11.3509    103.1977     10.2672   4.9946683017e+01   5.7307036096e+01    0.7021379    0.3010792  34.02  0.002802951    2.778    0.640
        13 -10.6489    108.8691      7.8177   4.7768161520e+01   5.6233428458e+01     0.352231    0.2286893 -45.68   0.00122215    1.867    0.464
        14 -12.1029     25.5336      7.6882   7.6124223914e+01   7.1645014843e+01    0.5497713    0.2161307 -36.16  0.000687854    2.411    0.585
        15 -11.9424     19.1576     15.6924   8.3590987128e+01   7.1276209388e+01    0.6965097    0.3135633 -45.65  0.003644638    2.366    0.577
        16 -12.4453     15.6092      5.7990   8.0454831477e+01   7.3036323413e+01    0.7923899    0.5885958   6.15  0.005777763    1.162    0.139
        17 -12.7360      4.6297     10.6000   8.9328953236e+01   7.3379188826e+01    0.7124763    0.4252118 -44.50  0.001400944    1.616    0.381
        18 -10.9066      2.2047      2.3843   8.6592291121e+01   7.4778886949e+01    0.2696808    0.2289374 -11.88  0.001132876    1.332    0.249
        19 -11.1267     84.7326     19.0776   5.8346100787e+01   6.0421756900e+01    0.5347055    0.2654953  27.18  0.002324833    2.509    0.601
        20 -10.4554    170.4746     14.8117   4.0160213866e+01   4.0754753298e+01    0.5728433    0.3116056  87.24  0.002679585    1.976    0.494
        21 -10.7920    160.7182     17.4893   4.2214903723e+01   4.2875422347e+01    0.5720606    0.2787701  56.43  0.001770139    1.858    0.462
        22 -10.6570    150.7182     14.4505   4.2725029611e+01   4.5637047353e+01    0.4927729      0.30659  21.63  0.002367218    2.278    0.561
        23 -10.1702    148.7614     10.7540   4.1864017528e+01   4.6466754199e+01    0.2658046    0.1989194  88.22 0.0009378805    1.320    0.242
        24 -10.2496    124.3956      8.1775   4.4914404357e+01   5.2579762973e+01    0.5136999    0.1764285  49.78   0.00208719    2.499    0.600
        25 -10.1105     49.1278     11.5168   6.7233388576e+01   6.7811546796e+01    0.2075579    0.1918753 -32.47  0.001170592    1.484    0.326
        26  -9.6085     31.2496     11.9718   7.5503477166e+01   7.0369983908e+01    0.1675253    0.1407685 -17.17 0.0008455814    1.260    0.206
        27  -9.4160     54.1979     10.8221   6.4865344862e+01   6.7050834564e+01    0.1743321    0.1199079  14.50 0.0006562283    1.344    0.256
        28  -9.2685    233.5835     10.5540   3.3105931296e+01   2.6555736046e+01     0.122106    0.0964102 -68.74 0.0001403559    1.011    0.011
        29  -9.8933     38.2204      9.4965   7.0922292125e+01   6.9716053631e+01    0.2211386    0.1456522   6.56 0.0008251808    1.424    0.298
        30  -9.1117     77.5129      9.0642   5.6098215310e+01   6.2896261121e+01     0.169978    0.1179108 -15.47 0.0002970087    1.491    0.329
        31 -10.6582    200.7821      7.4349   3.5031740491e+01   3.4239904102e+01    0.3499769    0.1833055 -46.28  0.001065644    1.772    0.436
        32  -8.7597    226.6830      7.7073   3.2995551122e+01   2.8357163339e+01    0.1104051    0.0894938  50.56 0.0002621086    1.601    0.375
        33 -10.2172    139.5873      4.2759   4.1146661645e+01   4.9262555242e+01    0.4537911    0.2338454 -10.01  0.002122473    2.578    0.612
        34  -9.6252    162.8015      4.4730   3.8149961668e+01   4.3605488983e+01    0.2298621    0.2135502 -32.92  0.001074059    1.239    0.193
        35 -10.1913     72.3696      4.7191   5.5654714947e+01   6.4308853328e+01    0.2472723    0.1691615  64.24  0.001062948    1.723    0.420
        36 -10.1035     71.6708      1.6942   5.4451974650e+01   6.4701416910e+01    0.6998136    0.2641237  25.23  0.002423528    4.579    0.782
        37  -9.5042     51.4596      6.4842   6.3753781912e+01   6.7970203651e+01    0.2152336   0.08730591  37.08 0.0009107293    2.252    0.556
        38  -9.9917    132.3198      4.6101   4.2361891822e+01   5.0985547239e+01    0.2351971    0.2143835  77.44  0.000706239    1.075    0.070
        39  -9.0009    210.3157      3.3051   3.3254533300e+01   3.2459439316e+01     0.115888   0.08872859  49.09 0.0003912983    1.624    0.384
        40  -9.3994     41.8887      3.3800   6.6056721851e+01   6.9840488599e+01    0.1667071    0.1216475  22.45 0.0007306943    1.146    0.128
        41  -8.9011    197.5147      2.5061   3.4120338055e+01   3.5484287135e+01    0.1274816    0.1035912 -78.87 0.0008101914    1.038    0.036
        42  -9.2257    214.5253      1.4150   3.2500107524e+01   3.1696141695e+01    0.1227794   0.09897554 -78.53 8.873818e-05    1.015    0.015
        43  -9.0976     56.4746      1.5041   5.9335222974e+01   6.7574897777e+01    0.1186022   0.09885562  19.92 -5.741883e-05    1.064    0.060
        44 -10.6487     13.0790    106.7206   1.1243441433e+02   5.3016770274e+01    0.3991522     0.256692 -26.73  0.002230984    1.874    0.466
        45  -9.9672     17.6269    106.1925   1.1085801490e+02   5.2821280253e+01    0.2759735    0.1567897 -61.64 0.0005823307    1.398    0.285
        46  -8.9830     98.2211    115.4250   8.6964990132e+01   4.0155300422e+01     0.213484    0.1438176  51.62 0.0009467692    1.647    0.393
        47  -9.4495     59.4624    112.5296   9.8324072186e+01   4.6990413315e+01    0.1435827    0.1278315 -55.17 2.901292e-05    1.015    0.015
        48  -9.0801     47.2971    111.3295   1.0202544959e+02   4.8782926651e+01    0.1446404   0.09453561 -37.22 0.0001923876    1.637    0.389
        49 -10.4828     32.2815    109.6290   1.0662499393e+02   5.0761004867e+01    0.3667473    0.2447914 -60.01   0.00184546    1.249    0.199
        50  -9.8149     62.4917    110.4969   9.6888037756e+01   4.7080725775e+01     0.144366    0.1298885 -55.16 0.0008106321    1.001    0.001
        51  -9.4457    113.4558    107.5050   8.0466456038e+01   3.9048825572e+01    0.1547686    0.1489105 -42.09 2.995711e-05    1.010    0.010
        52  -8.5031    111.3135    104.3081   8.0198486636e+01   4.0202552117e+01    0.1559904    0.1226515  -7.49 0.0007027181    1.626    0.385
        53 -12.3637    145.4062    100.2009   7.0032456730e+01   3.3673583225e+01    0.7635648     0.374566  34.00  0.002572588    2.883    0.653
        54  -9.3780     36.7659    103.4185   1.0392084785e+02   5.1837889345e+01    0.1763474    0.1298651  -1.53 0.0009597602    1.702    0.413
        55 -10.0858    132.5539     99.7356   7.3114942578e+01   3.6676903127e+01    0.5900819    0.3016082 -54.69   0.00214521    2.327    0.570
        56  -9.9598     62.5579    102.1618   9.4894504885e+01   4.9080178265e+01    0.2526034    0.1971231  54.06  0.000840674    1.503    0.335
        57  -9.9008     48.5082    101.9763   9.9606100905e+01   5.0914899437e+01     0.325469    0.1225161 -59.18  0.001153979    2.331    0.571
        58  -9.5318     45.7244     98.9016   9.9865059726e+01   5.1971077047e+01    0.2092946    0.1815063 -82.41  0.001096257    1.248    0.199
        59 -10.6910     15.4631    100.5424   1.1063989437e+02   5.4334135515e+01    0.3675948    0.1932437 -69.02  0.001218866    1.594    0.373
        60  -8.6581    108.6809    101.2392   8.0101250176e+01   4.1418461593e+01    0.1468717    0.1204923  78.10 0.0002150383    1.514    0.340
        61  -9.5573     53.8796    100.8136   9.7504055602e+01   5.0543389630e+01     0.183556     0.159408  89.26 0.0004383184    1.306    0.235
        62  -9.8338     53.9926     97.0790   9.6565840748e+01   5.1416011097e+01    0.4419204    0.2396314  10.66  0.001792856    2.895    0.655
        63 -10.4118      4.0089     99.7029   1.1436686156e+02   5.5253875674e+01    0.3299135    0.1363593 -63.73   0.00112592    1.787    0.440
        64 -11.1953     25.6065     96.8721   1.0646337484e+02   5.4431096606e+01    0.4242668    0.4034102  18.02  0.002850637    1.249    0.199
        65  -9.9234     21.2962     91.4677   1.0692289251e+02   5.6056118061e+01    0.2531115    0.1973371  87.14 0.0006059801    1.473    0.321
        66 -10.1746     88.0120     97.1707   8.5238250254e+01   4.6237865930e+01    0.2730661    0.2097943 -47.23 0.0007878533    1.227    0.185
        67 -11.1511     75.3066     95.2352   8.8829877591e+01   4.8809977513e+01    0.5156947     0.379948 -38.94  0.001977921    1.303    0.232
        68 -10.2075     96.1452     96.3148   8.2453224714e+01   4.4950391889e+01     0.259066    0.2202016  11.30 0.0007307541    1.323    0.244
        69  -9.6389     39.0140     96.4936   1.0166706504e+02   5.3269977127e+01    0.2647639    0.1837182 -29.03  0.001074656    1.578    0.366
        70 -10.3798     39.7070     92.5016   1.0051148889e+02   5.4140777557e+01    0.2529423    0.2177041 -61.10 0.0002362345    1.096    0.087
        71 -10.2950     33.8235     91.9819   1.0251040652e+02   5.4852112441e+01    0.3976813    0.2818976   0.38   0.00208605    1.733    0.423
        72 -10.5379    116.8248     94.3342   7.5791490178e+01   4.1242984758e+01    0.4582161    0.2384404  30.63  0.001498695    2.638    0.621
        73 -10.4832     52.2610     92.0629   9.5920493519e+01   5.2807650721e+01    0.3384718    0.2188348 -47.67  0.001238642    1.359    0.264
        74 -10.2526      2.1415     82.7614   1.1228754529e+02   5.9298140334e+01    0.2971384    0.2300615   8.75 0.0009991406    1.587    0.370
        75 -11.3191      3.9249     88.6278   1.1264736883e+02   5.7854102724e+01    0.5446141    0.2278603 -55.47  0.001883506    1.771    0.435
        76  -9.7990      7.6988     85.3084   1.1069439105e+02   5.8410924185e+01    0.2061257    0.1494504 -72.20 0.0002469481    1.240    0.194
        77 -10.4840    123.4561     92.2872   7.3364035143e+01   4.0245734564e+01    0.3971658    0.2005735  32.23  0.001382796    2.722    0.633
        78 -10.2459     14.9863     86.9409   1.0832283617e+02   5.7572456577e+01    0.5571347    0.2550834 -86.38  0.002070188    3.870    0.742
        79 -10.1880     87.9763     88.2553   8.2674089022e+01   4.8226505513e+01      0.31032     0.203399  33.26  0.001350832    1.640    0.390
        80  -9.6895     91.4178     87.2313   8.1265759684e+01   4.7821073363e+01    0.2929557    0.2323108 -81.21 0.0009746759    1.704    0.413
        81  -9.9335    119.1553     86.5299   7.2812706311e+01   4.2365883094e+01    0.3168806    0.2066547  43.73 0.0008560878    1.561    0.360
        82  -9.6909     52.2909     85.1517   9.4093483135e+01   5.4389067245e+01     0.458628     0.136829 -44.59  0.001560014    3.143    0.682
        83 -10.5153    146.2516     83.7412   6.5090445607e+01   3.6735822219e+01    0.4103255    0.3091086  10.33  0.001832545    1.828    0.453
        84  -9.2655    134.0000     84.9995   6.8433519447e+01   3.9350144101e+01    0.2581033   0.08685362 -40.15 0.0007364131    2.943    0.660
        85  -9.9876     25.3705     84.5176   1.0394787323e+02   5.7345697991e+01    0.2673396    0.1868661  66.87  0.001378109    2.007    0.502
        86 -10.1800    156.0255     96.8980   6.6626650945e+01   3.1879161022e+01     0.254676    0.2178406 -42.57            0    1.143    0.125
        87 -10.4495    160.7481     81.7332   6.1295702667e+01   3.3646977408e+01    0.4779974    0.2623602  66.38  0.001436912    2.255    0.557
        88 -11.1132     38.5323     79.1043   9.7615617043e+01   5.7337813703e+01    0.4653383    0.4018888  56.37  0.002851461    1.455    0.313
        89 -11.0076    105.1522     78.4737   7.4309518315e+01   4.6949451191e+01    0.5879427    0.4303797 -12.26  0.002598506    1.715    0.417
        90 -10.1582     20.7855     80.7967   1.0485168395e+02   5.8565324490e+01    0.2791799     0.183004 -40.11   0.00151675    1.369    0.269
        91 -10.9250    177.0035     78.5715   5.7183108277e+01   3.0289661664e+01     0.264019    0.2096684 -39.84 0.0001698758    1.232    0.188
        92  -8.9665    186.7931     78.4002   5.5372505908e+01   2.7972032691e+01    0.2060708    0.1355842  47.82 0.0007040898    1.635    0.388
        93 -10.0519    143.8933     78.2113   6.3987777160e+01   3.8326375273e+01    0.2238063    0.2067396 -77.10 0.0004451041    1.139    0.122
        94 -11.5275    114.8748     71.1769   6.9153498097e+01   4.6281731212e+01    0.5658197    0.5311796 -40.83  0.001347136    1.083    0.076
        95 -10.6049     98.8553     75.9833   7.5412361450e+01   4.8718089554e+01    0.4641717    0.2502289 -33.34  0.001904604    1.997    0.499
        96  -9.3529     69.7382     76.4365   8.5230373594e+01   5.3831017307e+01    0.2548279    0.1612477 -28.33  0.001184972    1.739    0.425
        97 -10.3389      5.3635     77.0977   1.1001415025e+02   6.0415463997e+01    0.2005611    0.1794997   9.28 0.0007572775    1.361    0.265
        98  -9.8631      3.7923     72.7155   1.0975223730e+02   6.1481282639e+01    0.3053674    0.1177097 -54.02 0.0009904089    1.856    0.461
        99 -11.3781     30.6398     72.0997   9.8834199865e+01   5.9671727677e+01    0.6947936    0.2496677 -44.95  0.002926497    2.342    0.573
       100 -10.0458     24.5125     74.4766   1.0189877260e+02   5.9689720231e+01    0.2101517    0.1737908 -26.78 0.0005493371    1.179    0.152
       101 -10.8708     20.5907     73.2076   1.0315002764e+02   6.0286517023e+01    0.5340206    0.2391216 -36.90  0.002486677    2.212    0.548
       102  -9.1820    204.8463     75.1655   5.1589347285e+01   2.4269615605e+01     0.187244    0.1703656  24.31  0.000442486    1.336    0.251
       103 -10.2759    146.8141     74.8780   6.2311488923e+01   3.8234559065e+01    0.2418965    0.2093343  53.17 0.0003027502    1.153    0.132
       104  -9.5492     93.2953     75.1216   7.6870054686e+01   4.9977191431e+01    0.2585323    0.2008869  24.84  0.001308194    1.379    0.275
       105 -10.4874    139.7783     71.0229   6.2746853645e+01   4.0597937189e+01    0.4527704    0.3185574  -0.52  0.001937558    2.104    0.525
       106 -10.0003    138.5344     67.9410   6.2074769365e+01   4.1430885539e+01    0.2968609    0.2186763  -6.28 0.0009783711    1.792    0.442
       107 -10.6685     52.7074     71.3781   8.9940892467e+01   5.7350047679e+01    0.3627129    0.2519149 -32.01 0.0007334714    1.369    0.269
       108  -9.8041     57.4129     68.8322   8.7339953225e+01   5.7243691704e+01    0.2444273    0.2062273  29.66  0.001095327    1.289    0.224
       109 -11.7726     56.1635     63.3460   8.6010541045e+01   5.8529302101e+01    0.6197937    0.3723362 -45.74  0.001192937    1.532    0.347
       110  -9.5233    169.7372     70.8363   5.6375700425e+01   3.3374991178e+01     0.245263    0.1568797  20.46 0.0009392353    2.706    0.631
       111 -10.3593     66.7102     70.6417   8.4467268768e+01   5.5504388336e+01    0.3520499    0.2384778   2.13  0.001173221    1.932    0.482
       112 -10.3870     70.0030     69.0031   8.2735582926e+01   5.5317782584e+01     0.410273    0.2386639  51.48  0.001441559    2.288    0.563
       113 -10.1492    126.3974     70.1642   6.5752003564e+01   4.3879395491e+01    0.3526235    0.2241872  68.22   0.00147815    2.047    0.511
       114 -10.0040    122.0416     65.9360   6.5503381383e+01   4.5623023760e+01    0.4065365    0.1999769 -41.09 0.0007258294    2.046    0.511
       115 -10.6285    101.4397     69.4746   7.2478944397e+01   4.9450584484e+01    0.3335567    0.2527584  10.77  0.001620928    1.591    0.372
       116 -10.8321     39.9958     67.0366   9.3611841681e+01   5.9802613513e+01    0.3775865    0.3348084 -53.66  0.001952565    1.200    0.167
       117 -11.1158    149.0455     66.1336   5.9158069188e+01   3.9210290686e+01    0.5022479     0.416945 -27.47  0.002592978    1.273    0.215
       118  -9.7888     18.0071     66.4709   1.0251246040e+02   6.1957627864e+01    0.3636684    0.1956549 -22.28  0.001787724    2.168    0.539
       119 -10.5681     25.4188     66.4022   9.9407673494e+01   6.1376149593e+01    0.4949603    0.1829047 -64.20  0.001888201    3.184    0.686
       120 -12.1078     32.3945     59.0892   9.4303729012e+01   6.2254119615e+01    0.7458364    0.4231735   6.10  0.001638489    2.226    0.551
       121 -11.2658     17.7263     61.1709   1.0121825676e+02   6.3111014285e+01    0.5498981    0.2806643  -3.26  0.002668573    2.636    0.621
       122 -10.7522     24.1804     60.1750   9.8155265269e+01   6.2798863562e+01     0.248256    0.2100763 -45.28 0.0005669275    1.106    0.095
       123  -9.2521    131.7738     67.1921   6.3452588188e+01   4.3156699947e+01    0.2010552    0.1717263  21.71  0.000447921    1.286    0.222
       124 -10.9581     77.2767     61.3117   7.7511042365e+01   5.5583798756e+01    0.5226908    0.3918698  16.69  0.001813052    1.443    0.307
       125  -9.6223     70.8075     59.8480   7.9292297705e+01   5.6960943410e+01    0.2044338    0.1736232 -77.86 0.0004610789    1.682    0.406
       126  -9.4295    182.0169     60.9721   5.1435694964e+01   3.1970202653e+01     0.207851    0.1714747  28.02 0.0003342079    1.502    0.334
       127  -9.9534    106.6109     59.5449   6.7561527297e+01   5.0143163565e+01    0.2448635    0.2290979   5.95  0.000464458    1.037    0.036
       128 -10.8747     20.7851    244.1625   1.2313859894e+02   2.0923937903e+01    0.2060137    0.1476633  67.01  0.000392455    1.024    0.023
       129  -8.7097     21.4875    232.5182   1.2235544853e+02   2.3124565101e+01    0.1157828   0.08558258  71.10 7.192414e-05    1.003    0.003
       130 -12.1579     88.0949     57.3798   7.2452916340e+01   5.4299221520e+01    0.8056507    0.4259631  41.20  0.000991919    1.894    0.472
       131 -10.6964     86.9435     51.5293   7.0679780457e+01   5.5517254524e+01    0.4551825    0.2467294  42.36  0.001342715    1.822    0.451
       132  -9.2818     55.9563    216.6234   1.1435534374e+02   2.2396953751e+01    0.1859852    0.1387555 -85.77 0.0007095136    1.241    0.194
       133 -12.3532     78.4657     32.5889   6.6011976238e+01   6.0012043435e+01    0.5482672     0.497111  63.80   0.00340632    1.396    0.284
       134 -11.7714     49.1877     39.5595   7.9996369465e+01   6.3861473978e+01    0.4757262    0.3266558  28.47 0.0004646978    1.467    0.319
       135 -11.7073     56.8027     37.6725   7.6089340558e+01   6.3036678655e+01    0.5338887    0.3412224  -3.54  0.002374131    1.876    0.467
       136 -12.3094    147.2912     53.8488   5.5716305600e+01   4.1595877673e+01    0.4659142    0.3842608  30.40 0.0002408524    1.348    0.258
       137 -10.2250    145.9853     48.2348   5.4209471532e+01   4.2743544229e+01    0.2809165    0.2548305  31.45 0.0003203955    1.170    0.145
       138 -11.5044    100.4795     55.8280   6.8040356649e+01   5.2070799463e+01    0.5251741    0.4739049  -9.60  0.002495329    1.086    0.079
       139 -10.2595    107.0005     51.9892   6.4785519148e+01   5.1301057707e+01    0.5417183    0.2511683  48.41  0.002224897    2.076    0.518
       140 -10.1248      3.1802     56.5460   1.0636286290e+02   6.5014473732e+01     0.233335     0.173944 -46.82 0.0009246606    1.029    0.029
       141  -9.6758    184.7328     56.0018   4.9634847132e+01   3.2065057309e+01     0.197135    0.1758913 -46.78 0.0003515366    1.114    0.102
       142 -10.4572    166.0581     53.5952   5.2058516833e+01   3.7010787806e+01    0.3590339    0.2104441 -38.01 0.0009651477    1.698    0.411
       143  -9.9479    133.5253     53.9807   5.8744554816e+01   4.4906448434e+01    0.3738551    0.2352888  -3.23  0.001077388    2.552    0.608
       144 -10.4776    120.9651     53.9834   6.1768148802e+01   4.7853827468e+01    0.3648593    0.3154885 -11.30   0.00108936    1.228    0.186
       145 -12.0018     41.9346     53.4776   8.8369930316e+01   6.2311816958e+01    0.4202305    0.2349634 -26.00 0.0007343139    1.946    0.486
       146  -9.2779    192.9948     54.4578   4.7974102901e+01   3.0294557684e+01    0.2024464    0.1351632  69.65 0.0003631131    1.503    0.335
       147 -10.9127     59.8655     50.1429   7.9837338698e+01   6.0473742529e+01     0.730852    0.3433736 -52.61  0.002990594    2.846    0.649
       148 -10.9128     55.9685     50.0000   8.1319409309e+01   6.1083551705e+01    0.4338279    0.3089308 -49.67  0.001943707    1.558    0.358
       149 -10.3871    184.0213     51.5681   4.8530119778e+01   3.2890176730e+01    0.2699305     0.233475 -68.37 0.0003406133    1.104    0.094
       150  -9.7749    161.6589     51.4478   5.2210335213e+01   3.8414663169e+01    0.3334565    0.1755099 -31.62  0.001419112    1.992    0.498
       151  -9.8257    140.5855     52.1661   5.6588547232e+01   4.3482941336e+01    0.2518979    0.1927891  70.47 0.0006333425    1.370    0.270
       152  -8.9648    174.2560     57.3465   5.1718185367e+01   3.4426305294e+01    0.1397237    0.1139637  15.29 0.0002841772    1.592    0.372
       153  -9.6535     29.2971     49.3826   9.2451953508e+01   6.4490549047e+01    0.2353783     0.142569 -50.73 0.0007355975    1.526    0.345
       154  -9.6206    228.4488     49.5211   4.2277143724e+01   2.2815574826e+01    0.1334148    0.1133973 -62.66 0.0001063354    1.006    0.006
       155  -8.7660    171.7430     49.6891   4.9951035855e+01   3.6176318729e+01     0.135236    0.1109437  23.09 0.0006920194    1.525    0.344
       156  -9.9912     64.5080     45.4572   7.6239114173e+01   6.0544428624e+01    0.3038986    0.1842353  -0.56  0.001356229    2.404    0.584
       157  -9.2703    206.0373     46.0000   4.4033356860e+01   2.8399693843e+01    0.2120925   0.07467248  66.08 0.0004321699    2.843    0.648
       158 -10.0142    152.5622     44.8359   5.1868887259e+01   4.1604575877e+01    0.2676786    0.1457628 -24.92  0.001140749    2.125    0.529
       159  -9.9142    141.3529     44.9898   5.4108489645e+01   4.4335472306e+01    0.2273551    0.1839759  47.24 0.0004216393    1.207    0.171
       160 -10.4651    148.8611     41.3066   5.1457672678e+01   4.2997517708e+01    0.2994958    0.2170417  26.50  0.000640047    1.708    0.415
       161  -9.8537    144.7222     42.4525   5.2615916613e+01   4.3860637975e+01    0.2948875     0.215597  46.55  0.001036553    1.353    0.261
       162  -9.5204     76.1856     45.5784   7.2033572768e+01   5.8508295255e+01    0.2074525    0.1303041  40.92   0.00104568    1.584    0.369
       163 -10.5369     77.1304     41.1787   6.9967245040e+01   5.9023631886e+01    0.4622432    0.2745769  -6.44  0.001798718    2.423    0.587
       164 -10.1842    105.1069     42.9570   6.2024411110e+01   5.3079779826e+01    0.4600719    0.2002256  44.55  0.001864827    2.205    0.546
       165 -10.7887    157.6856     41.2750   4.9850139852e+01   4.0820956242e+01    0.4411912    0.2480625 -30.80  0.001408434    1.878    0.468
       166  -9.8144    118.2937     42.4442   5.8413993022e+01   5.0181972323e+01    0.2589361    0.2324617 -10.54  0.001485859    1.159    0.137
       167 -10.9752     31.7028     41.6653   8.8553390338e+01   6.5681773606e+01    0.4520715    0.2525882  24.01  0.002475335    1.897    0.473
       168 -10.5224     40.2295     40.2603   8.4152025642e+01   6.4935219127e+01    0.3581366    0.2407759   9.69  0.002060772    1.559    0.359
       169 -11.1682    105.6761     33.8996   5.8482121944e+01   5.4187132800e+01    0.7781539    0.4632451 -16.20  0.002411203    1.986    0.496
       170 -10.4809     98.7724     41.5063   6.3263930807e+01   5.4656086307e+01    0.3047659    0.2802185  -1.31 0.0009411294    1.063    0.059
       171 -10.2957    101.4474     37.5236   6.0995462574e+01   5.4637428491e+01    0.4186048    0.2372243  44.94  0.001986591    1.650    0.394
       172  -9.5634     23.1833     41.4172   9.2445260972e+01   6.6585107919e+01    0.2121992    0.1333274 -37.00 0.0006172825    1.304    0.233
       173  -9.7002     13.3637     34.2761   9.4626682858e+01   6.8736930038e+01    0.2674364    0.1643908  28.01  0.001246715    1.884    0.469
       174 -10.1932     10.5457     41.4972   9.8576053829e+01   6.7598744172e+01    0.3804627    0.2160993  10.81  0.001962509    1.942    0.485
       175 -11.0715     17.7316     38.6719   9.4072300682e+01   6.7576300700e+01    0.3931275    0.2396895 -38.28  0.001230557    1.317    0.241
       176 -10.2957     13.1218     38.3518   9.6229839952e+01   6.8006087002e+01    0.2174393    0.1709978   4.00 0.0006728326    1.322    0.244
       177  -9.1143     66.5715     40.7466   7.3578673081e+01   6.0964326545e+01    0.1696431    0.1206224 -41.69 0.0004707061    1.508    0.337
       178  -9.3275    173.6378     39.4604   4.6722659915e+01   3.7111276438e+01    0.2742656    0.1023029  53.25  0.001031372    2.585    0.613
       179 -10.1495    126.3542     36.7067   5.4522616648e+01   4.9061937710e+01    0.4102448     0.218348  75.52  0.001603907    2.707    0.631
       180 -11.3745    244.6324     34.3581   3.7325999181e+01   2.1380688584e+01    0.2918257    0.1935704 -64.60 0.0007593213    1.321    0.243
       181 -10.3734    147.5651     34.8809   4.9663032162e+01   4.4147449041e+01     0.257892    0.1709131  53.54 0.0008165626    1.415    0.293
       182  -9.2689    135.1378     34.8011   5.2016174863e+01   4.7195672610e+01    0.1900383    0.1557296  27.35 0.0002758986    1.328    0.247
       183 -11.1355    236.0267     32.9211   3.7768384081e+01   2.3382705189e+01    0.2633552    0.2519643  80.51  0.001140524    1.291    0.226
       184  -9.6626    219.4454     32.7681   3.9309750818e+01   2.7056999786e+01    0.1685079    0.1253399 -20.41 0.0009428638    1.689    0.408
       185  -8.8274    206.7032     33.7049   4.0886351809e+01   2.9869827052e+01    0.1231438    0.1015925  37.78 0.0005628596    1.565    0.361
       186  -9.9322    156.0081     32.7609   4.7536652299e+01   4.2323551689e+01    0.3650183    0.1480082  54.79   0.00118613    2.231    0.552
       187  -9.3186    193.9171     32.3033   4.2018214641e+01   3.3076946480e+01    0.1861794    0.1567237  84.60 0.0003183104    1.096    0.088
       188  -8.9959    123.4278     32.4208   5.3670378436e+01   5.0294227835e+01     0.135843    0.1269394  52.84 2.741193e-05    1.027    0.026
       189  -9.3787    113.7597     31.4280   5.5535569546e+01   5.2669469171e+01     0.221358       0.1574   9.11 0.0006350607    1.699    0.412
       190 -10.0152    181.9328     31.2741   4.3261878973e+01   3.6108131364e+01    0.1933241    0.1688318  78.93 0.0008982599    1.070    0.066
       191  -9.4536     94.3046     31.2869   6.0584430461e+01   5.6987826008e+01    0.2503279    0.1659533  76.74  0.001154618    2.387    0.581
       192 -10.1647     36.5493     25.5821   7.9563813669e+01   6.7777645499e+01    0.2351513    0.1684464 -30.83  0.000904938    1.280    0.219
       193 -10.1698     29.6473     30.3886   8.4965895475e+01   6.7852795776e+01    0.2483727    0.1957008   2.17   0.00089791    1.165    0.142
       194  -9.3949    123.9957    206.0202   9.8138966877e+01   1.4452216458e+01    0.1945869    0.1803266  49.11            0    1.024    0.023
       195 -11.1670    167.3458     29.2674   4.4725536837e+01   3.9937207589e+01    0.2485051    0.2307886  50.05 0.0003803021    1.162    0.140
       196  -9.9382     23.3564     29.6525   8.7741868035e+01   6.8645557641e+01    0.2328757     0.205217  63.27  0.001554849    1.943    0.485
       197 -11.2172      3.1716     27.5109   9.7433609466e+01   7.0681221248e+01     0.410969    0.1868273 -30.84   0.00195886    1.933    0.483
       198 -10.2184     88.9122     28.7467   6.1137213891e+01   5.8433897682e+01    0.2322836    0.2127336  23.50 0.0009151777    1.055    0.052
       199  -8.6757    223.0074    187.9907   7.4270395213e+01   5.8978131179e-01    0.1555827    0.1341736  -7.50            0    1.000    0.000
       200  -9.2092    101.0607    175.9289   9.8721344940e+01   2.5012681072e+01    0.1705531    0.1641505 -33.93            0    1.184    0.156
       201  -9.0610    228.2054     27.3493   3.7228751024e+01   2.5776954115e+01    0.1698588     0.105729  89.77 0.0003690958    1.575    0.365
       202  -9.2929    204.0000     27.0225   3.9525871601e+01   3.1326563275e+01    0.2061045   0.07172816 -30.75 0.0006966179    2.924    0.658
       203  -9.9442     23.1249    166.7680   1.1699356418e+02   3.7546050658e+01    0.1905689    0.1443214  77.58 0.0004143211    1.166    0.142
       204  -9.6815     32.1417    166.2599   1.1471753206e+02   3.6778474710e+01    0.1795151    0.1653919 -16.66 0.0008789268    1.456    0.313
       205 -10.1062    179.8754     25.1160   4.1842617684e+01   3.7340285910e+01    0.2239814    0.1846207 -70.14 0.0002727572    1.153    0.132
       206 -10.6959    176.9693     21.8325   4.1306926914e+01   3.8420909050e+01    0.3863336    0.2838283  -2.72  0.001651004    1.869    0.465
       207 -11.5313     12.1512     25.1188   9.1635412620e+01   7.0437729884e+01    0.2361638    0.1687575 -25.62 0.0004096947    1.089    0.082
       208  -9.0428    160.4240     25.1952   4.4550155259e+01   4.2118082238e+01    0.1923906    0.1157312 -44.93 0.0009388914    1.722    0.419
       209 -10.6174    123.5308     22.0335   4.9973878308e+01   5.1458068137e+01     0.448294     0.265519  19.92  0.002029597    2.330    0.571
       210  -9.3188    147.9785     24.0358   4.6152650696e+01   4.5317611364e+01    0.2190016    0.1450725  41.39 0.0008714633    1.610    0.379
       211  -9.8782    110.8530     17.8770   5.1157886679e+01   5.4847695070e+01     0.262972    0.1531224  45.45 0.0004716089    1.551    0.355
       212  -9.6769    115.3094     23.9458   5.2422815290e+01   5.3180747702e+01    0.2751091     0.174036  36.96 0.0002024168    1.597    0.374
       213  -9.8170     15.9964    159.7041   1.1806179092e+02   3.9888458939e+01    0.1715618    0.1489888  80.87 0.0008443922    1.121    0.108
       214  -9.5214     39.2746    159.0417   1.1205908459e+02   3.7788444789e+01    0.1926351    0.1574848 -86.10 0.0009083283    1.046    0.044
       215  -9.8682    248.3219    155.3397   6.3285317254e+01   1.7906422883e+00    0.1371251   0.09419201  -5.84 0.0007050543    1.719    0.418
       216  -9.9120     11.5274    153.5395   1.1859125829e+02   4.1744049897e+01    0.2315005     0.100233 -88.11 0.0009227009    2.276    0.561
       217  -9.1010     45.0069    150.9687   1.0946460018e+02   3.9152104428e+01    0.2071535    0.1504418 -39.28 0.0007620955    1.649    0.394
       218  -9.8221    240.4729     23.4506   3.5337111241e+01   2.3606467886e+01    0.1258016    0.0984719 -66.17  -5.5695e-06    1.029    0.028
       219  -9.4253     68.4965     22.8541   6.5233628677e+01   6.3139449755e+01    0.1843011    0.1507416  25.46 0.0004698914    1.090    0.082
       220  -8.9875     30.5740    151.5009   1.1341861852e+02   4.0550579731e+01    0.1332857    0.1094922 -83.46 0.0001630069    1.018    0.018
       221  -9.9742      8.2287    151.6024   1.1924422972e+02   4.2467267920e+01    0.1382328    0.1230946  -3.87 0.0005241498    1.535    0.348
       222  -8.8865     34.3459    150.2847   1.1225743253e+02   4.0473538594e+01    0.1305904   0.09322286 -41.61 0.0007018246    1.647    0.393
       223 -11.0032      4.3902    147.2708   1.1982190279e+02   4.3790052626e+01    0.2142842    0.1865191  81.77 0.0002902313    1.149    0.129
       224 -10.2132     40.7761    146.6374   1.1001454079e+02   4.0703627334e+01    0.2243394    0.1887544 -55.19 0.0005090102    1.216    0.178
       225 -10.9816    131.1112     19.8105   4.7722648434e+01   4.9877975814e+01    0.4042507     0.242077  68.16  0.001234729    1.598    0.374
       226 -10.0157     22.4085    146.7766   1.1503713102e+02   4.2477375300e+01    0.1922628   0.09686837 -62.83 0.0009511606    1.656    0.396
       227  -9.6324     80.1805     18.9423   5.9656305281e+01   6.1358173952e+01    0.2250481    0.1713823 -31.13  0.001340737    1.436    0.304
       228  -9.4296    246.7887     19.3742   3.3999927980e+01   2.2774078733e+01    0.1592201    0.1002599  67.52 0.0009465466    1.684    0.406
       229 -12.7173     11.9223    125.6684   1.1542821488e+02   4.8496440604e+01     0.450216    0.3259493 -78.24  0.000446596    1.142    0.124
       230 -10.9463      6.6404    142.0816   1.1873738077e+02   4.4880625887e+01    0.2658529    0.2088879 -88.09 0.0005478954    1.064    0.060
       231 -11.7976      6.7070    136.4043   1.1813767676e+02   4.6250310298e+01    0.5045612    0.3179817 -84.34  0.002926342    1.332    0.250
       232 -12.5884     13.3397    133.9785   1.1602979231e+02   4.6361461912e+01    0.6191595    0.4661308 -52.34  0.002686713    1.329    0.247
       233  -9.8523     64.2381     17.8742   6.4487621319e+01   6.4506776125e+01    0.2759434    0.1659264   7.00  0.001193136    1.976    0.494
       234 -11.1145     25.8515    140.7226   1.1335844894e+02   4.3662310810e+01    0.2318442    0.1697455  -9.16 0.0009608542    1.949    0.487
       235  -8.9691     69.3555     17.3236   6.2442143457e+01   6.3632157150e+01    0.1378691   0.08375014  20.02 0.0007046058    1.765    0.433
       236  -9.3383    198.3189     16.5626   3.7512639608e+01   3.3861272895e+01    0.1647101    0.1106548  65.65  0.000302443    1.427    0.299
       237  -9.4193    182.0845     15.6629   3.9015672905e+01   3.7840924090e+01    0.1836541    0.1491805  78.92 0.0004374121    1.105    0.095
       238  -9.0068    193.6342     15.2445   3.7657438465e+01   3.5113145392e+01     0.135754   0.08446365 -73.27 0.0006937852    1.612    0.379
       239 -10.0540     21.8168    137.1742   1.1403625663e+02   4.4894734303e+01    0.1795293     0.133127 -53.18 0.0005033783    1.326    0.246
       240 -10.4067    249.6138    134.7974   5.8745746307e+01   4.9612660786e+00    0.2032263    0.1063769 -44.16 0.0009574096    1.728    0.421
       241 -12.7220     42.9852    128.0165   1.0649864748e+02   4.5123518042e+01    0.8083372    0.5021613 -46.02  0.004072036    1.614    0.381
       242 -11.1976     33.1851    119.8304   1.0812777470e+02   4.8165201293e+01    0.3688233    0.3027333  40.82  0.001588841    1.390    0.281
       243 -10.9797     28.0745    119.5472   1.0967438559e+02   4.8707671213e+01    0.3338796    0.2675593  82.30  0.001259141    1.294    0.227
       244 -10.9870     26.4121    128.0827   1.1147866681e+02   4.6744064305e+01    0.4524069    0.1821525  27.47  0.001217262    2.816    0.645
       245 -10.3398     55.9298    125.6522   1.0213144399e+02   4.4193987076e+01    0.2746447     0.190991 -69.60 0.0003441399    1.347    0.257
       246 -10.8010     66.8474    124.7023   9.8601737951e+01   4.2975906529e+01    0.2803452    0.1783471 -50.26   0.00133055    1.459    0.315
       247 -10.8558     33.0199    125.0171   1.0902670505e+02   4.6894437249e+01     0.213956    0.1787267 -68.08  0.000615961    1.017    0.016
       248 -10.4884     90.6738    121.6667   9.0728255397e+01   3.9995728313e+01    0.4889724    0.2876088 -41.93  0.001608912    1.755    0.430
       249 -11.2505     75.4102    120.0727   9.4976299432e+01   4.2866296050e+01     0.240387    0.2310745  47.43 0.0002635964    1.123    0.110
       250  -9.3493     61.2254    120.3850   9.9443124905e+01   4.4819362410e+01    0.1837458    0.1316672  45.80  0.000490138    1.535    0.349
       251 -12.1252     39.6213    116.2957   1.0547334360e+02   4.8397445939e+01    0.6003752    0.4067111 -63.71     0.002016    1.265    0.210
       252 -10.4405     20.2269    118.1710   1.1189875706e+02   4.9706778094e+01    0.3065044    0.2145555 -78.17   0.00176665    1.262    0.208
       253 -10.1705    116.3153    116.6905   8.2104988851e+01   3.6369349405e+01    0.2752361    0.2560025  -5.22 0.0006014439    1.171    0.146
       254 -10.3397    154.0828     17.6550   4.3214321256e+01   4.4491039408e+01    0.2898653    0.2160067  55.27 0.0006422969    1.264    0.209
       255  -9.9530      7.4539    106.5433   1.1423477626e+02   5.3423604651e+01     0.295618    0.1847914 -61.39 0.0009926092    1.261    0.207
       256 -11.3153      5.4724    113.3489   1.1579409257e+02   5.1910218707e+01    0.5589266     0.434794  13.62  0.002953582    1.638    0.389
       257 -10.6217     16.3314    109.6852   1.1183835895e+02   5.2071433537e+01    0.3279483    0.2624792  23.03  0.002076832    1.522    0.343
