#   1 NUMBER                 Running object number                                     
#   2 MAG_AUTO               Kron-like elliptical aperture magnitude                    [mag]
#   3 X_IMAGE                Object position along x                                    [pixel]
#   4 Y_IMAGE                Object position along y                                    [pixel]
#   5 X_WORLD                Barycenter position along world x axis                     [deg]
#   6 Y_WORLD                Barycenter position along world y axis                     [deg]
#   7 A_WORLD                Profile RMS along major axis (world units)                 [deg]
#   8 B_WORLD                Profile RMS along minor axis (world units)                 [deg]
#   9 THETA_WORLD            Position angle (CCW/world-x)                               [deg]
#  10 FWHM_WORLD             FWHM assuming a gaussian core                              [deg]
#  11 ELONGATION             A_IMAGE/B_IMAGE                                           
#  12 ELLIPTICITY            1 - B_IMAGE/A_IMAGE                                       
         1 -14.9882    159.7195     41.3150   8.3675699971e+01   3.9878606510e+01     1.562475      1.13994 -22.29  0.004388866    1.406    0.289
         2 -14.6233    172.1784      8.2953   7.0414687088e+01   4.0457353805e+01     1.163843     1.016629  47.96  0.003866131    1.157    0.136
         3 -11.4745    189.8479     14.6871   7.0404248698e+01   3.5179987126e+01    0.2417595    0.1971521  -4.76 0.0007204609    1.330    0.248
         4 -10.6632    150.8093    245.1918   1.2806853163e+02   9.0930002649e+00      0.14735    0.1085821  40.24 0.0004334534    1.104    0.094
         5 -19.7073     90.2032    234.0922   1.3773937234e+02   1.8519997580e+01      7.10709     4.655998  46.37   0.04628704    1.118    0.106
         6 -13.9682    197.2740    173.6805   1.0972860436e+02   1.1149312445e+01    0.6594468    0.4719844 -51.08   0.00230247    2.026    0.506
         7 -19.1373     74.3375     98.0125   1.2399562223e+02   4.7170569938e+01     17.34634    0.8334831 -57.64   0.02467481   18.633    0.946
         8 -12.0361     30.8885    182.3431   1.4571752351e+02   3.4068384844e+01    0.2136536    0.1667665  58.32 0.0003565725    1.071    0.066
         9 -11.5452     27.5989    179.9256   1.4627299007e+02   3.4847393470e+01    0.2614165    0.2004521 -30.49  0.001781344    2.139    0.532
        10 -10.4264     25.0560    185.5182   1.4711270769e+02   3.4024523671e+01    0.1532672    0.1166596  78.78 0.0004692696    1.140    0.123
        11 -12.5616    201.5205    222.4978   1.1666740430e+02   4.5904985431e+00     0.207326    0.1501166  26.05 0.0008218394    1.022    0.022
        12 -10.8785     22.5123    221.0466   1.4919456088e+02   2.8024774194e+01    0.1387091   0.08389705 -78.51 0.0008000011    1.767    0.434
        13 -11.2920     23.6908    215.2569   1.4875349052e+02   2.8871230640e+01    0.1307301    0.1100481 -84.97 0.0005312142    1.413    0.292
        14 -13.1202    156.9079    178.7458   1.1833684308e+02   1.7253987001e+01    0.3403875    0.3014024  36.04  0.001236356    1.072    0.067
        15 -13.9770    178.1281    171.9986   1.1302188871e+02   1.4658620232e+01    0.5796907     0.480604 -45.09  0.003664821    1.483    0.326
        16 -11.8696    168.7973    176.1809   1.1555441104e+02   1.5637082351e+01    0.1895651    0.1625228  45.46 0.0006794912    1.206    0.171
        17 -10.8725      8.0000    240.1234   1.5226402886e+02   2.6341042417e+01    0.1188442   0.04468429 -85.56 0.0007619217    2.669    0.625
        18 -10.8851     25.9172    172.3656   1.4619380187e+02   3.6476413763e+01     0.218283    0.1588999  64.25 0.0009748105    1.085    0.078
        19  99.0000     13.8220    240.0283   1.5131017148e+02   2.5840810522e+01     0.226613   0.06123016 -82.37  0.001236884    3.854    0.741
        20 -11.6805    223.8843    164.0800   1.0331124365e+02   7.9149315814e+00    0.2466243    0.1816264 -35.63 0.0007009041    1.599    0.375
        21 -13.1770     11.3276    206.0928   1.5068531111e+02   3.1549842454e+01    0.3997986     0.233229  27.36   0.00227575    1.926    0.481
        22  -9.5832     14.2601    162.3703   1.4822368393e+02   3.9497511775e+01    0.1024847   0.07471738 -59.02 0.0006977579    1.650    0.394
        23 -11.5253    237.2477    159.2098   1.0020398674e+02   6.3017352553e+00    0.1519681    0.1427268   1.98  0.001066937    1.365    0.267
        24 -12.3655    165.8442    158.4547   1.1302872396e+02   1.8917654260e+01    0.2572761    0.1732813 -18.63 0.0008335675    1.879    0.468
        25 -11.1630     17.5993    153.7152   1.4696371507e+02   4.0993914834e+01    0.2752692    0.1566562 -88.78  0.001600052    1.537    0.350
        26 -10.3711     25.7101    229.6821   1.4896109828e+02   2.6336379588e+01    0.1146673   0.07122305  79.85 0.0008849386    1.461    0.315
        27  -9.7422      9.6588    158.6316   1.4907524830e+02   4.0626201647e+01    0.1059094    0.0749273 -50.85 0.0007024713    1.856    0.461
        28 -14.7972    134.1695    146.1240   1.1760694360e+02   2.6827120050e+01     1.328968    0.6176317 -60.29  0.005116135    3.237    0.691
        29 -12.0872    139.6861    148.8943   1.1686764954e+02   2.5317587952e+01    0.3576564    0.2565905  52.10 0.0003734373    1.386    0.278
        30 -14.0853    135.9456    127.5225   1.1348602115e+02   3.0043721686e+01     1.782112    0.3422261 -49.92  0.004229038    7.012    0.857
        31 -11.8195    125.2332    186.4022   1.2595961276e+02   2.1145871937e+01    0.4608479    0.2233599  58.05  0.001220751    2.840    0.648
        32 -13.8040    154.9790    146.8584   1.1311025712e+02   2.2862513336e+01    0.4704431    0.3735496  65.12  0.002555755    1.521    0.342
        33 -10.4413    184.0638    151.0256   1.0796407746e+02   1.6739849904e+01    0.1960259    0.1680354  85.93 0.0009686417    1.733    0.423
        34 -10.2204     22.8404    156.1771   1.4588285975e+02   4.0030681380e+01    0.1376723    0.1229108 -80.21 0.0004205139    1.264    0.209
        35 -12.3787    137.6173    197.9819   1.2498755683e+02   1.7373264689e+01    0.5495858    0.2671768  55.99  0.002386247    2.693    0.629
        36 -12.4854    174.1668    148.4215   1.0940928750e+02   1.8996331514e+01    0.3380883    0.3111673 -52.84  0.001585518    1.319    0.242
        37 -11.0469     27.3441    145.7046   1.4404334240e+02   4.1834879100e+01    0.2158448    0.1845413 -81.34  0.001009859    1.188    0.159
        38 -11.8137    176.8921    143.1702   1.0779810663e+02   1.9321659255e+01     0.203192    0.1872827  60.96  0.001027074    1.286    0.222
        39 -12.9687    149.0323    133.1030   1.1163532786e+02   2.6454282750e+01    0.4296706    0.3012793  88.13  0.001881171    2.556    0.609
        40 -12.7656     45.9946    129.5859   1.3757743630e+02   4.3526584654e+01    0.3142977    0.2682917  12.72  0.002027592    1.493    0.330
        41 -13.0140    160.5622    128.1655   1.0801479603e+02   2.5059824525e+01    0.4283255    0.3742764 -27.13   0.00182439    1.192    0.161
        42 -15.1204    145.3961    145.4482   1.1493892301e+02   2.4897660554e+01     1.089555    0.7899321 -87.43  0.005267873    2.238    0.553
        43 -10.6227    141.6567    121.2856   1.1076262940e+02   3.0122301124e+01    0.1434406    0.1132343  77.53 0.0004035078    1.643    0.391
        44  -9.6276     23.6296    123.6666   1.4316127890e+02   4.7014059291e+01    0.1212717   0.08171552 -44.33 0.0007028698    1.837    0.456
        45 -12.0743    134.5704    106.7677   1.0905775366e+02   3.4383135107e+01    0.5915152    0.1470729 -43.75  0.001703016    4.139    0.758
        46 -12.5590    103.9072    113.6758   1.1869997950e+02   3.8843393906e+01    0.4039372     0.224111 -44.86  0.001581459    1.915    0.478
        47 -12.9750    118.5770    108.4890   1.1357642424e+02   3.7229564245e+01    0.4368117     0.254701 -45.68  0.001957948    1.757    0.431
        48 -11.8507     22.0898    244.0746   1.5007645162e+02   2.4477851285e+01     0.173008    0.1035836  79.59  0.001293558    1.530    0.347
        49 -10.8893    205.4470    110.1670   9.4973290058e+01   1.8699005771e+01    0.3068893    0.1893187  38.43  0.001012247    1.615    0.381
        50 -11.1962     45.7945     92.8280   1.3228526556e+02   5.2064132694e+01    0.2405747    0.1879589  41.06 0.0006745062    1.363    0.266
        51 -11.1603     41.7387     92.0136   1.3351422666e+02   5.2688598254e+01    0.2347843    0.1755533 -77.23 0.0006319942    1.220    0.180
        52 -11.5437    123.5513    196.9607   1.2766557508e+02   1.9669768071e+01    0.2815334    0.2296276  -9.51  0.001847549    1.665    0.399
        53 -11.6736    153.4966    194.6502   1.2141366391e+02   1.5396014379e+01    0.2338203    0.1591677  55.85 0.0009185854    1.656    0.396
        54 -11.2058    219.3497    224.6039   1.1403674979e+02   1.8862304009e+00    0.1833988    0.1287722 -41.42  0.001067668    2.195    0.544
        55 -10.6043    142.7506     79.9669   9.9779554961e+01   3.7738863546e+01    0.2138298    0.1959447 -31.53 0.0004852742    1.093    0.085
        56 -14.4626    148.8909     56.1562   9.0878522423e+01   4.0396845561e+01     1.174323     1.049785  -9.36  0.001524625    1.154    0.134
        57 -12.6796    202.7842    166.4482   1.0741741556e+02   1.1180933215e+01    0.5165774     0.465091   1.28  0.002204064    1.157    0.136
        58 -13.1405    163.4538     32.8949   8.0131887946e+01   4.0030318595e+01     0.435578    0.3843288  -6.61 0.0008739664    1.180    0.153
        59 -10.9028     13.4100     59.8829   1.3863718732e+02   6.2632785773e+01    0.1814715    0.1611895  61.54 0.0004181794    1.260    0.206
        60 -14.5083    206.3901    179.8853   1.0918951138e+02   8.8297505560e+00    0.7799811    0.5901321  28.57  0.003411995    1.112    0.100
