#   1 NUMBER                 Running object number                                     
#   2 MAG_AUTO               Kron-like elliptical aperture magnitude                    [mag]
#   3 X_IMAGE                Object position along x                                    [pixel]
#   4 Y_IMAGE                Object position along y                                    [pixel]
#   5 X_WORLD                Barycenter position along world x axis                     [deg]
#   6 Y_WORLD                Barycenter position along world y axis                     [deg]
#   7 A_WORLD                Profile RMS along major axis (world units)                 [deg]
#   8 B_WORLD                Profile RMS along minor axis (world units)                 [deg]
#   9 THETA_WORLD            Position angle (CCW/world-x)                               [deg]
#  10 FWHM_WORLD             FWHM assuming a gaussian core                              [deg]
#  11 ELONGATION             A_IMAGE/B_IMAGE                                           
#  12 ELLIPTICITY            1 - B_IMAGE/A_IMAGE                                       
         1 -14.9616     68.4840    144.7276   8.9489225090e+01   3.7515468608e+01     4.949346     2.416168  77.47  0.002624022    3.813    0.738
         2 -14.0731    211.9078     42.9281   3.1590283620e+01   2.6861421808e+01     1.845833     1.354743  16.37  0.007521857    1.797    0.444
         3 -13.7241    228.5377     29.0591   2.6587188102e+01   2.4865397711e+01    0.8536535    0.7406518 -18.93  0.002630525    1.212    0.175
         4 -12.4408    249.3168      7.3796   2.0214313533e+01   2.2847793156e+01    0.7236249    0.2514168 -25.57  0.003417847    2.394    0.582
         5  -9.7360     86.9617    205.6572   9.1655374521e+01   2.2393666394e+01    0.2096166    0.1690443 -71.82 0.0001351565    1.515    0.340
         6 -12.0095    119.9090    244.9092   8.8409044998e+01   1.2069228267e+01    0.2337721    0.1828716 -26.54  0.001086856    1.665    0.400
         7 -10.7172    102.3887    250.2565   9.2312722595e+01   1.3412819134e+01    0.2157162    0.1062077  41.38 0.0007085222    1.547    0.353
         8 -11.9131    101.5018    243.6984   9.1951691983e+01   1.4447289575e+01    0.3844053    0.1940763 -67.17  0.002282619    2.929    0.659
         9 -10.5812     90.9794    250.0423   9.4543335859e+01   1.4759123612e+01    0.2329715    0.1131215  32.33  0.000983839    1.467    0.319
        10 -13.2316     28.8258    196.7051   1.0474517054e+02   3.0669831643e+01    0.4542638    0.3356639 -32.64  0.001373791    2.017    0.504
        11 -16.3126     38.6956    188.3047   1.0187857619e+02   3.1395387748e+01       8.9135     3.058879  71.39   0.03229275    4.386    0.772
        12 -15.4998      8.9289    207.8844   1.0973205157e+02   3.0256409510e+01     2.041682     1.179772 -87.27    0.0120894    1.805    0.446
        13 -11.4285    193.6998    196.6090   6.8043560470e+01   8.8488686471e+00    0.9511375    0.5210491 -58.15  0.003213763    7.971    0.875
        14 -10.4811    123.9957    202.5058   8.2941944555e+01   1.7922542499e+01    0.1936377    0.1691703  69.58 0.0003900733    1.436    0.304
        15 -11.1253    203.4933    199.7666   6.6805870713e+01   7.1239643807e+00    0.2739927    0.1145312  31.98  0.001427225    2.066    0.516
        16  -9.5206    157.9251    192.9252   7.4371282330e+01   1.4510974139e+01    0.1817004    0.1564987  21.99 0.0005025267    1.093    0.085
        17  -8.7497    145.3160    183.6346   7.5609901205e+01   1.7893289924e+01    0.1255022   0.09706094  62.76 0.0007039454    1.771    0.435
        18  -9.7358     99.2670    180.9557   8.5950020636e+01   2.5343375346e+01    0.2260028    0.1637619  35.31 0.0005690841    1.171    0.146
        19 -12.9983    239.6865    170.5467   5.6045102744e+01   5.7529740172e+00    0.7163031    0.5500433   5.71  0.003895118    1.071    0.066
        20 -12.0390     63.5385    167.0167   9.3604627264e+01   3.3108059500e+01     0.307684    0.2696392 -19.64 0.0009467865    1.449    0.310
        21 -11.2535    112.4493    173.0828   8.1616337793e+01   2.4897824311e+01    0.4276017    0.1604887  40.66  0.001736928    2.280    0.561
        22 -13.5590     60.7561    153.7709   9.2919196423e+01   3.6433779460e+01    0.4838114    0.4601178 -69.76    0.0015454    1.186    0.157
        23 -12.5408     81.5301    152.2192   8.6736480598e+01   3.3949851904e+01    0.7366561    0.5670974 -33.67  0.002678115    1.629    0.386
        24 -12.6228     74.0991    158.0228   8.9624123042e+01   3.3708079345e+01    0.7281653    0.4868758  42.48 0.0006570952    1.309    0.236
        25 -11.1602    139.7631    249.3508   8.5024101777e+01   9.0915038879e+00    0.2454212    0.1233577  35.27  0.001539079    1.466    0.318
        26  -9.5242    110.6843    167.3719   8.1199821563e+01   2.6289286459e+01    0.2155235    0.1676021 -81.07 0.0008415108    1.644    0.392
        27 -14.4646     55.9520    234.9964   1.0068947510e+02   2.0960565598e+01     1.431409    0.6618109  80.01   0.00686227    3.018    0.669
        28 -13.3581     15.9653    248.9528   1.0926410675e+02   2.2561709860e+01     0.236111    0.1761476  66.40 0.0008022786    1.297    0.229
        29 -10.3231    134.2205    148.2613   7.2073724109e+01   2.6087816971e+01    0.3992322    0.1671321 -57.23  0.001410527    3.532    0.717
        30  -9.8154    174.6746    149.2578   6.3288763442e+01   1.8704072729e+01    0.2288201    0.1801473  29.73 0.0008058634    1.175    0.149
        31 -16.7404      9.1818    243.9251   1.1046585238e+02   2.3940847489e+01     8.524237     2.506106  17.69   0.02968036    6.835    0.854
        32  -9.0907    119.1742    141.4598   7.4564460527e+01   3.0132977309e+01    0.2792151     0.105352 -48.46  0.001021624    2.836    0.647
        33 -10.8047     97.7226    138.3061   7.9854089510e+01   3.4529371868e+01    0.5465346    0.3630192  -9.97  0.002272892    2.606    0.616
        34 -12.5510     84.2449    137.6354   8.3679624980e+01   3.6860410066e+01    0.2784986    0.2768807 -24.66 0.0004476405    1.119    0.107
        35 -10.9774    106.9309    130.2309   7.5686093364e+01   3.4725658880e+01    0.4491521    0.3311504  17.34  0.001727241    1.608    0.378
        36  -9.0250    180.3098    175.6470   6.7079325862e+01   1.3696385187e+01    0.1130062    0.1014215  71.48 0.0007043976    1.722    0.419
        37 -12.1426     58.2965    171.7366   9.5501425663e+01   3.2723328449e+01    0.4142608    0.2953773 -20.78   0.00220318    2.096    0.523
        38  -9.4998    136.0000    129.9814   6.7911298687e+01   2.9336032830e+01    0.2355853   0.08339311 -46.08 0.0008086275    2.986    0.665
        39  -9.0533     96.4563    124.4957   7.7581101201e+01   3.7872343799e+01    0.1465494    0.1396406  44.29  0.000808873    1.029    0.028
        40  -9.2628    162.3050    119.9537   5.9551462724e+01   2.6018641183e+01    0.1930407    0.1744576 -26.30 0.0003426971    1.106    0.095
        41  -9.3588    135.0000    119.9669   6.5911148075e+01   3.1527515021e+01    0.2376158     0.084652 -45.22  0.000800333    2.928    0.658
        42  -9.9205    105.7947    118.2203   7.3470473155e+01   3.7603181780e+01     0.205867    0.1917679  58.98 0.0003344291    1.061    0.057
        43  -9.6592    192.0650    167.7990   6.3458819251e+01   1.3002403270e+01    0.2138503     0.168358 -18.52 0.0008896827    1.221    0.181
        44 -10.7422    231.2439    113.9007   4.6190055194e+01   1.3996572817e+01    0.2593785    0.2095187 -23.00 0.0007920187    1.077    0.072
        45 -10.1414    205.2060    110.5483   4.9330692153e+01   1.9106497021e+01    0.2901646    0.2141389  26.89  0.001068739    1.441    0.306
        46  -9.3822     72.6817    108.5786   8.2012320442e+01   4.5642085219e+01    0.2367993    0.1728801  84.59 0.0005665808    1.622    0.383
        47  -9.6706     65.4994    102.9589   8.3417342035e+01   4.8141286106e+01    0.2241017     0.143587 -64.23  0.001025638    1.570    0.363
        48 -10.8811    240.8148    102.1659   4.2405698580e+01   1.3876756535e+01    0.1717686    0.1305941   1.93  0.001080847    1.351    0.260
        49 -10.7377     45.9685     91.3362   8.8675347067e+01   5.3756768922e+01    0.3217986    0.2091289  49.76  0.001535801    1.580    0.367
        50 -10.4909    249.7540     90.9995   3.8943534281e+01   1.3742897992e+01     0.167335   0.08483564 -28.49 0.0006298021    1.613    0.380
        51  -8.5801     75.3323     89.6987   7.6695227349e+01   4.9838592467e+01    0.1569749     0.114687  69.94 0.0007034083    1.652    0.395
        52  -9.9840    234.0543     86.4808   3.9754183855e+01   1.7019816485e+01     0.161911      0.12574  55.74 0.0004190947    1.519    0.342
        53  -9.9307     58.5386     78.0058   8.0317897944e+01   5.5438128007e+01    0.2268318    0.1968274  36.48 0.0004643055    1.171    0.146
        54  -9.0173     44.3876     68.1935   8.4104635337e+01   5.9865906835e+01    0.1883004    0.1341687 -76.37 0.0002325641    1.493    0.330
        55  -9.6413     30.4966     60.9298   8.9259248841e+01   6.3277363402e+01    0.3703183    0.1269264  42.94  0.001179795    3.265    0.694
        56 -11.4328     13.2499     59.9877   9.8420454906e+01   6.4878485021e+01    0.3041584    0.2525015  73.98 0.0005069803    1.235    0.190
        57 -13.2922    203.0642     49.1724   3.4215464904e+01   2.8061570282e+01     1.052296    0.6089273  45.19  0.002371442    2.030    0.507
        58  -9.7982    124.6630    249.7018   8.7934051368e+01   1.0856078246e+01    0.1079147   0.07073941  10.09 0.0003479187    1.656    0.396
        59 -12.4727    221.3337     35.5525   2.8798349394e+01   2.5673725624e+01     0.444543    0.3586625  30.26  0.001096405    1.545    0.353
        60  -8.8533    224.0076    206.7748   6.4470250862e+01   3.6985873941e+00    0.1314335   0.07306173  29.00 0.0002165405    1.531    0.347
        61 -10.3948     32.7609     54.7222   8.6390941200e+01   6.4603047957e+01    0.2371514    0.2190094  73.51 0.0003797764    1.155    0.134
        62 -11.0809     14.8217     53.7356   9.6387932173e+01   6.6381851306e+01    0.4197316    0.1639994  37.17  0.001173315    2.667    0.625
        63 -10.6204      2.1472     48.6234   1.0309374506e+02   6.8286764561e+01    0.2482557     0.180475  64.63 0.0008499125    1.465    0.318
        64  -8.8914    234.2699     45.3430   3.0078867792e+01   2.1924450731e+01    0.1191373   0.09157056   7.10  0.000290665    1.611    0.379
        65  -9.5124    187.5962     31.2240   3.0943029784e+01   3.3857611207e+01    0.1869308    0.1310556 -13.75 0.0005098933    1.607    0.378
        66 -10.3314    198.0145     23.8100   2.7757847707e+01   3.2193311857e+01    0.2798896    0.1956051 -10.81 0.0009852455    1.648    0.393
        67  -9.4362    189.4970     15.0836   2.6021244571e+01   3.5149225166e+01    0.2004895    0.1252513 -27.61 0.0006420796    1.535    0.348
