#   1 NUMBER                 Running object number                                     
#   2 MAG_AUTO               Kron-like elliptical aperture magnitude                    [mag]
#   3 X_IMAGE                Object position along x                                    [pixel]
#   4 Y_IMAGE                Object position along y                                    [pixel]
#   5 X_WORLD                Barycenter position along world x axis                     [deg]
#   6 Y_WORLD                Barycenter position along world y axis                     [deg]
#   7 A_WORLD                Profile RMS along major axis (world units)                 [deg]
#   8 B_WORLD                Profile RMS along minor axis (world units)                 [deg]
#   9 THETA_WORLD            Position angle (CCW/world-x)                               [deg]
#  10 FWHM_WORLD             FWHM assuming a gaussian core                              [deg]
#  11 ELONGATION             A_IMAGE/B_IMAGE                                           
#  12 ELLIPTICITY            1 - B_IMAGE/A_IMAGE                                       
         1 -14.2518    221.2117      3.7176   4.0118584245e+01   2.8958440008e+01     2.543696     1.073008  57.77  0.007279608    2.378    0.580
         2 -14.0375    191.2817     37.7865   5.2860995131e+01   3.2512509168e+01     1.151657     1.063655 -70.92   0.00322001    1.043    0.042
         3 -14.6289    198.7662     28.9498   4.9268873769e+01   3.1725360059e+01     1.648853     1.280493  29.47  0.001313788    1.593    0.372
         4 -11.0245    189.7808     14.8728   4.6374170631e+01   3.5691685039e+01    0.2418221    0.2240502  75.52 0.0008025349    1.062    0.058
         5 -11.5595     33.0049    206.8487   1.2524591105e+02   2.7865515116e+01    0.4395995    0.1365272  57.55  0.001745516    2.992    0.666
         6 -19.4843     14.7067    145.0920   1.2408498320e+02   4.2911516373e+01     18.49476     5.211946 -79.26   0.07174803    3.346    0.701
         7 -12.2999    194.2491    196.9190   9.1762327611e+01   4.0916705187e+00     1.329397    0.7529792 -58.29  0.005746694    3.015    0.668
         8 -16.1984     70.8864    147.4270   1.1069566729e+02   3.6187166010e+01     11.95102     5.467699  79.41    0.0157659    8.653    0.884
         9 -10.3184     44.4997    198.1862   1.2240994659e+02   2.8298879371e+01    0.2283768    0.1783624  29.94  0.000284558    1.737    0.424
        10  -9.8205     94.1884    250.0594   1.1774993473e+02   1.2077191990e+01    0.1573701    0.1272229  54.39 0.0004629806    1.163    0.140
        11 -12.4724     30.2182    197.4173   1.2509899224e+02   3.0067555873e+01    0.2013576    0.1524497  68.33 0.0006280176    1.107    0.096
        12  -9.9128    159.8719    197.1127   9.8628012178e+01   1.0393923020e+01    0.1967662    0.1730697  67.36 0.0003765696    1.218    0.179
        13 -10.7718     34.9340    197.2971   1.2418919084e+02   2.9577058298e+01    0.1636309     0.112032  64.40 0.0003760602    1.190    0.160
        14 -11.4139     96.8073    200.7968   1.1216941374e+02   2.0573570426e+01     0.426364    0.3025858 -33.09  0.001361612    2.355    0.575
        15 -10.1356     82.4099    195.2619   1.1447882942e+02   2.3880428888e+01    0.2799955    0.1808985  65.14  0.001574333    1.438    0.304
        16 -10.1145     51.0317    225.7795   1.2334118819e+02   2.2109931753e+01     0.175167     0.107479  72.12 0.0005349889    1.336    0.252
        17 -10.0783     33.8590    218.2982   1.2585890068e+02   2.5544850342e+01    0.1937278    0.1746831  72.16  0.001546553    1.407    0.289
        18 -11.1983     96.8934    192.2182   1.1107004776e+02   2.2303093741e+01    0.3180447    0.2614235 -27.22  0.001119619    1.849    0.459
        19 -13.2681     65.5822    188.8373   1.1726462265e+02   2.7595896441e+01    0.7033036    0.6076703 -68.43  0.003459839    1.325    0.245
        20  -9.6337     73.2758    218.4320   1.1867960649e+02   2.0584331256e+01    0.1569407   0.08968902  53.77 0.0002440718    1.434    0.303
        21  -8.1891     49.9243    216.8974   1.2287846872e+02   2.3923948278e+01    0.2799897    0.2155844   8.44  0.001727398    2.591    0.614
        22  -9.4224     56.9905    193.0052   1.1945951205e+02   2.7840410151e+01    0.1492251    0.1377137 -64.39            0    1.431    0.301
        23  -9.6865     61.8543    219.9529   1.2093629607e+02   2.1828658250e+01    0.1518728    0.1237274  85.25  0.000486544    1.173    0.148
        24 -11.0635    150.4425    187.4838   9.8960759526e+01   1.3916565818e+01    0.2626453    0.1816104  77.76 0.0008691901    2.068    0.517
        25 -11.3042    147.4937    185.0028   9.9160691544e+01   1.4944138467e+01    0.2369305    0.2139446 -45.58 0.0008500862    1.228    0.186
        26 -10.3531    154.4943    185.9702   9.7846242626e+01   1.3441425979e+01    0.1994606    0.1393028 -50.10  0.000902712    1.577    0.366
        27 -11.4603     99.3477    180.6949   1.0896743901e+02   2.4334626603e+01    0.2771028    0.2373165  48.93 0.0005695797    1.181    0.153
        28 -10.1827    204.5769    176.3598   8.5852823523e+01   5.5014091404e+00    0.2688001    0.1192277 -51.54 0.0009594504    3.493    0.714
        29  -9.4898     59.4258    176.7795   1.1725754368e+02   3.1017146667e+01    0.1675943     0.104778 -62.05 0.0006061585    1.584    0.369
        30 -12.1094     69.7393    206.9407   1.1827130086e+02   2.3304865416e+01     0.736069    0.3711489  25.35  0.001989059    3.673    0.728
        31 -12.2912    142.1416    172.1691   9.8050830048e+01   1.8511028390e+01    0.6666752    0.5009192  45.12  0.002666614    1.248    0.198
        32  -9.8217     63.0409    205.0248   1.1939716043e+02   2.4587641919e+01    0.2763673    0.2193289  41.80 0.0008297807    1.427    0.299
        33 -11.5302    132.1213    172.3996   1.0032369122e+02   2.0361526705e+01    0.3915405    0.2740015  24.77  0.001882048    1.816    0.449
        34 -11.6047     44.0333    172.4655   1.2014836128e+02   3.3847885203e+01    0.6132419     0.213993  49.49  0.001939917    2.689    0.628
        35 -11.4728     55.7409    212.2787   1.2143359827e+02   2.4093696434e+01    0.3502048    0.2468836  76.43  0.001081796    1.151    0.131
        36 -12.0497    204.0580    199.9885   9.0442763365e+01   1.8462617984e+00    0.3834225    0.3397758 -15.78   0.00244225    1.186    0.157
        37 -10.8861    230.6380    167.1433   7.9104278975e+01   2.0539127373e+00    0.2783348    0.1142868 -42.42  0.001105479    2.661    0.624
        38 -10.1200    162.3232    167.4256   9.2724151825e+01   1.5492386062e+01    0.2242139    0.1741037 -73.12 0.0004066399    1.630    0.387
        39  -9.2821    192.3187    164.6891   8.5883758754e+01   9.9334940304e+00    0.1391448    0.1164245  87.79  0.000234284    1.643    0.391
        40 -13.5535     55.8051    202.4021   1.2056959710e+02   2.6053334029e+01    0.5011224    0.4151068 -66.91  0.002525968    1.433    0.302
        41 -10.2510    157.1580    160.8569   9.2537814682e+01   1.7846214929e+01    0.2185675    0.1967769  79.89 0.0003674839    1.207    0.171
        42 -12.6103     94.4174    153.8969   1.0593224863e+02   3.1109643678e+01    0.6708785    0.4703614 -34.11  0.003261189    1.985    0.496
        43 -10.3228    189.0455    154.5117   8.4373508470e+01   1.2469053916e+01    0.3050351    0.1374333  41.63  0.001170568    2.194    0.544
        44 -11.5752    133.8842    145.2339   9.4661914376e+01   2.5872308891e+01     1.144093    0.3121868 -55.33  0.002911199    5.198    0.808
        45 -12.1738     38.7651    212.2841   1.2457310273e+02   2.6145813765e+01    0.2867623     0.122757  51.50 0.0009896933    1.894    0.472
        46 -10.5642    174.6788    149.0237   8.6184717242e+01   1.6559724768e+01    0.2718991    0.2486373 -63.73 0.0008270933    1.197    0.165
        47 -10.7439    143.5756    145.8306   9.2489539694e+01   2.3775403250e+01    0.3564727    0.1420368 -56.29  0.001143655    3.224    0.690
        48 -11.7688    106.6113    139.5180   1.0022719711e+02   3.2355729915e+01    0.6246449    0.3361287 -40.90  0.002547451    2.241    0.554
        49 -12.6259     94.4688    139.4585   1.0332347755e+02   3.4463975276e+01    0.3220377    0.2997051  20.01  0.001852859    1.293    0.227
        50  -9.6053    111.9719    141.5101   9.9273556959e+01   3.0924482850e+01    0.2189685    0.1420604  45.26 0.0006318694    1.545    0.353
        51 -10.8929    135.9983    128.4262   9.0388989737e+01   2.9165476427e+01    0.5098051    0.1982762 -49.20  0.001738404    2.587    0.613
        52 -11.2276    105.5640    131.2014   9.8779671813e+01   3.4480463478e+01    0.4464186    0.3848204 -18.09  0.002348281    1.460    0.315
        53 -11.0882    114.2574    130.0614   9.6270461780e+01   3.3138965295e+01    0.3457676    0.3098283  -6.08 0.0009539244    1.368    0.269
        54 -10.1143    161.0956    127.9008   8.4283526282e+01   2.3830538332e+01     0.347083    0.2418605 -86.55  0.001378098    2.319    0.569
        55 -11.0901    101.5867    126.1471   9.8744882473e+01   3.6373875611e+01    0.2967158    0.2451636 -34.53 0.0009469514    1.376    0.273
        56 -11.2671    119.7373    123.8466   9.3433439896e+01   3.3508139998e+01    0.5124359    0.3093043 -26.45  0.001924935    2.663    0.624
        57 -10.2373    134.7270    120.4041   8.8767537014e+01   3.1214066771e+01    0.2885827    0.1343418 -45.72  0.001061857    2.122    0.529
        58 -10.2018    109.7022    119.0293   9.4954110117e+01   3.6552086008e+01    0.2324786    0.2101576  51.85  0.000478681    1.142    0.125
        59 -10.2884    167.5755    112.4677   7.8901250031e+01   2.5533051019e+01    0.3804835    0.2764167 -86.26  0.001580643    2.030    0.508
        60 -11.4271    118.3071    110.2481   9.0477658652e+01   3.6888304147e+01    0.5631509    0.3635126  56.62  0.002450223    1.760    0.432
        61 -10.2045    205.5819    110.1063   7.0490676793e+01   1.7069543555e+01    0.2820105     0.220102  42.02 0.0006608189    1.335    0.251
        62  -9.8294    134.5080    105.9834   8.5099560193e+01   3.4432497774e+01    0.2470128    0.1519532 -44.56 0.0008689543    1.592    0.372
        63  -6.1478     43.2876    207.7766   1.2340646007e+02   2.6505599546e+01    0.4671123    0.2493984 -89.01  0.002739744    1.715    0.417
        64 -11.7095     53.4794     90.5915   1.0490649988e+02   5.1922260031e+01    0.3899634    0.2368034 -60.41  0.001101628    1.440    0.306
        65 -10.9922     41.9131     91.8438   1.0892488087e+02   5.2901851088e+01    0.2171429    0.2075506 -40.26 0.0007189554    1.175    0.149
        66  -9.8350     66.9671     70.9992   9.5175404155e+01   5.4557775654e+01     0.201767    0.1875811 -42.58 0.0005106953    1.076    0.071
        67 -11.3930    159.2841     61.0172   6.5756343746e+01   3.7301010941e+01    0.4021649    0.3018904 -80.84  0.000593711    1.714    0.417
        68 -11.4618     61.9875    235.5414   1.2214223497e+02   1.8949029004e+01     0.191338    0.1328938  88.85 0.0003187299    1.320    0.242
        69 -13.8633    179.7999     47.5794   5.7626503859e+01   3.4121031014e+01     1.262045    0.9543907  26.78  0.000820664    1.607    0.378
        70 -11.7047     49.7792    234.0822   1.2414181847e+02   2.0748962659e+01    0.2215688    0.1270982  66.99 0.0004237443    1.391    0.281
        71 -10.7525     53.6140    231.2847   1.2328538192e+02   2.0778989202e+01    0.1955919    0.1304898  70.67 0.0006508972    1.164    0.141
        72 -10.8866    161.2713     54.5725   6.3289440386e+01   3.7845599970e+01    0.2734524    0.2651383 -60.24   0.00032802    1.043    0.042
        73  -9.3475     58.4311    227.3580   1.2214688846e+02   2.0887409042e+01    0.1152707    0.0814492  65.37  0.000144141    1.070    0.066
