#   1 NUMBER                 Running object number                                     
#   2 MAG_AUTO               Kron-like elliptical aperture magnitude                    [mag]
#   3 X_IMAGE                Object position along x                                    [pixel]
#   4 Y_IMAGE                Object position along y                                    [pixel]
#   5 X_WORLD                Barycenter position along world x axis                     [deg]
#   6 Y_WORLD                Barycenter position along world y axis                     [deg]
#   7 A_WORLD                Profile RMS along major axis (world units)                 [deg]
#   8 B_WORLD                Profile RMS along minor axis (world units)                 [deg]
#   9 THETA_WORLD            Position angle (CCW/world-x)                               [deg]
#  10 FWHM_WORLD             FWHM assuming a gaussian core                              [deg]
#  11 ELONGATION             A_IMAGE/B_IMAGE                                           
#  12 ELLIPTICITY            1 - B_IMAGE/A_IMAGE                                       
         1 -13.6414    247.5679     38.4870   2.6783027788e+00   2.0601729388e+01     1.056558    0.7173302 -25.78  0.003581497    1.660    0.397
         2 -13.5803    226.1693     52.0264   7.5624190746e+00   2.3051872140e+01     1.190396    0.7509877 -41.50  0.003812021    1.315    0.239
         3 -12.9230      2.7819     23.2041   6.6207803483e+01   7.4377205908e+01     2.197742          nan -49.76  0.006341005    5.755    0.826
         4 -12.1595      2.9562     10.3780   6.0118835035e+01   7.6890006294e+01     1.016264    0.3416995 -35.41  0.004338027    2.990    0.666
         5 -10.3340    158.0757      8.9954   2.9720893145e+00   4.4500993557e+01    0.2105346    0.1802667 -76.45 0.0004769175    1.020    0.020
         6 -10.9713      2.5771      4.1841   5.6862571084e+01   7.8038172945e+01    0.4803765    0.2813751 -22.50  0.002854372    1.613    0.380
         7  -8.6450     90.0000    241.9236   7.2005738617e+01   1.1819396441e+01    0.1629096   0.07012708 -65.20  0.000439724    2.800    0.643
         8 -10.7958    139.4410    250.0262   6.2697942780e+01   3.8315558433e+00    0.2291416    0.1768972  34.08  0.001560678    1.083    0.077
         9 -10.4045    112.2605    250.0740   6.8176600495e+01   7.4508182876e+00    0.2105901    0.1575529  42.92 0.0009480274    1.119    0.106
        10  -9.4241    107.2151    250.6004   6.9256660095e+01   8.0323479291e+00    0.1699997   0.09761717  26.24 0.0009451893    1.636    0.389
        11  -9.8278     58.7810    249.8681   7.9095650986e+01   1.4307930505e+01    0.2149208    0.1383196  83.39  0.001355636    1.670    0.401
        12  -9.7287     28.1344    250.3194   8.5238579242e+01   1.7686469245e+01    0.1636088    0.1266937  48.50  0.001190589    1.144    0.126
        13 -12.5352     46.1517    163.8777   7.4851413708e+01   3.4923313166e+01    0.7901424    0.5123213 -20.35  0.001341476    2.640    0.621
        14 -12.0020     52.7665    159.5208   7.2443977770e+01   3.5233692101e+01    0.3330744    0.3128792 -10.42 0.0007683322    1.337    0.252
        15 -13.3564     13.6909    241.4128   8.7725048191e+01   2.0851461989e+01    0.8696647    0.5571271 -65.92  0.005717391    1.930    0.482
        16 -13.9227      4.6245    237.2559   8.9375943601e+01   2.2530690148e+01     1.201545    0.8330297 -66.10  0.006585993    1.820    0.450
        17 -16.3434     21.3524    171.8672   8.2422708106e+01   3.5557808064e+01     8.381596     3.356556  72.19   0.02843538    2.720    0.632
        18  -9.6641     36.1841    228.5041   8.2497939771e+01   2.1059086824e+01    0.2001864    0.1494713  85.46  0.000653317    1.292    0.226
        19 -14.8384      5.8310    218.8995   8.8530971776e+01   2.6150379792e+01     1.833719    0.8635224  23.40  0.003305688    2.437    0.590
        20 -11.0592     87.8364    224.3436   7.0786166228e+01   1.5441874112e+01    0.3745009    0.1290835  47.57  0.001508294    2.651    0.623
        21  -9.3000     28.7739    235.7434   8.4440137324e+01   2.0410572890e+01    0.1752588   0.09800524  53.93  0.001048306    1.357    0.263
        22  -9.8591     41.9629    231.3119   8.1426663518e+01   1.9838234735e+01    0.3888973    0.1480597 -82.02  0.001779704    2.950    0.661
        23  -9.0456    142.3455    216.3044   5.7769490205e+01   9.0409415051e+00    0.1588476    0.1241901 -64.53 0.0008726187    1.615    0.381
        24  -8.5887     92.2735    213.6853   6.8641059652e+01   1.6977148787e+01    0.1339057   0.08923931  62.18 0.0002617321    1.560    0.359
        25 -14.5423      9.8437    206.8745   8.7190432000e+01   2.8378665411e+01     1.217534    0.7923933  29.66  0.005079135    1.617    0.381
        26  -8.5204    191.3050    205.7005   4.6150452402e+01   3.5646647747e+00    0.1105236    0.1005839  63.25 0.0003949292    1.590    0.371
        27  -9.7996    192.0291    193.5473   4.3928561079e+01   5.4353209743e+00    0.2657418    0.1510223 -66.12 0.0008100957    6.661    0.850
        28  -9.8462    126.9320    193.6742   5.7862327650e+01   1.5834000341e+01    0.1931671    0.1675115  44.11 0.0005188068    1.082    0.075
        29 -12.8425    128.4340    228.6868   6.2397597189e+01   8.8746762677e+00     1.177515    0.4194725  42.64  0.004960358    2.504    0.601
        30 -10.2765    117.7255    193.5530   6.0016438338e+01   1.7346758528e+01    0.2790193    0.1314979  30.72  0.001145545    2.153    0.536
        31  -8.9850     94.3406    183.7754   6.4361077850e+01   2.3239166298e+01     0.185978    0.1283112 -54.81 0.0005008615    1.551    0.355
        32  -8.9493    160.4338    183.2999   4.8546155611e+01   1.2346751227e+01    0.1949594    0.1336275 -59.29 0.0009456172    1.799    0.444
        33 -10.6026     99.0685    181.2156   6.2783134648e+01   2.3087850447e+01    0.2869039    0.2732548  32.21 0.0006832431    1.122    0.109
        34  -9.1911     66.9893    178.7469   7.0840576128e+01   2.8478990056e+01    0.1948907    0.1613929  57.85  0.001087636    1.081    0.075
        35 -11.2043     64.3706    173.4336   7.0899853316e+01   3.0152029196e+01    0.3418253    0.2238512  82.25 0.0006580624    1.622    0.383
        36 -12.0510     74.2994    170.5067   6.7808471036e+01   2.9476519330e+01     1.455369    0.6196505 -86.01  0.001587482    4.960    0.798
        37 -12.5774     77.8428    133.2797   6.0692771543e+01   3.8552814317e+01    0.7016991    0.5289725  76.19 0.0005181368    1.452    0.311
        38 -13.3993     44.1370    111.7150   6.8094158407e+01   4.9116346508e+01      2.54737     1.289559  49.64   0.01046701    2.188    0.543
        39 -14.3241     69.3943    145.0717   6.5415791365e+01   3.6743196751e+01     3.238856     1.675954  75.42  0.005628827    3.180    0.685
        40 -13.1886    234.6205    157.5837   2.9706656194e+01   4.8120602181e+00    0.9480509    0.4763047 -31.93  0.004791926    1.736    0.424
        41  -8.8974    197.6641    169.2463   3.8336993912e+01   8.7061798694e+00    0.1858221    0.1131742 -32.07 0.0005515036    1.573    0.364
        42  -9.8782    110.4568    167.1935   5.7587582186e+01   2.4482577773e+01    0.2571193    0.2128004  58.75 0.0003545207    1.206    0.171
        43 -12.5064    109.5564    228.8945   6.6485527807e+01   1.1532566144e+01     1.121715    0.3039855  38.61  0.004306353    2.850    0.649
        44  -9.0268     89.8658    158.5043   6.1664460486e+01   3.0074242515e+01      0.31343    0.1926509 -85.94  0.001286648    2.115    0.527
        45 -12.5456     65.0161    151.8522   6.7796315942e+01   3.5592604939e+01    0.5636306    0.4323611  73.32 0.0003668237    1.290    0.225
        46  -9.5450    138.9987    154.5477   4.7964403842e+01   2.2206148658e+01    0.2156434     0.195518  80.61 5.374818e-05    1.210    0.174
        47 -10.5210    136.9662    150.2500   4.7574413796e+01   2.3562144633e+01    0.4795327    0.3336229  88.44  0.001626061    2.253    0.556
        48 -11.2034    243.2714    151.7560   2.7257250461e+01   4.4299810887e+00     0.230225    0.1288504 -36.89 0.0007046987    1.481    0.325
        49  -9.5386     86.5098    152.1703   6.1538683177e+01   3.2227267862e+01    0.2385095    0.1867826  69.37  0.000477219    1.318    0.241
        50 -10.1627     90.7241    136.0105   5.7269842132e+01   3.5673929446e+01      0.30297    0.2896056 -70.60 0.0007753549    1.064    0.060
        51  -9.7992     94.4599    133.6907   5.5670951582e+01   3.5610673996e+01    0.3572974    0.2833508  -7.44  0.001218388    1.748    0.428
        52 -14.3240     11.9973    185.3476   8.5660892930e+01   3.3132765155e+01     1.294428    0.8625849 -39.06 0.0007804115    2.224    0.550
        53 -11.7260     43.3402    131.0279   7.1535140310e+01   4.3975424013e+01    0.7138599    0.3061297  87.29  0.002202805    3.848    0.740
        54 -10.5441    104.9657    128.7167   5.1478324034e+01   3.4926102495e+01    0.5213149    0.3493212 -55.29  0.001977859    1.464    0.317
        55 -10.5327     38.3374    125.9145   7.2475759471e+01   4.5926564465e+01    0.3091389     0.197136 -35.44 0.0005906373    2.000    0.500
        56  -9.0526    112.7529    122.4336   4.7761796078e+01   3.4955754119e+01     0.219299    0.1552728  28.09 0.0009408998    1.674    0.403
        57  -9.5459     91.8845    122.2391   5.3957834931e+01   3.9020321882e+01    0.2792282    0.2190038  12.79  0.001198683    1.651    0.394
        58 -11.4097     32.3888    119.2245   7.3576144077e+01   4.8365021802e+01    0.4850634    0.3081106  81.80  0.001180507    1.647    0.393
        59 -10.9270     21.6474    117.1939   7.7129917494e+01   4.9903742243e+01    0.3282938    0.2371087  -6.99  0.001571703    1.823    0.451
        60  -9.7134    103.1043    116.8209   4.9227105177e+01   3.8265317050e+01    0.2262383    0.2201147 -58.76 0.0003737195    1.063    0.060
        61  -9.0116    183.7369    116.4328   2.9459652031e+01   2.1200757688e+01    0.1941789    0.1413932  36.01 0.0009367138    1.589    0.371
        62  -9.0185     69.4950    115.4865   5.9798968479e+01   4.4601170984e+01    0.1540931    0.1442938 -64.15 -0.0002392312    1.061    0.058
        63 -10.4976    205.1065    110.6069   2.4309364400e+01   1.7916606877e+01    0.3221555    0.2686567  37.40 0.0008716001    1.392    0.281
        64 -10.2387     23.9625    105.4788   7.4656017358e+01   5.2863385391e+01    0.2230549    0.1724361 -72.72 0.0005129708    1.126    0.112
        65 -10.3990    148.7491    228.7717   5.8153383396e+01   5.9468896187e+00    0.2048774     0.157887 -38.61  0.001287632    1.469    0.319
        66 -13.5674     50.3927    147.1400   7.1550932495e+01   3.8791402415e+01    0.8163666    0.4875149  19.54  0.001405869    2.080    0.519
        67 -11.5587     52.5945     94.7534   6.1309163346e+01   5.2559800886e+01    0.7374585    0.2275167 -58.93  0.002426703    2.838    0.648
        68  -9.9308    101.5769     95.6281   4.4057586654e+01   4.3755387532e+01    0.4133463    0.2569447 -73.85  0.001534988    2.367    0.577
        69  -9.7481     21.7034     94.0797   7.3744454710e+01   5.6095278023e+01    0.3508016    0.1982955  73.64  0.001538214    2.177    0.541
        70  -9.9730     35.4667     94.0829   6.8068393646e+01   5.4809624013e+01    0.2284844    0.1965371  45.68 0.0003385702    1.256    0.204
        71  -9.3485     28.9663     90.9763   7.0151185472e+01   5.6279304782e+01    0.2299295    0.1566073  70.43  0.001119359    1.708    0.414
        72  -9.7546    165.0418     89.9751   2.6281515971e+01   3.0497878747e+01     0.357247    0.2084263  31.91  0.001334465    2.692    0.629
        73  -9.6408     42.6375     88.3046   6.3825414484e+01   5.5516183912e+01    0.1518502    0.1063459  66.28 0.0007037935    1.733    0.423
        74  -9.3052    138.6830     86.4796   3.1066622406e+01   3.7425489984e+01     0.291877    0.1798067 -60.98  0.001159794    1.920    0.479
        75  -9.0630    184.5149     77.4800   1.9357794360e+01   2.8258261600e+01    0.1471788    0.1345391 -54.04 6.420675e-05    1.045    0.043
        76  -8.7400     81.2895     72.7137   4.3792651691e+01   5.3184554984e+01    0.1482631    0.1201338  87.12 0.0001699205    1.535    0.349
        77  -9.3494     33.1942    248.8779   8.4176681839e+01   1.7411589704e+01    0.1890265    0.1171134  58.64  0.001233803    1.247    0.198
        78 -13.6727    217.9083     57.3923   9.7033498116e+00   2.4017555668e+01     1.558245     1.009201  44.31  0.006225964    2.123    0.529
        79 -11.7486    210.1579    246.3677   4.8979341599e+01  -4.6171527042e+00    0.3728958    0.2339978  -3.93  0.002118606    1.530    0.347
        80 -12.6619    234.3881     47.0934   5.6530625249e+00   2.2054404290e+01    0.5068811    0.4663916  47.28  0.001381201    1.472    0.321
        81  -9.1690     82.9463     61.7620   3.9317311483e+01   5.5213028238e+01    0.1983799    0.1940446  63.34 0.0002207701    1.049    0.047
        82 -10.8362     13.4242     60.3610   7.0878053339e+01   6.5318108642e+01    0.2502629    0.2163207 -63.50    0.0004463    1.071    0.067
        83 -10.4277     74.1671     55.1956   4.0124262015e+01   5.8316503640e+01    0.3650295    0.3003329   4.23  0.001256227    1.422    0.297
        84 -10.6258      9.6935     54.8593   7.1570070334e+01   6.6885272275e+01    0.2278213    0.1315792 -50.26  0.001196954    1.448    0.310
        85 -11.3455      4.9007     61.2944   7.5575881909e+01   6.5587429066e+01    0.4624402    0.2387253  43.38  0.001371655    2.351    0.575
        86  -9.8111     68.7800     49.0770   3.9820858141e+01   6.0570718664e+01    0.2273095    0.2038839  42.19 0.0004102116    1.140    0.123
        87 -11.4227      5.5061     40.3379   7.0168750036e+01   7.0509679755e+01    0.2832485    0.2630187   6.24  0.001555809    1.225    0.184
        88  -9.2984     55.7976     34.4118   3.8977450160e+01   6.5690006069e+01    0.2567462    0.1958383  68.93   0.00131845    1.888    0.470
        89  -9.7408     16.3075     33.6995   6.0901966280e+01   7.1191731899e+01    0.1157891   0.09840821  66.48 0.0002240723    1.597    0.374
        90 -10.2531     21.2202     32.0154   5.7024626867e+01   7.1075171664e+01     0.194046    0.1508453  86.85  0.001081199    1.993    0.498
        91  -9.8671     28.6962    243.6429   8.4829027606e+01   1.8882587691e+01    0.2561597    0.1907513 -48.32  0.001311172    2.017    0.504
        92  -9.9505     71.9880    242.6638   7.5855021696e+01   1.4010740464e+01    0.2268453    0.1563711  84.78 0.0009804347    1.607    0.378
        93  -9.9556     77.9736     21.0600   2.3553456558e+01   6.3203596906e+01    0.2167245    0.1668123 -71.33  0.001130009    1.738    0.425
        94 -10.0625     60.3155     21.0499   3.0201202941e+01   6.6955926771e+01    0.2373249    0.2132798  63.94  0.001032238    1.299    0.230
        95 -10.5412     37.3017     21.1827   4.1713950647e+01   7.1023408939e+01    0.2186535    0.1679005  63.43 0.0009272684    2.009    0.502
        96 -10.2043     23.5700     21.3083   5.0327106435e+01   7.2882068182e+01    0.2117797    0.1428237  36.99 0.0008271418    1.658    0.397
        97  -9.3513    189.4869     15.0683   1.6867340924e+00   3.6090822705e+01    0.1907832    0.1213844 -34.20 0.0005287753    1.542    0.351
        98 -11.0300    111.9146    241.8842   6.7403711639e+01   8.8806547086e+00    0.2422099    0.1863081 -65.60 0.0005497074    1.602    0.376
