#   1 NUMBER                 Running object number                                     
#   2 MAG_AUTO               Kron-like elliptical aperture magnitude                    [mag]
#   3 X_IMAGE                Object position along x                                    [pixel]
#   4 Y_IMAGE                Object position along y                                    [pixel]
#   5 X_WORLD                Barycenter position along world x axis                     [deg]
#   6 Y_WORLD                Barycenter position along world y axis                     [deg]
#   7 A_WORLD                Profile RMS along major axis (world units)                 [deg]
#   8 B_WORLD                Profile RMS along minor axis (world units)                 [deg]
#   9 THETA_WORLD            Position angle (CCW/world-x)                               [deg]
#  10 FWHM_WORLD             FWHM assuming a gaussian core                              [deg]
#  11 ELONGATION             A_IMAGE/B_IMAGE                                           
#  12 ELLIPTICITY            1 - B_IMAGE/A_IMAGE                                       
         1 -14.7785    106.7385    105.5615   9.3618630172e+01   4.0144771074e+01     1.744671     1.376659 -22.81  0.008697175    1.464    0.317
         2 -15.4532      6.3044     69.3143   1.1684937954e+02   6.0382899101e+01     1.592642    0.9867209 -69.68  0.005528549    1.327    0.247
         3 -12.9978     80.6948     56.7260   8.6692363354e+01   5.5017353897e+01     1.951687    0.8165932 -36.19  0.007719116    2.308    0.567
         4 -14.2633      6.9759     47.1411   1.1161896608e+02   6.5061910191e+01     1.070311    0.9113901 -78.85  0.007866049    1.402    0.287
         5 -12.7905    120.5798     26.0830   6.3153477124e+01   5.1725038597e+01    0.9627149    0.6009118  23.10  0.004420149    1.821    0.451
         6 -14.7987    119.7270     54.7071   7.4156726127e+01   4.7732947388e+01     1.138292    0.8674393  30.64  0.001634843    1.350    0.259
         7 -14.9277    119.9698     38.0085   6.7917671189e+01   5.0284970765e+01     1.925595    0.7269977  45.67  0.007053977    2.552    0.608
         8 -13.2073    131.9041     32.6994   6.3029446435e+01   4.8201690990e+01    0.6506399    0.4449777 -14.13  0.002079107    1.554    0.356
         9 -14.8456    166.5827     30.1883   5.5289836554e+01   3.9771236245e+01     1.237033      1.10948  69.66  0.004043796    1.107    0.097
        10 -14.8398    147.5967     30.4079   5.8859077051e+01   4.4611887724e+01     1.554904    0.8659046  58.70  0.004909652    1.720    0.419
        11 -15.3418    189.5684     20.7596   4.8871482157e+01   3.4889607513e+01     3.355669     2.252046 -80.74   0.01606705    1.714    0.417
        12 -13.8353    215.1405      9.9200   4.2905230688e+01   2.9550757933e+01     1.307867    0.5475945  47.37 0.0008305375    2.839    0.648
        13 -13.1095    139.0948     22.2257   5.7610757549e+01   4.7707926645e+01    0.7975651    0.3874846  55.09  0.001859076    1.867    0.464
        14 -14.7124     42.1453      6.4642   7.9744006392e+01   6.8897071773e+01     1.578222    0.9342691  -2.09  0.008877132    1.758    0.431
        15 -12.7302      7.8242      2.6314   9.4762041449e+01   7.3138732419e+01    0.5001162    0.3536425  25.28  0.002719144    1.777    0.437
        16 -15.1160      8.8419     29.3397   1.0546577167e+02   6.8470743060e+01     1.063699    0.7137305  15.18  0.007258315    1.776    0.437
        17 -15.2488     13.7396     19.8437   9.9553728577e+01   6.9859088317e+01     1.042292    0.8129575 -31.52  0.007617857    1.094    0.086
        18 -14.6597     23.7310     13.9610   9.2067892393e+01   6.9973620132e+01    0.7500823    0.4476292  25.06  0.002542462    1.859    0.462
        19 -12.9223     71.9763     16.6397   7.3178651151e+01   6.2929921307e+01    0.7313772    0.3478505 -22.63  0.002061863    2.052    0.513
        20 -13.3917    223.7924     20.9859   4.4942023737e+01   2.6222451836e+01     1.008874    0.6647052  32.83 0.0007844879    2.030    0.507
        21 -11.9871     46.6877     21.2998   8.5100959686e+01   6.6189988955e+01    0.3961337    0.2989337 -21.04  0.001917614    1.073    0.068
        22 -15.5058     98.1136     12.6185   6.3295336672e+01   5.8279278824e+01     1.714252    0.7766929  49.66  0.003304422    2.009    0.502
        23 -11.2734     60.2925     17.3647   7.7783856314e+01   6.4787117921e+01    0.2877101    0.1571327 -25.59 0.0009247347    1.646    0.393
        24 -11.6618    153.0532      8.4987   5.0213913541e+01   4.5573268844e+01     0.295509    0.2401236  61.66 0.0006968672    1.136    0.120
        25 -10.3774     59.4442      6.5003   7.2738918827e+01   6.6289368878e+01    0.2988845    0.2217632  62.70  0.001707066    2.252    0.556
        26 -14.4265    217.5269     42.0416   5.1294238441e+01   2.5174750737e+01     1.410251    0.9190247  57.86  0.004209552    1.559    0.359
        27 -11.9867    232.3662      2.3720   3.9469905068e+01   2.6145815730e+01    0.3840184    0.2670673  53.08  0.001767077    1.602    0.376
        28 -12.7023    117.9224      2.3537   5.4249955258e+01   5.4771583966e+01    0.6643934     0.353536  85.36  0.002249373    3.250    0.692
        29 -11.4940    112.1792      2.1779   5.5391382827e+01   5.6125040858e+01    0.2462215    0.2366537  74.53  0.001192464    1.231    0.187
        30 -10.7038     68.2371      4.4068   6.8518906257e+01   6.5010224744e+01    0.2120574    0.1426214 -37.62  0.001198462    1.804    0.446
        31 -11.5965    183.1887      2.7683   4.4290189395e+01   3.8329631837e+01    0.3716481     0.218211 -62.89  0.001726775    1.965    0.491
        32 -12.0439     78.1870      2.2516   6.4224042764e+01   6.3370578202e+01    0.3360047    0.2615511  31.26  0.001370392    1.142    0.124
        33 -11.0941     83.0019      1.2308   6.2296743204e+01   6.2516418822e+01    0.2737371    0.1167289  54.56  0.001119719    2.297    0.565
        34 -14.0645    218.5251     15.1987   4.3962328604e+01   2.8157617504e+01     1.025083    0.6321581  37.16   0.00483725    2.100    0.524
        35 -12.2180     61.9204      1.9876   6.9499170714e+01   6.6367739430e+01    0.3326871    0.2027519  46.28  0.001891868    1.728    0.421
        36 -10.7684     28.3061      1.6387   8.3538896639e+01   7.1277204603e+01    0.1905901    0.1258599  10.37   0.00102429    1.414    0.293
        37 -13.4508      2.9286     10.5140   1.0113591044e+02   7.2214744111e+01    0.6820153    0.3044466 -49.44  0.003958881    1.789    0.441
        38 -10.3578    112.7791    157.3988   1.0338213345e+02   2.7389611324e+01    0.1950929    0.1341798  32.25  0.000953808    1.645    0.392
        39 -11.9348    109.2160    243.0848   1.1572546414e+02   1.1688812635e+01    0.2573501    0.1621116  67.64   0.00161753    1.608    0.378
        40 -12.3586    109.7976    249.2489   1.1622873088e+02   1.0647671233e+01    0.3654938    0.2262138  65.92  0.002343273    1.598    0.374
        41 -12.9374     57.3127    246.9986   1.2474021267e+02   1.8083686781e+01    0.5335614    0.3369932  37.18  0.003699376    1.797    0.444
        42 -11.2062     41.1529    249.6174   1.2744165200e+02   1.9566769089e+01    0.1971516    0.1290494  89.32  0.001529248    1.358    0.264
        43 -11.8223     40.5589    243.6827   1.2719046270e+02   2.0614637015e+01    0.3231815     0.191958  85.77  0.002346851    1.455    0.313
        44 -13.6151     27.5205    244.7084   1.2926647361e+02   2.1883523903e+01    0.7314375    0.3394881  89.83   0.00480548    1.955    0.488
        45 -14.0557     23.8674    224.2459   1.2874313565e+02   2.5812660764e+01    0.9362983    0.5172443 -87.58  0.006500894    1.520    0.342
        46 -13.6375     18.4537    161.4879   1.2538479129e+02   3.8845902349e+01     1.076181    0.6172423  55.80  0.006694591    1.670    0.401
        47 -12.6528     16.7330    195.7988   1.2825943437e+02   3.1894508319e+01    0.6309215    0.2295815 -66.53  0.002999342    2.443    0.591
        48 -13.4340     29.9400    169.3613   1.2367665319e+02   3.6063603237e+01    0.6690845    0.4050528 -53.25  0.002482682    1.918    0.478
        49 -15.3621      9.1536    179.9471   1.2863073653e+02   3.5771254589e+01      1.78677     1.072842 -77.57   0.01217787    1.357    0.263
        50 -11.7188      2.7047    249.8461   1.3314432666e+02   2.3541396623e+01    0.2366627    0.1461351  59.03  0.001551045    1.207    0.171
        51 -13.8377      9.1415    245.6789   1.3205548627e+02   2.3602258744e+01    0.6710044    0.3230325  60.53  0.003129666    1.464    0.317
        52 -11.6655     85.7089    152.9377   1.0902411324e+02   3.2801045710e+01    0.4163367    0.2375369 -49.61   0.00200149    1.822    0.451
        53 -11.7490    103.3040    150.2544   1.0432788159e+02   3.0597954430e+01    0.4083483    0.3014255 -31.87  0.002002866    1.758    0.431
        54 -11.5547      6.6193    147.7293   1.2675804992e+02   4.2811214464e+01    0.3446412    0.2015933  77.19  0.002154096    1.527    0.345
        55 -11.3865     63.2968    147.1848   1.1353014182e+02   3.7242298927e+01     0.212221    0.1466821 -55.06 0.0007773442    1.422    0.297
        56 -10.7937     38.3303    145.9335   1.1934783764e+02   4.0406726989e+01    0.1785893    0.1319716 -73.50 0.0006116382    1.130    0.115
        57 -10.9574    148.6044    140.7869   9.1576426225e+01   2.4093745868e+01    0.2164227    0.1419403 -55.93 0.0009524886    1.683    0.406
        58 -10.9566     88.4720    140.0510   1.0610599998e+02   3.5324065174e+01    0.2158379    0.1279041 -58.46 0.0004971955    1.572    0.364
        59 -12.6701     44.5586    134.4926   1.1632289225e+02   4.2382622122e+01    0.6915964    0.3863657 -69.11  0.003681429    1.508    0.337
        60 -10.7409     81.0642    135.9471   1.0723508842e+02   3.7396903524e+01    0.1977025    0.1768951 -72.28  0.001173086    1.024    0.023
        61 -12.0864    245.7399    133.9089   7.0576437641e+01   4.7771925705e+00     0.412943    0.2690917 -52.25  0.001949477    2.036    0.509
        62 -13.3067    223.3118    128.6077   7.3163322497e+01   1.0206783053e+01    0.6539323    0.4921841 -85.81  0.002989064    2.236    0.553
        63 -13.6166    233.0517    127.6580   7.1228416105e+01   8.3185140083e+00    0.6279145    0.5819247 -48.84  0.003613537    1.250    0.200
        64 -10.8816     63.2068    134.4716   1.1156583806e+02   4.0199697303e+01      0.21989    0.1884245 -78.05  0.001350141    1.014    0.014
        65 -10.5217     11.1124    134.1535   1.2449068096e+02   4.5482930695e+01    0.1684182    0.1297436 -67.74 0.0006227794    1.198    0.165
        66 -11.1789     25.3632    127.1635   1.2019995320e+02   4.5929100379e+01    0.2356199     0.185879 -67.21 0.0008147901    1.127    0.113
        67 -12.9563     28.3559    122.4602   1.1880943072e+02   4.6752952383e+01    0.5843678    0.2953753 -60.98  0.003136424    1.593    0.372
        68 -12.4094    134.1837    102.8923   8.5589093472e+01   3.5208826126e+01     1.272498     0.371247  50.07  0.003572446    3.978    0.749
        69 -13.1472    120.7155    102.2416   8.8928987916e+01   3.8166760667e+01    0.6397383    0.4278245  37.97  0.002646944    1.599    0.374
        70 -12.5805     77.2838    117.4732   1.0462641845e+02   4.2267289802e+01    0.9897527    0.4720666 -69.25  0.003815116    2.639    0.621
        71 -13.6552     86.2634    113.1133   1.0117191379e+02   4.1925632690e+01     1.653078     0.981186 -29.23  0.006120367    2.469    0.595
        72 -14.0165    105.9506    122.1562   9.7884972915e+01   3.6526915107e+01     1.589566     1.048613  37.94   0.00751895    1.631    0.387
        73 -13.4140    171.2749    243.0374   1.0479109103e+02   2.0313348823e+00    0.7397981    0.3953217  35.59  0.004197394    1.581    0.367
        74 -11.8991    182.1416    122.0329   7.9547194115e+01   2.0523899899e+01     0.610733    0.3897421  75.55  0.002255914    2.788    0.641
        75 -11.5375     34.4426     86.6380   1.1093337278e+02   5.4491068346e+01    0.2313311    0.1822637 -45.00 0.0007017215    1.177    0.150
        76 -12.2218      5.1083    119.0876   1.2439647552e+02   4.9289398429e+01    0.5361627    0.4161709 -34.93  0.003781326    1.652    0.395
        77 -14.3178     17.8939    110.9920   1.2003980416e+02   5.0245655271e+01    0.9608931    0.7057346 -21.22  0.006145929    1.870    0.465
        78 -15.3426     19.2435     97.5078   1.1765384350e+02   5.3239590680e+01     2.002122     1.263494 -23.54   0.01150583    2.161    0.537
        79 -13.4365      2.2797     97.2338   1.2256433804e+02   5.4385011314e+01    0.7560717    0.2406028 -71.89  0.003455633    2.362    0.577
        80 -14.0338     96.3605    238.7077   1.1753570296e+02   1.4261160559e+01    0.6850533    0.4530564  46.83  0.002679374    1.265    0.209
        81 -10.9955     37.8273    119.1429   1.1580389465e+02   4.6645603582e+01    0.2000189    0.1540149 -87.36 0.0009700214    1.215    0.177
        82 -12.8247     33.0077    111.3455   1.1590391361e+02   4.8916371803e+01    0.4455081    0.2428601 -83.28  0.002219545    1.963    0.491
        83 -11.7133     44.9547    110.3807   1.1235907292e+02   4.7973220312e+01    0.4751506    0.3571772 -60.00  0.002866271    1.120    0.107
        84 -11.6354    120.9686    111.6767   9.1367769555e+01   3.6048265595e+01    0.3606043    0.2534337  71.37  0.001563227    1.980    0.495
        85 -11.3857     60.5060    107.4875   1.0731032414e+02   4.6869898659e+01    0.3401529    0.2574222  11.12  0.001881835    1.752    0.429
        86 -10.9413    222.8322    109.8118   6.8585320051e+01   1.3458870528e+01    0.2041965    0.1787563 -60.47 0.0009156358    1.322    0.244
        87 -11.4839    176.6338    110.8214   7.7791718144e+01   2.3949248277e+01     0.376326    0.2735632  -4.25   0.00162384    1.790    0.441
        88 -11.9970     43.1803     91.1710   1.0911193869e+02   5.2616059781e+01    0.9854178    0.3785723 -72.75  0.003162835    4.457    0.776
        89 -12.5168     62.3483     99.4494   1.0502189240e+02   4.8509362796e+01    0.9016355    0.5368015  64.03  0.003994287    2.613    0.617
        90 -11.1601     56.5744     93.2247   1.0536746691e+02   5.0659236613e+01    0.2573355    0.1471619 -46.06 0.0006951473    1.567    0.362
        91 -12.8679     52.4360     98.0517   1.0772228650e+02   5.0029996168e+01    0.7403015    0.4576956 -11.47  0.003394114    2.757    0.637
        92 -12.3040     49.1632     94.2820   1.0791305640e+02   5.1267523907e+01    0.3788697    0.2874225  87.99  0.001589425    1.568    0.362
        93 -11.3688    249.5857     99.7858   6.1822027380e+01   9.2680356526e+00    0.2125155    0.1160534 -40.40  0.000952541    1.685    0.406
        94 -11.4616    162.0129     97.9411   7.7468904623e+01   2.9893487065e+01    0.3790997    0.3324214 -32.98  0.001268558    1.115    0.103
        95 -12.7730    137.2477     95.6014   8.2744738008e+01   3.6060273367e+01    0.4370328    0.3991171  71.74  0.001121567    1.222    0.182
        96 -11.8559    125.3559     92.6868   8.4984825123e+01   3.9243690534e+01    0.3965097    0.2829699 -79.96  0.001641802    2.215    0.549
        97 -12.2858     89.8120     88.1296   9.3777701747e+01   4.7016986658e+01    0.5173336     0.400993  44.92  0.002285813    1.435    0.303
        98 -12.7293    132.0325     85.7958   8.1171721436e+01   3.9209776009e+01    0.6411994    0.4173655  37.66  0.002471479    1.642    0.391
        99 -13.1652    135.5699     79.9370   7.8451829449e+01   3.9570395826e+01     1.416152     0.730766  31.35  0.004977645    2.699    0.630
       100 -13.3087    188.4749     84.3324   6.7989625351e+01   2.5970333405e+01    0.8760495    0.4173427  41.98  0.002403535    2.349    0.574
       101 -12.7621    149.7063     85.1031   7.6562727011e+01   3.5293799659e+01    0.8063553    0.3868895  36.33  0.002785875    2.611    0.617
       102 -14.7481    164.7680     71.2814   6.8899534760e+01   3.4147573002e+01     1.826411     1.005584  58.89  0.007232334    1.953    0.488
       103 -13.6337    160.9569     80.4453   7.2552181757e+01   3.3460777987e+01    0.8813301    0.6550123  18.50  0.002662454    1.650    0.394
       104 -14.6159    169.3322     77.1602   6.9737313529e+01   3.1984863407e+01     1.645007    0.6758221  53.46  0.005707311    2.455    0.593
       105 -12.6253    242.0020     84.0111   5.8998916353e+01   1.3317284440e+01    0.4349854    0.2728264  66.03  0.002043419    1.910    0.476
       106 -12.3443    237.2248     80.2637   5.8728820675e+01   1.4959100462e+01    0.4944566    0.3552143  78.74  0.002221093    1.756    0.431
       107 -10.9662     59.9606    125.3705   1.1087057040e+02   4.2739183159e+01    0.2258226    0.1343253  21.78   0.00108979    2.328    0.570
       108 -11.7274    100.2156     65.0123   8.3376852079e+01   4.9922391054e+01    0.4024298     0.360542 -32.17  0.001380952    1.068    0.063
       109 -13.9220     91.1486    232.4220   1.1785408357e+02   1.6055868794e+01    0.6237856    0.3203922 -89.20  0.003167711    2.805    0.643
       110 -13.2472     90.9862     57.4637   8.3600191618e+01   5.3078902330e+01    0.8170968    0.5017804 -54.11  0.002719403    2.030    0.507
       111 -13.3774     87.5021     65.1610   8.7387795333e+01   5.2222504191e+01    0.7472087    0.4687245 -25.83  0.002309242    1.734    0.423
       112 -12.9341     70.8490     75.6037   9.6131021117e+01   5.2711875610e+01    0.5604094    0.4636679 -20.98   0.00214784    1.237    0.191
       113 -12.1439     77.1834     73.5479   9.3435383508e+01   5.2202029855e+01    0.4735231    0.2684988 -38.99  0.001298242    1.632    0.387
       114 -12.9038     54.8316     82.1478   1.0322466608e+02   5.3380432918e+01    0.6215103    0.3632522 -42.53  0.002459973    1.548    0.354
       115 -13.8465     61.1051     75.3900   9.9312332535e+01   5.4093688000e+01    0.7219141    0.4402514 -39.36  0.001006415    1.503    0.335
       116 -12.0275    217.0005     81.1151   6.2038318275e+01   1.9540284850e+01    0.5721886    0.4510828 -26.75  0.001562064    1.224    0.183
       117 -12.7116    210.9385     77.7909   6.2124794298e+01   2.1537371676e+01    0.7350168    0.4928827 -75.86  0.003079657    2.193    0.544
       118 -10.8940     90.3130     81.4576   9.1683585632e+01   4.8377741113e+01    0.2914273      0.22452 -68.51  0.001459654    1.587    0.370
       119 -11.7003     93.9193     79.4599   8.9976904335e+01   4.8172540816e+01     0.486426    0.1984931  45.33  0.001809065    2.765    0.638
       120 -12.0447    114.0067     80.0285   8.4262808117e+01   4.4216650884e+01    0.4391559    0.3651965 -51.07  0.001191832    1.240    0.193
       121 -10.6684     32.8378     81.0856   1.1026235951e+02   5.5891054069e+01    0.1878784    0.1507578 -74.12 0.0007188921    1.242    0.195
       122 -11.6979     42.4759     77.1324   1.0609090836e+02   5.5862370980e+01    0.2914572    0.2782345 -66.89  0.001485369    1.189    0.159
       123 -14.1412    197.8519     70.1767   6.2197817455e+01   2.5996865931e+01     1.276829    0.8155963  29.91  0.003958709    2.009    0.502
       124 -11.2350    100.0000     75.9594   8.7048251777e+01   4.7790484868e+01    0.2506494   0.07931955 -43.70 0.0008020164    2.940    0.660
       125 -12.0555    147.2671    239.1131   1.0855672948e+02   6.4298884917e+00     0.195639    0.1573594  83.01 0.0008633638    1.543    0.352
       126 -13.4968    133.5908     66.6699   7.4664652839e+01   4.2502091525e+01     1.084845    0.7693739   1.13  0.004129253    1.842    0.457
       127 -11.1494    240.9447     70.9673   5.5839323012e+01   1.5512511770e+01    0.3247337    0.1968272 -81.94  0.001329161    2.670    0.625
       128 -10.6894    100.9101     70.0886   8.4873640658e+01   4.8800133429e+01     0.222567    0.2012294 -65.60  0.001210449    1.298    0.229
       129 -12.4631     38.8975     68.2460   1.0504472234e+02   5.8170240876e+01    0.7022909    0.3527035  26.67  0.003551763    2.390    0.582
       130 -12.5532    218.1371     74.5237   6.0074488292e+01   2.0312177300e+01    0.7687106    0.4839593 -74.91  0.002862063    2.484    0.597
       131 -13.2214    157.8064     43.7029   6.1406591143e+01   4.0256355248e+01     1.095459    0.6548254  28.73  0.004461595    2.120    0.528
       132 -13.9486    101.1583     49.4081   7.7494086088e+01   5.2559175340e+01    0.8598386    0.7494471  69.62  0.002170234    1.495    0.331
       133 -12.3305    210.3013    155.4309   8.1831637004e+01   8.4035477141e+00    0.3685497    0.1985209  39.51  0.001618955    1.824    0.452
       134 -11.1035     56.1217    155.7952   1.1642582087e+02   3.6175493341e+01    0.2420298    0.1375857 -48.00  0.001210369    2.052    0.513
       135 -12.9803    135.5707     50.6189   6.8665875923e+01   4.4741001805e+01     0.640434    0.3990451  27.42  0.002591813    1.950    0.487
       136 -12.8607     57.1730    203.4958   1.2137870187e+02   2.5936792333e+01    0.7994794    0.2704365 -70.61  0.003678945    2.890    0.654
       137 -13.4415     66.5275    223.1920   1.2138874108e+02   2.1030183489e+01    0.6962852    0.5392588  43.09  0.004983794    1.412    0.292
       138 -14.1994     62.9000    214.6111   1.2130287213e+02   2.3080084922e+01    0.9691415    0.4395406  47.43  0.005403114    1.853    0.460
       139 -13.1678      8.9552    210.7624   1.3046844847e+02   2.9754336668e+01    0.6441157    0.4293073  43.00  0.004900411    1.619    0.382
       140 -14.2493    177.9735     57.8621   6.2090952535e+01   3.2990045071e+01    0.9878448    0.7734624 -38.36  0.002473966    1.266    0.210
       141 -10.9456     39.1664     60.6410   1.0281952937e+02   5.9767667521e+01    0.2658883    0.2040726  86.81  0.001518049    1.968    0.492
       142 -12.0312     24.2638     59.8469   1.0818382397e+02   6.1257060105e+01    0.3612087       0.1974 -50.57  0.002034284    1.388    0.280
       143 -12.4546    248.3344     51.5811   5.0057966731e+01   1.6587125380e+01    0.6832422    0.4211457 -26.91  0.003383494    1.576    0.366
       144 -13.2177     65.9856     48.8940   8.8961242407e+01   5.8803756890e+01    0.5087363    0.4910587 -52.68  0.003265028    1.315    0.240
       145 -11.1037     23.5519     49.8223   1.0566323398e+02   6.3403970203e+01    0.3223939     0.176378 -16.17  0.001237874    2.366    0.577
       146 -11.1378     26.9178     46.2878   1.0321597148e+02   6.3843041388e+01    0.3775484     0.257432 -66.71   0.00215216    1.720    0.419
       147 -13.5375     95.7037    218.9023   1.1565827302e+02   1.7766173039e+01    0.5517344    0.2605758  43.81  0.002921094    1.813    0.448
       148 -11.2612     85.5009    215.9892   1.1725864599e+02   1.9772626981e+01    0.2447414    0.1333821  55.75  0.001382359    1.601    0.375
       149 -11.6459    185.6977    213.5936   9.7810045307e+01   3.7669372806e+00    0.1986692    0.1640974 -71.20  0.001199768    1.782    0.439
       150 -13.7767     58.4525     64.2198   9.6899574434e+01   5.6815092722e+01      1.49864    0.8557705 -22.25  0.003127235    2.342    0.573
       151 -12.3431    169.5239     43.1978   5.9010366562e+01   3.7316296082e+01     0.415213    0.2742303  58.88  0.001356324    1.481    0.325
       152 -11.5994     55.6037     41.0638   8.9868520925e+01   6.1700556739e+01    0.2054194    0.1759708   3.81 0.0003142076    1.182    0.154
       153 -11.2296    104.5936     37.0277   7.1700022890e+01   5.3811379938e+01    0.3464967    0.1844263 -27.26   0.00124969    1.851    0.460
       154 -11.3687    104.9723     31.4294   6.9347841619e+01   5.4527082366e+01    0.4376151     0.399402  10.43   0.00215327    1.045    0.043
       155 -12.6403     75.9902     37.4641   8.0932815208e+01   5.9212449505e+01    0.3321282    0.2527584  31.92 0.0008760702    1.360    0.265
       156 -11.7200     69.7263     36.5597   8.2779811201e+01   6.0394757089e+01    0.3693643    0.2361888  21.22  0.001354402    1.726    0.421
       157 -12.7443    242.2343     35.2936   4.6679296170e+01   2.0110852079e+01    0.6453741    0.4793722  46.60  0.002804358    1.568    0.362
       158 -11.4941     58.4553     35.4146   8.6510854515e+01   6.2293819897e+01    0.5139973    0.2787775  26.94  0.002560233    2.070    0.517
       159 -12.2063     29.2450     32.2586   9.7311133695e+01   6.6320385364e+01    0.6025938    0.3346968  -0.75  0.002233363    2.384    0.580
       160 -10.9840    157.4831    213.5132   1.0316369426e+02   8.6881822637e+00    0.1285529    0.1092544  45.61 0.0001305985    1.042    0.040
       161 -11.0243    136.8165    211.3095   1.0684585393e+02   1.2593707132e+01    0.2032164    0.1696105 -81.26  0.000898718    1.376    0.273
       162 -12.9786     45.2785    209.1454   1.2405229011e+02   2.6270085753e+01    0.3559813    0.2708341  70.58   0.00260747    1.044    0.042
       163 -11.0157     80.3608    208.3623   1.1744241398e+02   2.1928371327e+01    0.2530449     0.136036  67.86  0.001282008    2.002    0.500
       164 -11.0527    150.6274    206.7491   1.0347413191e+02   1.1004099692e+01    0.3065512    0.1616981  38.51   0.00150145    1.722    0.419
       165 -12.2648     45.9679     33.9259   9.0866260008e+01   6.4204897349e+01    0.4684637    0.2904094 -27.98  0.002638088    1.412    0.292
       166 -11.4174     91.7173     32.9817   7.3897869949e+01   5.7025687768e+01    0.3670801    0.2354901  21.54  0.001148731    1.727    0.421
       167 -10.3634     89.3056     30.2895   7.3525808298e+01   5.7884216863e+01    0.1400869    0.1252383  -3.24 0.0001664932    1.067    0.063
       168 -12.5625     41.6036    200.8052   1.2406720814e+02   2.8314958094e+01    0.2258961    0.1277539  82.35  0.001364474    1.606    0.377
       169 -12.7545     56.4342     27.4661   8.3915220861e+01   6.3884406425e+01    0.5875493    0.2991402  43.35  0.001891145    2.380    0.580
       170 -12.8303     67.8670     24.5275   7.8271420419e+01   6.2560207314e+01    0.6405367    0.3581716  38.41  0.003292601    1.837    0.456
       171 -12.5088     40.5453    195.3565   1.2382308229e+02   2.9519449860e+01    0.5120395    0.2604589  70.57  0.002869098    1.897    0.473
       172 -10.8861     97.9029     27.1375   6.9595794413e+01   5.6594295957e+01    0.1994332    0.1950319 -33.46  0.001222461    1.263    0.208
       173 -13.1375     22.3333    181.2637   1.2619836076e+02   3.4296483899e+01    0.4601799    0.3439651 -78.70  0.002243024    1.216    0.178
       174 -10.3732    212.3041    200.3546   9.0553484560e+01   1.0260977190e+00    0.1365844   0.09054802   8.52 0.0005759671    1.712    0.416
       175 -12.0919    163.8914    195.2416   9.8980852237e+01   1.0602409900e+01    0.4211713    0.2949976  88.79  0.001987478    2.511    0.602
       176 -13.3690    205.3128     40.3113   5.2441208903e+01   2.8470061314e+01    0.6784986    0.4388091 -81.98  0.002308383    1.942    0.485
       177 -10.2789     54.2553     19.8231   8.1308814128e+01   6.5357982456e+01    0.1721471    0.1233978  -0.74 0.0006209073    1.296    0.229
       178 -12.4469    201.1803    191.7710   9.1044531515e+01   4.2927068887e+00    0.3709663    0.2946405  -3.02  0.001925714    1.301    0.231
       179 -10.3346    107.6896    192.6590   1.1009828134e+02   2.0881250234e+01    0.1205466    0.1035463 -13.50 0.0007045087    1.694    0.410
       180 -11.8388     48.9772    181.5187   1.2090880130e+02   3.1403987817e+01    0.3734972    0.2399667 -54.57  0.002238847    1.794    0.443
       181 -12.6292    198.4577    181.6123   8.9616278016e+01   6.4032247509e+00    0.2945521    0.2824191 -66.15  0.001535445    1.325    0.246
       182 -11.7903     84.6618    180.1122   1.1325634552e+02   2.6998806105e+01    0.2916988    0.1543378 -76.94  0.001373262    2.172    0.540
       183 -10.5289    218.4721    176.5315   8.4790628190e+01   3.4283869467e+00     0.137457    0.1199978  10.72 0.0001349765    1.014    0.014
       184 -11.6054    130.9698    173.4967   1.0213086337e+02   2.0741177089e+01    0.2222943    0.1294362  43.64  0.001042442    1.620    0.383
       185 -12.1412    124.6076    167.8002   1.0253926569e+02   2.3065101625e+01     0.403203    0.2630383 -51.14    0.0020101    1.590    0.371
       186 -11.9306     90.4815    168.6433   1.1036905868e+02   2.8586712796e+01    0.2702477    0.1802078 -34.12  0.001317957    2.267    0.559
       187 -12.1625     77.2024    156.9073   1.1166367329e+02   3.3149156903e+01    0.4814215    0.2812199  39.72  0.001887983    1.787    0.440
       188 -12.9386     74.1264    153.1767   1.1182685757e+02   3.4425572274e+01    0.6353554    0.4216078  32.02   0.00298707    1.776    0.437
       189 -10.7576    155.0304    157.5265   9.3750073618e+01   1.9353236827e+01    0.2136519    0.1242674  64.53  0.000810079    2.607    0.616
       190 -11.6072    121.1955    156.8055   1.0130804238e+02   2.6017922325e+01    0.1943293    0.1745572  -7.34 0.0009673862    1.369    0.270
