#   1 NUMBER                 Running object number                                     
#   2 MAG_AUTO               Kron-like elliptical aperture magnitude                    [mag]
#   3 X_IMAGE                Object position along x                                    [pixel]
#   4 Y_IMAGE                Object position along y                                    [pixel]
#   5 X_WORLD                Barycenter position along world x axis                     [deg]
#   6 Y_WORLD                Barycenter position along world y axis                     [deg]
#   7 A_WORLD                Profile RMS along major axis (world units)                 [deg]
#   8 B_WORLD                Profile RMS along minor axis (world units)                 [deg]
#   9 THETA_WORLD            Position angle (CCW/world-x)                               [deg]
#  10 FWHM_WORLD             FWHM assuming a gaussian core                              [deg]
#  11 ELONGATION             A_IMAGE/B_IMAGE                                           
#  12 ELLIPTICITY            1 - B_IMAGE/A_IMAGE                                       
         1 -15.8296    180.2313     78.6029   8.0044225652e+01   2.9538594608e+01     6.759855     2.224393 -49.22  0.003288437    3.646    0.726
         2 -13.9610    247.4235     34.4002   6.0497378155e+01   2.0667646523e+01     1.101607    0.5044163 -83.25  0.004685143    2.913    0.657
         3 -15.5381    164.7392     55.9430   7.6819622242e+01   3.6999067227e+01     5.190946     2.671964 -74.81  0.007113972    5.574    0.821
         4 -14.7268    203.8424     46.1588   6.8014076263e+01   2.8927908939e+01     1.938076    0.9297888 -44.76  0.008741345    2.011    0.503
         5 -15.2252    216.1681     36.5207   6.4213773423e+01   2.7347112013e+01     2.501827     1.270119 -63.13  0.009124301    2.179    0.541
         6 -16.4822    196.1469      6.3223   5.9519975507e+01   3.5553282928e+01     10.76001          nan  61.50   0.02754668    7.076    0.859
         7 -16.7299    243.0684     87.9541   7.2280854656e+01   1.3436709714e+01       11.473      3.45023 -36.36   0.03845451    3.461    0.711
         8 -14.8158    237.3534     14.1166   5.7330096761e+01   2.5382749489e+01     1.008836    0.5439401  86.14  0.003701611    1.695    0.410
         9 -15.1372    238.5641      5.9564   5.5623587270e+01   2.6053920960e+01    0.8975481    0.4242049 -73.83  0.003987021    2.131    0.531
        10 -15.2101    247.5135      3.5176   5.4491605900e+01   2.4431676117e+01    0.6987799    0.4990195 -77.59  0.003172873    1.072    0.067
        11 -11.8336    133.9426      6.3110   6.7868469581e+01   5.0129792057e+01    0.4872542    0.2324486 -31.93  0.002432564    2.352    0.575
        12  -9.4300     11.4343      9.5343   1.0716725147e+02   7.0756599926e+01    0.1060262   0.07703255 -12.05 0.0001008082    1.025    0.024
        13 -14.1864    187.3573     60.6563   7.4103244171e+01   3.0761539097e+01     5.471589     2.597314  30.36  0.008569526   18.861    0.947
        14 -11.5457    116.2939      4.0414   7.0387730947e+01   5.4253960303e+01    0.5000988    0.1419283  47.60  0.002015795    2.824    0.646
        15 -11.9982     64.6982      4.2404   8.3466695083e+01   6.4345369048e+01    0.3161143    0.2483581  -2.71  0.001391262    1.219    0.179
        16 -10.5430    105.3094      2.0547   7.1965255974e+01   5.6759010301e+01    0.2264247    0.1360248  47.36  0.001314961    1.357    0.263
        17 -11.4711     57.5594      2.7650   8.5171798686e+01   6.5653103603e+01    0.2926761    0.1093173  33.91  0.001396723    2.535    0.605
        18  -9.1628     16.2873    134.6740   1.3706008569e+02   4.6092344659e+01    0.1237404   0.08290437  79.47 0.0002910796    1.609    0.378
        19 -12.0685    160.7619    128.3467   9.7032926165e+01   2.4270292654e+01    0.4487762     0.364585 -60.94  0.001858675    1.276    0.216
        20 -10.4947    135.7527    128.9488   1.0323135014e+02   2.9659292897e+01    0.5892192    0.1223727 -46.43  0.001437648    4.727    0.788
        21 -11.3474    135.0000    119.6334   1.0109323911e+02   3.1919028919e+01    0.7736927     0.193919 -47.40  0.002072836    3.993    0.750
        22 -12.2269    134.5968    108.3799   9.8260892540e+01   3.4465482338e+01     1.377148    0.3203433 -44.13  0.003621075    4.262    0.765
        23 -14.5865     33.6436    194.8354   1.3992839645e+02   3.0345821752e+01     1.703452     1.226103  86.78   0.01065716    1.144    0.126
        24  -9.3192      1.2176    126.0486   1.3991747443e+02   4.9145858059e+01    0.1560064   0.07523379 -69.21 0.0003112189    1.566    0.361
        25 -12.3394    167.1542    113.4229   9.1834561259e+01   2.5982906612e+01    0.4533575      0.38315 -89.98  0.001193163    1.321    0.243
        26 -12.3019    156.1647    101.5106   9.1194926629e+01   3.0993294450e+01    0.4113906    0.3312804 -64.28  0.001983714    1.341    0.254
        27  -9.4094     72.4110    105.3684   1.1511503293e+02   4.6719450594e+01    0.1355268    0.1266338 -47.93 9.832867e-05    1.037    0.036
        28  -9.5328    111.6684    103.7040   1.0311542298e+02   4.0274231475e+01    0.1520668    0.1194891  -2.69 0.0006075132    1.639    0.390
        29 -11.9493      6.0995    170.4180   1.4348394869e+02   3.8625915438e+01    0.2813441    0.2036511  28.85  0.001286357    1.793    0.442
        30 -10.9510    123.8590    100.6920   9.8972229708e+01   3.8412141992e+01    0.2473863    0.1957014  22.85  0.001184538    1.470    0.320
        31 -11.5995    146.2311     97.0173   9.2304039056e+01   3.4203067925e+01    0.3749413    0.3158725  16.78 0.0008755179    1.419    0.295
        32 -10.8983    140.8965    102.1709   9.5008306823e+01   3.4370557272e+01    0.2845338    0.2136394  25.48 0.0007406178    1.626    0.385
        33 -10.8349    133.1886     94.3468   9.4779511527e+01   3.7689944869e+01     0.294975    0.2443668 -77.96 0.0004602051    1.435    0.303
        34  -9.3554    113.2782     95.0001   1.0026143501e+02   4.1789867589e+01    0.1859461    0.1297509 -43.72 0.0003699244    1.408    0.290
        35 -14.8297     58.0587    174.6232   1.3207440760e+02   3.2109941468e+01     1.576304      1.22122 -13.93  0.002717437    2.065    0.516
        36 -11.5473    246.3412    163.7816   8.8115447334e+01  -7.1307677415e-01    0.4907836    0.2892749  -5.11  0.001874022    3.385    0.705
        37 -11.4243     33.9791    209.0686   1.4120429990e+02   2.7115924261e+01    0.1877277    0.1443363  82.84 0.0003163999    1.009    0.009
        38  -9.5707     87.4056     88.5625   1.0599915302e+02   4.7960764848e+01    0.1391892    0.1313087 -37.30  0.000269653    1.059    0.056
        39 -11.6723    139.6558     85.8785   9.0772841174e+01   3.7885559889e+01    0.3438838    0.3014432 -70.51  0.000923257    1.248    0.199
        40 -10.0871    211.1051     80.0576   7.5112352126e+01   2.1903871924e+01    0.2461303    0.1965176  54.51 0.0008133574    1.338    0.252
        41 -11.6082    215.8464     80.8798   7.4575444900e+01   2.0663319501e+01    0.3886773    0.2830747 -67.73  0.001851849    1.401    0.286
        42 -10.3800    219.6571     78.0834   7.3347402422e+01   2.0260954076e+01    0.3795701    0.2497253  61.11  0.001219488    1.551    0.355
        43 -10.6338    205.8604     81.5560   7.6311360133e+01   2.2875990546e+01    0.3251809    0.2398654 -79.89  0.001004781    1.494    0.330
        44 -12.9715    153.1339     77.6516   8.5306349722e+01   3.6246111018e+01    0.3964557    0.3264252 -37.03 0.0009690245    1.261    0.207
        45 -14.5182     49.8281    183.3165   1.3511951210e+02   3.1096260408e+01    0.9482079    0.8394512 -64.47  0.001799312    1.256    0.204
        46 -10.3541    130.5499     66.1921   8.7192370800e+01   4.3464283299e+01    0.2657341    0.2047194  50.58  0.001016805    1.250    0.200
        47 -10.2459    217.9412     64.0260   7.0313875244e+01   2.2942739620e+01    0.2403181    0.1871171  78.95 0.0006905576    1.238    0.193
        48  -9.7532    220.2564     58.4244   6.8706758521e+01   2.3274193561e+01    0.2263068    0.1376976 -60.11 6.875065e-06    1.634    0.388
        49 -10.4029    189.8293     51.2431   7.1296596679e+01   3.1573767753e+01    0.2848426    0.2066636 -28.05 0.0008154582    1.621    0.383
        50 -10.1997    177.9793     47.8605   7.2298234366e+01   3.4943085000e+01    0.3209128    0.2410705  19.44  0.001606273    1.920    0.479
        51 -11.4975    190.6812     43.6433   6.9244479222e+01   3.2439804794e+01    0.5238211    0.2666046 -56.32  0.001823722    2.231    0.552
        52 -10.8219    186.6393     38.3629   6.8495232316e+01   3.4126323581e+01    0.4408672    0.2162278 -28.33  0.001919074    2.463    0.594
        53 -10.0619    189.7677     36.3830   6.7550275133e+01   3.3627637984e+01    0.2628053    0.1705498  70.00 0.0006619782    1.399    0.285
        54 -10.9330    192.6700    194.7417   1.0464887287e+02   3.5240097507e+00     1.025612     0.499998 -65.26   0.00221772    9.752    0.897
        55 -10.6826     12.0371    162.6215   1.4140399870e+02   3.9922959448e+01    0.2032607    0.1369062 -87.59 0.0005093226    1.232    0.189
        56  -9.9693    202.0125    248.2666   1.1230171192e+02  -7.2526341856e+00    0.1739545     0.139003  28.69 0.0002504154    1.071    0.066
        57 -10.1336    170.0178     29.0331   6.8531197148e+01   3.9315618650e+01    0.2537616    0.1460854 -59.27 0.0008711164    2.066    0.516
        58  -9.6036    176.8036     22.1756   6.5734096242e+01   3.8465909591e+01    0.1561139    0.1406779  50.33 0.0002876971    1.232    0.188
        59  -9.5859      3.6806    162.2787   1.4326041792e+02   4.0678531496e+01    0.1192418   0.07357582  72.33 0.0001943313    1.579    0.367
        60 -11.0192    218.6881     19.2719   6.0115978994e+01   2.8929194932e+01    0.2099746    0.1731425 -63.51 0.0005717113    1.151    0.131
        61  -9.7139     84.2803     10.7008   8.0270797349e+01   6.0254875109e+01    0.1032891   0.09505361 -73.29 0.0001838557    1.543    0.352
        62  -9.5048    107.7097    233.3167   1.2892935980e+02   1.1354290525e+01    0.1357487   0.09001166  70.72 0.0002790882    1.596    0.373
        63 -10.5637    132.4574    140.3004   1.0677104714e+02   2.7737279349e+01    0.8241166    0.2354677 -55.81  0.001949216    5.327    0.812
        64 -12.4383     67.7937    144.3249   1.2477026622e+02   3.8160062405e+01    0.6801441    0.4143393  66.39  0.002809692    2.169    0.539
        65  -9.2533     20.4882    139.3769   1.3659557264e+02   4.4644620696e+01    0.1233734    0.1014671 -71.57 9.386047e-05    1.037    0.036
        66 -14.7599     19.1040    209.0237   1.4410198676e+02   2.8766210222e+01    0.9507704    0.7044455  79.41  0.003889287    1.049    0.047
        67  -9.8889    165.9579    134.6931   9.7388589092e+01   2.1713513941e+01     0.214312    0.2064309  70.50  0.000517673    1.042    0.041
