#   1 NUMBER                 Running object number                                     
#   2 MAG_AUTO               Kron-like elliptical aperture magnitude                    [mag]
#   3 X_IMAGE                Object position along x                                    [pixel]
#   4 Y_IMAGE                Object position along y                                    [pixel]
#   5 X_WORLD                Barycenter position along world x axis                     [deg]
#   6 Y_WORLD                Barycenter position along world y axis                     [deg]
#   7 A_WORLD                Profile RMS along major axis (world units)                 [deg]
#   8 B_WORLD                Profile RMS along minor axis (world units)                 [deg]
#   9 THETA_WORLD            Position angle (CCW/world-x)                               [deg]
#  10 FWHM_WORLD             FWHM assuming a gaussian core                              [deg]
#  11 ELONGATION             A_IMAGE/B_IMAGE                                           
#  12 ELLIPTICITY            1 - B_IMAGE/A_IMAGE                                       
         1 -10.7290      2.2401     60.8816   1.1206760848e+02   6.3205646915e+01    0.7277041      0.14141 -67.28  0.002354425    4.799    0.792
         2 -12.1156    218.9877     25.9290   4.0591223866e+01   2.7267596118e+01    0.9847039     0.788966  23.19  0.003135776    1.734    0.423
         3 -10.3163      1.6859     16.1216   9.9010807442e+01   7.2012151147e+01    0.6806308   0.08067882 -53.77   0.00202118    6.884    0.855
         4 -11.7148    233.1403     11.3148   3.5884422912e+01   2.5691332391e+01    0.7011871    0.5210959 -63.27   0.00275448    1.157    0.136
         5  -9.1111      2.0848      3.5067   9.3086334251e+01   7.4035531827e+01    0.2943943    0.1173253 -43.72  0.001641493    2.023    0.506
         6  -9.8839     82.9943    245.1489   1.1513543917e+02   1.3529817930e+01    0.1961173    0.1589071  89.43  0.001382906    1.272    0.214
         7 -10.0127    100.7991    249.8276   1.1222809815e+02   1.0188553141e+01    0.2756358    0.1887163  49.25  0.001777403    1.155    0.134
         8 -10.7589     29.3460    248.2751   1.2495745665e+02   1.9652503462e+01    0.4330334    0.4010364  81.51  0.003071314    1.464    0.317
         9 -11.5647     19.2533    220.1943   1.2514873683e+02   2.6013872252e+01    0.7012083    0.3971689  55.00   0.00419934    1.432    0.302
        10 -13.9930      5.5472    134.4275   1.2166829608e+02   4.6095087004e+01     7.937354     1.979244 -82.40   0.02396329    5.337    0.813
        11 -13.2116     38.8714    200.0985   1.1990339938e+02   2.8071227835e+01     1.864163      1.04448  60.64   0.01009141    1.608    0.378
        12 -10.3073     24.9047    227.9758   1.2458006223e+02   2.3907333386e+01    0.3613797    0.1944354  54.29  0.001687784    1.479    0.324
        13 -10.1794    116.4032    230.7005   1.0707605269e+02   1.1184164380e+01    0.2414526    0.2191167  89.03  0.001631509    1.208    0.172
        14  -9.6789    128.2400    229.8873   1.0457035222e+02   9.4497235192e+00    0.2875104    0.1717403  72.43  0.001319319    2.709    0.631
        15  -8.7634     33.0018    228.1884   1.2312186261e+02   2.2988896728e+01    0.2901762   0.07652285 -66.38  0.001294114    3.460    0.711
        16 -10.1268     83.9960    224.1367   1.1290713045e+02   1.7298360642e+01    0.4336449    0.2971675 -69.15  0.002626734    1.557    0.358
        17  -8.3109     48.8608    224.7091   1.1989953313e+02   2.1830858429e+01    0.1792555    0.1492945 -60.39 0.0008788668    1.531    0.347
        18  -9.0907     94.8461    225.4543   1.1084558144e+02   1.5460654104e+01    0.1945298    0.1481255 -64.55  0.001209376    1.462    0.316
        19  -9.2238    125.9565    245.5035   1.0694766684e+02   7.1397740718e+00    0.2013554    0.1001963  39.97  0.001046783    1.631    0.387
        20  -8.1602    141.9684    240.4638   1.0319343993e+02   5.4545170629e+00    0.1859706   0.08653942  54.10 0.0008094884    2.573    0.611
        21  -9.8531    113.8650    239.5294   1.0862054790e+02   1.0010729063e+01    0.2309308    0.1567957  85.65  0.001319039    1.910    0.476
        22 -10.0299     22.0658    208.3147   1.2388329197e+02   2.8131092966e+01    0.2840607    0.1490283  82.46  0.001142349    1.699    0.412
        23 -10.1460     34.4401    238.7724   1.2352876335e+02   2.0818717292e+01      0.24081     0.155882  72.77  0.001666491    1.234    0.189
        24  -9.9563     57.7523    181.8863   1.1396205069e+02   2.9860492410e+01    0.3750646     0.262033 -34.62   0.00159245    2.131    0.531
        25  -9.9733     63.5471    175.9839   1.1188920515e+02   3.0471671544e+01    0.2779937    0.2333446 -47.31 0.0008127629    1.410    0.291
        26  -9.3402     41.7175    237.1103   1.2212248921e+02   2.0295329383e+01    0.1988333    0.1702357 -71.32 0.0003997796    1.466    0.318
        27  -9.6811     73.8045    165.7608   1.0797922117e+02   3.1471112717e+01    0.2638642    0.2374021 -80.95 0.0004604995    1.053    0.050
        28 -11.5811     60.5684    162.2997   1.1081794822e+02   3.4081467847e+01    0.5018429    0.2862425 -46.21  0.001383108    2.035    0.509
        29 -11.2468     80.5414    158.9829   1.0521190962e+02   3.2108302072e+01    0.8989763    0.6039729  57.80  0.002396427    1.568    0.362
        30  -8.5174     63.1316    237.7466   1.1822862794e+02   1.7541785384e+01    0.1901197    0.1299546  78.45 0.0005638874    1.343    0.255
        31 -12.0395      3.9389    184.3137   1.2594129050e+02   3.4882015343e+01     1.219244    0.4628526 -82.10  0.006020822    2.191    0.544
        32 -12.7088      8.4495    207.3187   1.2641484215e+02   2.9646032555e+01    0.9715729    0.7557449 -83.11  0.005451855    1.248    0.199
        33 -11.3398     68.1729    143.8157   1.0599133777e+02   3.7553562090e+01    0.7215618    0.4512759  70.41  0.002048099    2.035    0.509
        34 -10.3226     84.1121    143.0779   1.0147868515e+02   3.5411637220e+01    0.3304749    0.2577598 -44.92 0.0004889199    1.334    0.250
        35 -13.0645      4.5041    239.7747   1.2868344444e+02   2.3739491839e+01     1.711316     1.022624  89.50   0.01177761    1.379    0.275
        36  -9.2479     75.8535    136.2749   1.0249927343e+02   3.8317289071e+01    0.2387352    0.2224293  82.08 0.0006678409    1.073    0.068
        37  -9.5354     96.6531    143.7884   9.8189095398e+01   3.3208813012e+01    0.4209615     0.328244  -8.57  0.002027867    1.772    0.436
        38  -8.9331    107.6991    132.2710   9.2714043648e+01   3.4020946976e+01    0.3753037    0.2725464  29.20  0.001580775    1.529    0.346
        39  -9.6438     38.8231    232.4268   1.2233546768e+02   2.1516463653e+01    0.2149439    0.1769249  59.68 0.0002013175    1.193    0.162
        40  -9.1616     95.3364    128.5723   9.5362221594e+01   3.7103429583e+01    0.3040439    0.2538144 -19.67 0.0007936935    1.416    0.294
        41  -7.7020    105.5334    120.4784   9.0563012382e+01   3.7216002103e+01     0.152301    0.1466492 -48.23 7.978171e-05    1.008    0.008
        42  -8.8605     53.1956    117.4142   1.0559028722e+02   4.5938782322e+01    0.2873107   0.08935682 -58.86  0.001034219    2.654    0.623
        43  -7.6214    205.7010    110.3328   6.4016014373e+01   1.7362095967e+01     0.153233    0.1162422 -66.87 0.0005639474    1.648    0.393
        44 -11.4030     28.9479    210.2547   1.2267983073e+02   2.7017483405e+01    0.4476107    0.3566753 -47.89 0.0009984801    1.784    0.440
        45  -7.4826     24.7166     82.6681   1.0808572262e+02   5.6980224098e+01    0.1357376   0.07690711 -40.75 0.0003385078    1.614    0.380
        46  -9.8977      2.1173     43.5710   1.0794823019e+02   6.6832811030e+01     0.296217   0.09203488 -52.19  0.001166984    2.113    0.527
        47  -9.0069     73.3109    250.4468   1.1737729717e+02   1.3912724787e+01    0.2110245    0.0986504  35.62  0.001124582    2.064    0.516
        48  -8.3864     31.8108     62.0963   1.0022985276e+02   6.0945646932e+01    0.2773663    0.1775127  -2.23  0.001517377    1.839    0.456
        49  -9.1905     13.0153     60.2471   1.0749356004e+02   6.2767902164e+01    0.1646105    0.1372743 -35.59 0.0005613958    1.116    0.104
        50  -8.2649     33.9417     55.3460   9.7313372061e+01   6.2149944973e+01    0.1878612    0.1602301  47.21  0.001188783    1.582    0.368
        51  -9.4032    195.4051     45.9815   4.8685104074e+01   3.0403166634e+01    0.2643157    0.1818082 -79.28  0.001261684    1.679    0.404
        52  -8.8999    138.8258     44.6289   5.8507276691e+01   4.4832545870e+01    0.3072307    0.1716303 -53.77   0.00122034    2.413    0.586
        53 -11.1146    211.4834     32.7973   4.3118976029e+01   2.8208489085e+01     0.599836    0.3988872 -48.46  0.003168882    1.419    0.295
        54  -8.6835     58.7187    249.4452   1.1992872977e+02   1.5979059564e+01    0.2240402   0.08055898  42.89  0.001149438    2.137    0.532
        55 -11.1958    204.9073     37.2440   4.5060301405e+01   2.9233082231e+01    0.4904487    0.4448189  41.41  0.002424706    1.273    0.214
        56  -8.7567     70.3337    247.4989   1.1768236624e+02   1.4826514580e+01     0.180061    0.1001526 -72.38  0.001080674    1.951    0.487
        57  -9.8004    115.6091    246.2675   1.0903460370e+02   8.5935706322e+00    0.2410592    0.1201292  47.51  0.001274374    1.656    0.396
        58  -7.8620     32.4845     15.4972   8.2236774401e+01   6.9350744473e+01    0.1201357   0.09526862 -10.17 0.0008096538    1.064    0.061
