#   1 NUMBER                 Running object number                                     
#   2 MAG_AUTO               Kron-like elliptical aperture magnitude                    [mag]
#   3 X_IMAGE                Object position along x                                    [pixel]
#   4 Y_IMAGE                Object position along y                                    [pixel]
#   5 X_WORLD                Barycenter position along world x axis                     [deg]
#   6 Y_WORLD                Barycenter position along world y axis                     [deg]
#   7 A_WORLD                Profile RMS along major axis (world units)                 [deg]
#   8 B_WORLD                Profile RMS along minor axis (world units)                 [deg]
#   9 THETA_WORLD            Position angle (CCW/world-x)                               [deg]
#  10 FWHM_WORLD             FWHM assuming a gaussian core                              [deg]
#  11 ELONGATION             A_IMAGE/B_IMAGE                                           
#  12 ELLIPTICITY            1 - B_IMAGE/A_IMAGE                                       
         1 -10.8205     64.7185     10.9867   6.8159039866e+01   6.5237753674e+01    0.1795494    0.1439763  -5.24 0.0008371985    1.126    0.112
         2 -11.2235      3.5064      8.5385   9.6628108431e+01   7.3097349892e+01    0.1108481   0.08154368 -26.32 0.0001088664    1.027    0.027
         3 -11.1226     51.9879      4.5191   6.9931122836e+01   6.8098795910e+01    0.1755332    0.1051937  37.53 0.0004759807    1.554    0.357
         4 -12.1211    116.3106    237.4274   1.0885382151e+02   1.0000895876e+01    0.2886353    0.1682672  43.58  0.001622971    1.402    0.287
         5  99.0000    166.6052    215.2728   9.5710633244e+01   5.5372534207e+00     4.509651     2.212084  54.00  0.005650854    2.600    0.615
         6  -9.9373    127.1433    243.3460   1.0743593072e+02   7.3110702744e+00    0.8726968    0.3453968  54.78  0.003587454    3.090    0.676
         7 -13.3746    149.3881    247.3432   1.0366365602e+02   3.1829477730e+00      1.22641    0.2518338  45.11  0.001399536    4.382    0.772
         8 -11.9528    143.7500    247.0465   1.0469969783e+02   4.1152081479e+00    0.2040316    0.1422046  44.02 0.0004198707    1.158    0.137
         9 -15.5996    200.2735    246.4773   9.3997780487e+01  -4.6150900868e+00     1.754493     1.526491   3.99 0.0002164271    1.182    0.154
        10 -13.0673    130.0980    236.3495   1.0602598943e+02   8.0194186680e+00    0.5535535    0.3146095 -62.35  0.002980911    2.214    0.548
        11 -11.4231    120.1146    249.5402   1.0946663680e+02   7.3758257664e+00     0.293154    0.1517008  63.29  0.001430904    2.505    0.601
        12  99.0000    123.5830    219.1729   1.0515186244e+02   1.2139259062e+01       1.6623     1.074834 -44.21  0.008996117    1.924    0.480
        13 -14.3634    124.2971    196.8352   1.0182705306e+02   1.6395554554e+01     1.743585     0.811469  53.90  0.007085635    2.397    0.583
        14 -14.3202    110.5602    203.4709   1.0580436358e+02   1.7349748512e+01    0.7277027    0.6330023  57.58  0.004481337    1.013    0.013
        15 -14.7320    110.8979    219.1541   1.0777308217e+02   1.4191469492e+01    0.9325315    0.5661368 -61.67  0.005059669    1.844    0.458
        16 -17.1550     93.1534    223.1156   1.1185917393e+02   1.6163122579e+01     3.030998     2.242719 -32.74    0.0165106    2.166    0.538
        17 -17.8371     72.2651    211.6119   1.1491413861e+02   2.1464080524e+01     9.421804     5.026093  85.79   0.04594051    2.276    0.561
        18 -11.6498    170.4103    204.3776   9.3135635200e+01   6.7596562231e+00     0.228465    0.2125662  43.84 0.0002643456    1.120    0.107
        19 -10.8485    120.1328    204.5905   1.0388239750e+02   1.5535311357e+01    0.1991981    0.1358483  54.28 0.0005438885    1.373    0.272
        20 -15.5278    168.5025    243.5853   9.9528870974e+01   7.2362639789e-01     2.341487    0.8849664  43.05  0.009526948    2.215    0.548
        21 -12.1498    135.3078    231.0387   1.0432359838e+02   8.0910665032e+00    0.6745189    0.3298023  61.64  0.002728824    3.277    0.695
        22 -13.3532    137.6099    241.8105   1.0523375356e+02   5.9175145412e+00    0.5952819    0.3230843  53.18  0.003137239    1.803    0.445
        23 -11.3118    148.2694    199.0428   9.6928037349e+01   1.1718403832e+01    0.2818048    0.1734186  45.52   0.00059706    1.486    0.327
        24 -11.1284    149.6470    195.1852   9.5985440534e+01   1.2214744344e+01    0.2173301      0.17048  48.96  0.000329983    1.201    0.168
        25 -11.2141      2.6036    193.7886   1.2751310365e+02   3.3030432265e+01   0.09065244   0.08112675 -50.78 0.0006829136    1.624    0.384
        26 -13.0209    147.3419    188.1961   9.5290194418e+01   1.4017138839e+01    0.4373096     0.250665 -45.03  0.001318357    1.907    0.476
        27 -10.4578      9.5207    192.3862   1.2608236251e+02   3.2721350324e+01    0.1119835   0.08680785  81.45 0.0005136264    1.065    0.061
        28 -10.1336      8.1217    187.2874   1.2604570388e+02   3.3934611065e+01    0.2947411    0.1562816  31.26  0.001755504    2.178    0.541
        29 -11.3385     12.6682    186.7004   1.2508735750e+02   3.3656914526e+01    0.2403301     0.126081 -61.99  0.001386936    1.922    0.480
        30 -10.2557    124.4345    187.0731   1.0026025991e+02   1.8403821381e+01    0.1773812    0.1379004 -58.02 -3.341643e-06    1.367    0.269
        31 -11.5992    129.1923    184.9102   9.8817093422e+01   1.8012377261e+01    0.4629225    0.1877801  40.08  0.001790332    2.306    0.566
        32 -11.6682    136.9382    184.3554   9.6957706140e+01   1.6720238414e+01    0.2465498    0.1973448 -46.26 0.0007786999    1.356    0.263
        33 -11.4194     29.3622    181.9686   1.2122031457e+02   3.3086691464e+01    0.2127686    0.1496317  62.39 0.0006760735    1.257    0.205
        34 -12.2540    124.6487    178.5593   9.8789861637e+01   2.0191538036e+01    0.2398052    0.2329123  48.34 0.0004428897    1.083    0.077
        35  -8.1104      2.3228    178.6948   1.2669090389e+02   3.6279030592e+01    0.1182941   0.08737805  82.93   0.00022414    1.010    0.009
        36 -10.5394      4.9230    169.7581   1.2556305467e+02   3.8037413840e+01     0.141785    0.1009534  73.95 0.0003058775    1.165    0.141
        37  -8.5295      5.6950    177.7012   1.2593076372e+02   3.6221141922e+01    0.1539397    0.1147714 -62.46 0.0003400212    1.485    0.326
        38 -12.6466      2.8794    174.1786   1.2629122542e+02   3.7222024703e+01    0.2399958    0.2244238  58.82  0.001886314    1.375    0.273
        39 -11.5497    128.6788    175.7588   9.7357790758e+01   2.0066414336e+01    0.4711649    0.2214687 -61.04  0.001297267    2.587    0.613
        40 -11.3786    116.1929    176.9241   1.0050054283e+02   2.2056322472e+01    0.2263153    0.1855346  51.61 0.0002388939    1.147    0.128
        41 -12.1064    115.6957    171.8974   9.9763870160e+01   2.3264826808e+01    0.2794791    0.2353852 -65.29 0.0004045189    1.209    0.173
        42 -10.5756    155.6991    176.2502   9.1236437253e+01   1.4851406193e+01    0.1396351    0.1109544  68.80 0.0003969665    1.497    0.332
        43 -11.8832    140.9300    228.7012   1.0288925757e+02   7.5742565554e+00    0.2769229    0.1880618 -52.90 0.0008806408    1.745    0.427
        44 -18.0332     85.6459    186.1974   1.0903976737e+02   2.4986250087e+01     7.802019     2.237309 -58.46   0.02822302    3.327    0.699
        45 -11.4982     20.3390    167.3097   1.2196828563e+02   3.7275232234e+01    0.3375613    0.1515902  45.59  0.001697871    2.129    0.530
        46 -10.6076    120.9903    164.9946   9.7248219736e+01   2.3865689965e+01    0.2087249    0.1649848  78.56  0.001043506    1.431    0.301
        47 -11.9241    115.4439    162.3020   9.8113528030e+01   2.5488059038e+01    0.4284222    0.3014026  12.46  0.001898198    2.146    0.534
        48 -12.3410    111.8506    157.4283   9.8104713256e+01   2.7260002814e+01    0.5027221    0.1916198 -50.97  0.001808107    2.612    0.617
        49 -10.4736     18.6428    162.3313   1.2192437664e+02   3.8568656668e+01    0.1633488   0.09141086 -70.30 0.0009187196    1.497    0.332
        50 -15.0185    247.3429    147.1085   6.6931366072e+01   2.4851975858e+00      1.35089    0.5716315 -40.30    0.0057416    2.183    0.542
        51 -10.9732    138.6010    222.8781   1.0256549950e+02   8.9781323521e+00    0.3405479    0.1078079 -44.86  0.001242022    4.128    0.758
        52 -11.6447    120.0709    155.7231   9.5712566927e+01   2.6151737997e+01    0.2453032    0.2107752 -51.25 0.0002677296    1.191    0.160
        53 -12.2920      7.5535    155.5215   1.2391734450e+02   4.1046799253e+01    0.2055029    0.1593663 -71.33 0.0002715569    1.214    0.176
        54 -10.1820    157.5891    154.8685   8.6464328183e+01   1.8928141307e+01    0.1804789    0.1453127 -62.08 0.0002373911    1.388    0.279
        55 -10.2117    132.3898    154.7941   9.2468929790e+01   2.4012190751e+01    0.1903549    0.1421687 -41.76 0.0002537234    1.422    0.297
        56 -12.6737    124.3358    149.2094   9.3327890888e+01   2.6845050932e+01    0.4535912    0.3924228  66.11  0.001424716    1.191    0.160
        57 -10.8011     24.1944    210.5952   1.2438546360e+02   2.7497097572e+01    0.1179735   0.06299752  76.85 0.0006753531    1.622    0.383
        58 -17.2964     69.5486    181.1137   1.1209895874e+02   2.8457489327e+01     2.755075      1.62374  79.96   0.01334664    1.951    0.487
        59 -12.6201    118.7045    141.3208   9.3112896946e+01   2.9755682278e+01     0.270253    0.2324948  81.96 0.0006956768    1.258    0.205
        60 -11.2029      1.4885    140.4352   1.2412223374e+02   4.4949342506e+01    0.1862703    0.1471139 -82.05 0.0006457361    1.056    0.053
        61 -12.3267      4.9860    139.0024   1.2313130716e+02   4.5046478726e+01    0.2202841    0.1815246 -51.51 0.0006974366    1.389    0.280
        62 -14.0448    159.7162    230.8326   9.9443198679e+01   4.1171495531e+00     1.248762    0.5385548  33.73   0.00502184    2.208    0.547
        63 -14.8335    247.5389    127.0740   6.2503952145e+01   5.7144287548e+00     1.078842    0.4842423 -40.84  0.004645264    2.001    0.500
        64 -10.6813    145.6967    116.0277   8.0145917204e+01   2.9917729997e+01    0.2172738    0.1993755 -43.76 0.0002905565    1.080    0.074
        65 -11.3388      1.4376    105.3715   1.2061675272e+02   5.3105773895e+01    0.2266025   0.09230784 -72.53 0.0007201274    1.879    0.468
        66 -12.8243    119.7806    102.5035   8.3373519455e+01   3.8494298856e+01     0.297365    0.2154092 -45.58 0.0008641827    1.347    0.258
        67 -10.0978    135.7026    214.7868   1.0202563262e+02   1.0935563947e+01    0.1214146   0.09465583  22.05  0.000672375    1.448    0.309
        68 -12.5816    117.4948     95.0080   8.1919614099e+01   4.0616392298e+01    0.3098066    0.2390639  45.19 0.0006429216    1.330    0.248
        69 -12.3977    137.9243    249.9165   1.0614994803e+02   4.5776289526e+00    0.4985128    0.2223335  42.58   0.00255046    1.768    0.434
        70 -11.1442    144.6721    205.8318   9.8789774580e+01   1.1064520139e+01    0.2992304    0.2462965  15.77  0.001367345    1.382    0.276
        71  99.0000    154.8791    241.0239   1.0179454934e+02   3.2868845047e+00     4.617135    0.5185239  38.93   0.01069425    8.271    0.879
        72 -13.5480     89.5183     86.0667   8.7778362502e+01   4.7958918725e+01    0.4642202    0.2897392 -46.47 0.0009239838    1.508    0.337
        73 -11.4583    131.0866    211.5111   1.0252681955e+02   1.2333787267e+01    0.2816148    0.2126796  18.84   0.00154343    1.623    0.384
        74 -11.7009     48.4984     83.5027   1.0104282343e+02   5.4451048080e+01    0.1358624    0.1167798 -47.11 0.0005827621    1.004    0.004
        75 -13.9671    148.4243    232.6489   1.0193038693e+02   5.6778302626e+00    0.7306428    0.6011201 -66.45  0.004690055    1.511    0.338
        76 -12.4648     76.7991     71.4519   8.7589865965e+01   5.3229067197e+01    0.2598988    0.1893311 -44.16 0.0005754285    1.278    0.218
        77 -12.1887     99.1792     61.4389   7.6843194516e+01   5.1161196538e+01    0.3715017    0.2099767 -57.63  0.001448901    2.634    0.620
        78 -13.1977    249.8967     56.8817   4.6173038547e+01   1.6300530823e+01    0.6935403    0.1219137 -38.68  0.002183284    3.947    0.747
        79 -10.9995    128.5634    206.5100   1.0234071870e+02   1.3727369682e+01    0.2867718    0.1783039 -38.32 0.0009119565    2.115    0.527
        80 -12.0522     54.9535     45.9672   8.7039586819e+01   6.1476144324e+01     0.254096    0.1761484  27.75 0.0009101242    1.512    0.339
        81 -11.2478     64.7713     41.6285   8.1505911902e+01   6.0813231134e+01    0.1728832    0.1220537  42.70 0.0005249731    1.614    0.380
        82 -11.5975    126.7636     40.0940   6.1563692063e+01   4.8585377570e+01    0.3915156     0.188516  47.91  0.001613795    1.943    0.485
        83 -10.7137    239.0037     24.9803   4.0005780864e+01   2.2957064409e+01    0.1545218    0.1293898 -72.56 0.0003122918    1.034    0.033
        84 -10.3874    140.4045    210.2100   1.0036611273e+02   1.0984668455e+01    0.1329659   0.09528917  21.57 0.0006822372    1.637    0.389
        85 -10.9478     33.6969     14.3102   8.3113560708e+01   6.9399307651e+01   0.09949248   0.09442581 -39.53 0.0003036539    1.608    0.378
        86  -7.2192     89.3640    247.4468   1.1500323401e+02   1.2258832191e+01    0.2254077    0.1666256  89.00  0.001526321    1.411    0.291
        87  -9.8437    111.6326    242.9252   1.1036445713e+02   9.7684762691e+00    0.2200675    0.1249287  38.91 0.0007417958    1.518    0.341
