#   1 NUMBER                 Running object number                                     
#   2 MAG_AUTO               Kron-like elliptical aperture magnitude                    [mag]
#   3 X_IMAGE                Object position along x                                    [pixel]
#   4 Y_IMAGE                Object position along y                                    [pixel]
#   5 X_WORLD                Barycenter position along world x axis                     [deg]
#   6 Y_WORLD                Barycenter position along world y axis                     [deg]
#   7 A_WORLD                Profile RMS along major axis (world units)                 [deg]
#   8 B_WORLD                Profile RMS along minor axis (world units)                 [deg]
#   9 THETA_WORLD            Position angle (CCW/world-x)                               [deg]
#  10 FWHM_WORLD             FWHM assuming a gaussian core                              [deg]
#  11 ELONGATION             A_IMAGE/B_IMAGE                                           
#  12 ELLIPTICITY            1 - B_IMAGE/A_IMAGE                                       
         1 -12.9622     57.6965    131.5117   1.0901663810e+02   4.1638508534e+01     2.395207    0.7635946 -74.29  0.005181219    8.583    0.883
         2 -13.7717    213.6782     29.4848   4.4047505350e+01   2.7979480632e+01     1.247896    0.8925834  48.93  0.006564344    1.568    0.362
         3 -13.7871    220.0417     23.4693   4.1834077267e+01   2.7179180119e+01     1.414573    0.7391966  34.27  0.001442528    3.523    0.716
         4 -13.4983    236.6705      6.7891   3.6392816491e+01   2.5207189794e+01    0.7471097    0.5713095 -65.53  0.002636767    1.112    0.101
         5 -10.6930     82.9191    221.3710   1.1482379693e+02   1.7972343606e+01    0.4014388    0.3243256  84.25   0.00173221    1.173    0.147
         6 -13.1750    213.9117    247.1744   9.2851584222e+01  -6.6867540356e+00    0.7506981    0.6275052  15.17  0.005305594    1.148    0.129
         7 -13.7844    222.1635    239.4223   9.0150414940e+01  -6.9544457014e+00      1.11522    0.6610371  47.18  0.006254013    2.077    0.518
         8 -12.0614    244.6721    244.7383   8.7052643238e+01  -1.0757626292e+01    0.8469439    0.3956928  -8.83  0.003943156    3.203    0.688
         9 -13.8703    236.7529    236.5265   8.7082838892e+01  -8.7188720286e+00     1.238613    0.9410208  -8.05  0.008607258    1.219    0.179
        10 -14.5678    186.2487    243.3998   9.7373495018e+01  -1.9823817438e+00     2.020988     1.023332  37.59   0.01037217    1.594    0.373
        11 -12.5770    132.1590    248.2050   1.0821890483e+02   5.8280272170e+00     1.164989    0.4625733  38.23  0.005571322    2.092    0.522
        12 -12.2175     98.6697    234.6652   1.1311113392e+02   1.3202546201e+01     1.457971     1.124442  82.04  0.009650536    1.323    0.244
        13 -13.0277    118.2884    238.4246   1.0973842779e+02   9.5738063257e+00     1.307667    0.5028833  53.27  0.005543374    2.803    0.643
        14 -13.0916    122.2740    229.4111   1.0789081420e+02   1.0509698368e+01     1.484585     0.681919  48.91  0.007156886    1.925    0.480
        15 -12.3378    112.4057    243.9501   1.1146943650e+02   9.5395911662e+00    0.9019995    0.3922788  41.80  0.004596115    1.841    0.457
        16 -11.7610     41.2443    246.5832   1.2451097358e+02   1.8668165913e+01      1.17764    0.3193177  37.33  0.005447431    3.283    0.695
        17 -13.3942     19.8770    221.1428   1.2672242129e+02   2.5729293376e+01      1.00844    0.5189762  69.68  0.004673162    1.599    0.375
        18 -15.3839     37.0164    201.5734   1.2218468952e+02   2.7854453433e+01     10.00978     3.496878  85.00   0.03298595    5.383    0.814
        19 -12.8990     27.4753    212.7215   1.2482734988e+02   2.6600946986e+01    0.3770068    0.3638312  85.40 0.0007621349    1.470    0.320
        20 -10.7919     75.3784    236.3269   1.1768587197e+02   1.6210708655e+01    0.3623678    0.3146307 -44.06  0.002322016    1.690    0.408
        21 -10.0287     70.8208    212.8414   1.1639212965e+02   2.1344296761e+01    0.2554273    0.1720541  25.25  0.001438414    1.981    0.495
        22 -12.3482    249.4455    220.7035   8.2152768695e+01  -8.6130027319e+00    0.9132471     0.219609 -37.64  0.003393601    4.543    0.780
        23 -12.0404     66.3774    225.5625   1.1844619020e+02   1.9432208902e+01    0.5768741    0.4285009  24.01  0.003085521    1.864    0.464
        24  -9.8405     57.4652    200.7828   1.1795173759e+02   2.5593979377e+01    0.4289507    0.1636974  66.73  0.001483612    4.409    0.773
        25 -12.5150    193.4055    194.8158   8.7891127506e+01   4.2347359747e+00    0.6643434    0.4207142 -62.10  0.002914283    2.813    0.645
        26 -12.1302    218.5805    188.1662   8.1657665161e+01   8.3091518199e-01    0.5287837    0.3508613  20.13  0.002762269    1.516    0.340
        27 -11.2655     56.6933    183.7372   1.1637304591e+02   2.9403062407e+01    0.3217844    0.2390448 -39.16  0.001367751    1.897    0.473
        28 -14.9118      8.8778    207.6653   1.2795195318e+02   2.9456682685e+01      1.90396    0.9593784 -79.61   0.01188261    1.662    0.398
        29 -11.4651     62.6830    177.3658   1.1428747420e+02   3.0076709169e+01    0.2590758    0.2249387 -55.15 0.0008894599    1.337    0.252
        30 -13.5668      3.6903    246.1615   1.3058846458e+02   2.2724664445e+01     1.043247    0.3620461 -87.70  0.005916152    2.583    0.613
        31  -9.6947    195.0446    168.5128   8.2304795237e+01   8.5447367635e+00    0.2225231    0.1376405  40.97  0.001026882    1.573    0.364
        32 -10.9390     73.2740    167.0783   1.1043601219e+02   3.1021223939e+01    0.2537836    0.2140093 -69.41 0.0003961696    1.147    0.128
        33 -13.1385     59.8500    163.6088   1.1323350390e+02   3.3629767124e+01    0.4930921    0.2820152 -47.63  0.001456423    2.028    0.507
        34  -9.5203    141.9377    240.8503   1.0546922922e+02   5.4552622460e+00    0.1857399    0.1488763  26.60 0.0008637123    1.262    0.208
        35 -10.6819     95.6815    145.1279   1.0108157987e+02   3.2815359576e+01     0.317091    0.2753596 -74.04  0.001058566    1.113    0.102
        36  -9.7918     98.7703    141.8099   9.9610506094e+01   3.3091154121e+01    0.3092328    0.2108661 -25.62  0.001346583    2.119    0.528
        37 -12.0022     83.6812    143.8273   1.0404014924e+02   3.5043965892e+01    0.3035741    0.2474721 -58.51  0.000457624    1.170    0.145
        38 -14.9398     16.1041    242.9564   1.2848219236e+02   2.2060631365e+01     1.759517    0.8119794  69.68   0.01019515    1.745    0.427
        39  -9.7657     78.4960    219.4972   1.1551413694e+02   1.8961748034e+01    0.2264878    0.1613014  51.54  0.001413911    1.192    0.161
        40 -10.9434    106.9355    131.9500   9.5328495710e+01   3.4011078376e+01    0.4532104    0.3825662  77.41  0.001635016    1.321    0.243
        41 -12.3023    217.6679    220.4182   8.7804311299e+01  -3.7898386580e+00    0.4597532    0.2486143  26.05  0.002379696    1.734    0.423
        42 -10.7413     94.7696    129.4397   9.8147619781e+01   3.6744402583e+01    0.2842238     0.261146 -15.02 0.0007177907    1.239    0.193
        43 -10.2716    115.0023    126.0210   9.1767465899e+01   3.3903855636e+01    0.2533964    0.1929512 -14.74  0.001142015    1.747    0.428
        44  -9.5932    105.4854    120.9224   9.3199389634e+01   3.6894964017e+01    0.2122239    0.2049159  36.54 0.0003595577    1.086    0.079
        45  -9.5414    168.0539    113.0904   7.5032810180e+01   2.5305405717e+01     0.257622    0.1996947 -80.41  0.001125822    1.761    0.432
        46  -9.6356    204.4765    110.8572   6.6859277222e+01   1.7313341130e+01     0.320585    0.1962107  33.11  0.001331532    1.979    0.495
        47 -11.8258     83.5379    231.5784   1.1571037341e+02   1.5953006363e+01    0.8307463    0.2515579  50.47  0.003039554    2.954    0.661
        48 -12.0832     80.5769    159.8536   1.0755301345e+02   3.1669547508e+01    0.6250533    0.4988607  55.47  0.001207419    1.231    0.188
        49 -10.5481     52.5173     89.7785   1.0218067669e+02   5.2327576716e+01     0.231919    0.1959695  21.59 0.0008055237    1.352    0.260
        50 -10.2591     59.3502     78.1089   9.6739833153e+01   5.4154364950e+01    0.2995888   0.09896846 -46.71  0.001097062    2.593    0.614
        51 -10.7160     13.1733     60.6209   1.0976802730e+02   6.2355384955e+01    0.2129916    0.1433205 -65.93 0.0008056063    1.357    0.263
        52 -13.5718     67.9095    144.0594   1.0830546003e+02   3.7259769764e+01     1.111968    0.6599159  84.91  0.002786025    2.259    0.557
        53 -10.1011    116.7902    212.1010   1.0679383803e+02   1.4587183136e+01     0.499676    0.3808135 -11.60  0.002683326    2.109    0.526
        54  -8.8273    179.7014    148.2776   8.1110700611e+01   1.5545215735e+01    0.1443186    0.1230973  88.65 0.0003166458    1.537    0.349
        55 -13.7705    171.9400    222.4388   9.6973394337e+01   3.4562280385e+00     1.525314    0.9478675  21.62  0.007868717    1.787    0.440
        56 -11.1104    113.6531    208.4023   1.0696106627e+02   1.5818628664e+01    0.4638202    0.4063706  34.04  0.002586793    1.216    0.177
