#   1 NUMBER                 Running object number                                     
#   2 MAG_AUTO               Kron-like elliptical aperture magnitude                    [mag]
#   3 X_IMAGE                Object position along x                                    [pixel]
#   4 Y_IMAGE                Object position along y                                    [pixel]
#   5 X_WORLD                Barycenter position along world x axis                     [deg]
#   6 Y_WORLD                Barycenter position along world y axis                     [deg]
#   7 A_WORLD                Profile RMS along major axis (world units)                 [deg]
#   8 B_WORLD                Profile RMS along minor axis (world units)                 [deg]
#   9 THETA_WORLD            Position angle (CCW/world-x)                               [deg]
#  10 FWHM_WORLD             FWHM assuming a gaussian core                              [deg]
#  11 ELONGATION             A_IMAGE/B_IMAGE                                           
#  12 ELLIPTICITY            1 - B_IMAGE/A_IMAGE                                       
         1 -12.9728    248.8512     21.9102   3.5700737082e+02   2.2387436894e+01    0.5888423    0.3632995 -29.12  0.003118539    1.851    0.460
         2 -10.9716     72.3806      7.7245   1.6996585016e+01   6.3848289996e+01    0.2682124    0.1587186  59.87 0.0008397592    1.567    0.362
         3  -9.7295      2.3309      2.3210   4.9345339184e+01   7.6147588011e+01     0.122763   0.06948731 -10.81 0.0007049047    1.695    0.410
         4  -9.2037    109.3232    246.2787   6.7090851515e+01   8.3803034893e+00    0.1236011    0.0921009   2.65 0.0002710719    1.586    0.370
         5 -11.2772     75.4590    247.6456   7.4682463277e+01   1.2654388102e+01    0.5123501    0.2255417 -59.01  0.002514543    2.587    0.613
         6 -15.9684     57.3526    232.4696   7.7354896665e+01   1.7946776923e+01     5.665374     3.370526 -30.34   0.02638872    3.004    0.667
         7 -10.1815    103.8670    237.8183   6.7318784388e+01   1.0712865126e+01    0.1944588    0.1650732  11.29 0.0005837711    1.234    0.190
         8  -9.6179     93.5601    238.4659   6.9725907257e+01   1.2018108859e+01    0.1298536    0.1097232  39.60 0.0001346117    1.012    0.012
         9 -10.8647    184.9771    236.5115   4.9578960440e+01  -5.4354983631e-01     0.191762    0.1490276 -23.14 0.0008392085    1.277    0.217
        10 -13.2087    133.3902    229.9172   5.9601611162e+01   7.9343659911e+00    0.6376752    0.3804981  18.99  0.003154316    1.739    0.425
        11 -12.8215    127.0878    229.4733   6.0965466523e+01   8.9474847510e+00    0.4695784    0.3217935  23.51  0.002561217    1.337    0.252
        12  -9.8613    216.1870    235.0146   4.3343902026e+01  -4.3366121918e+00    0.1569895   0.08117107 -34.72 0.0008641955    1.857    0.461
        13 -11.1110     72.7524    232.7205   7.3865890129e+01   1.5950498742e+01    0.3931078    0.2295474 -76.75     0.002037    2.043    0.511
        14 -11.4813     72.2647    226.2394   7.3324773606e+01   1.7358296044e+01    0.3647008    0.2110269  48.50  0.001478166    1.565    0.361
        15 -10.8699    176.9534    230.6082   5.0279109123e+01   1.4903487758e+00    0.2221111    0.1593768 -19.48  0.001011211    1.377    0.274
        16 -11.8233    119.1627    231.0699   6.2989181354e+01   9.8088366427e+00    0.3531786    0.1848437  28.80  0.001537865    1.720    0.419
        17 -12.3223    147.9621    228.2029   5.6099656066e+01   6.0907637436e+00    0.3482183    0.2381002  40.06  0.001915798    1.426    0.299
        18 -12.2889    106.9927    228.3630   6.5440373583e+01   1.2103933417e+01    0.3750127    0.2284866  35.14  0.001943508    1.407    0.289
        19 -13.4544     97.3718    225.4281   6.7323306566e+01   1.4076857676e+01    0.7490165    0.5586617  53.95  0.004242425    1.348    0.258
        20 -15.2980     10.1488    206.3319   8.6289929051e+01   2.8705252598e+01    0.9413189    0.5217164  18.23  0.002999641    2.176    0.540
        21 -11.2832    174.7081    223.0258   4.9523276952e+01   3.0618325278e+00    0.1830484    0.1543306  -9.62 0.0005719514    1.111    0.100
        22 -14.6581     42.3545    175.0928   7.5414791560e+01   3.2989981870e+01     2.013314     1.197145 -86.97  0.009489469    1.801    0.445
        23 -10.4914    131.1963    203.5549   5.6088361220e+01   1.3428667896e+01    0.2455867    0.1902682 -50.13 0.0006722798    1.415    0.293
        24 -10.4515    210.9052    198.7529   3.8065571029e+01   1.8534906343e+00    0.1929302    0.1491442  -1.55 0.0005207116    1.145    0.126
        25 -11.0215    194.5257    197.3481   4.0971545511e+01   4.5025627959e+00    0.4832459    0.2598985 -57.64  0.001896943    3.582    0.721
        26 -12.0125     68.6255    193.0579   7.0443611405e+01   2.5300120931e+01    0.4802101    0.2877876  71.05  0.001247121    2.121    0.529
        27 -11.1667     54.6260    193.8060   7.4213671428e+01   2.6936887833e+01    0.3138436    0.2013101  44.13  0.001602534    1.437    0.304
        28 -15.9917      7.5467    146.6894   8.2580166584e+01   4.3428485824e+01     8.908321     1.340139 -76.89    0.0214234    6.935    0.856
        29 -10.2494    140.6290    190.8387   5.1636000613e+01   1.4512253893e+01    0.1860407    0.1400393 -60.13 0.0001516988    1.592    0.372
        30 -11.9597    126.8363    191.2386   5.5078955005e+01   1.6748951982e+01     0.598971    0.1690984  31.22  0.001725557    3.998    0.750
        31 -12.0678    107.9174    189.7785   5.9636073851e+01   2.0191140924e+01     0.365149    0.2296944  16.29   0.00159271    1.934    0.483
        32 -10.9662     73.9165    189.7490   6.8606680985e+01   2.5361186143e+01     0.313442    0.1947112 -70.59 0.0005417169    1.731    0.422
        33 -10.1507    206.9692    190.2881   3.7232127394e+01   3.8287828413e+00    0.1807767    0.1528851   7.19 0.0003961297    1.106    0.096
        34  -9.5800     61.2703    187.4205   7.1696894276e+01   2.7634055679e+01    0.1951266    0.1194697  42.38 0.0004223919    1.524    0.344
        35 -10.2052     65.1356    185.7272   7.0437235812e+01   2.7536287172e+01    0.2319963    0.1808907 -88.77 0.0004635359    1.343    0.255
        36 -10.7643    116.1432    181.8119   5.6145069256e+01   2.0645419685e+01    0.2231229    0.2029267  64.63 0.0006326873    1.202    0.168
        37 -10.4986     99.5607    181.2244   6.0429334568e+01   2.3524339749e+01    0.2714505    0.1933412  32.71 0.0004953398    1.346    0.257
        38  -9.4505     63.4726    181.4902   7.0335841535e+01   2.8796749037e+01    0.1425523    0.1310589  65.75  1.53458e-05    1.025    0.024
        39 -10.8753     59.8682    177.9778   7.0870865403e+01   3.0141049566e+01    0.4106167    0.1960452 -72.65  0.001603385    2.287    0.563
        40 -11.3733    172.0148    175.6312   4.1493666912e+01   1.2180153761e+01    0.2604521    0.2451378 -51.97 0.0008729866    1.254    0.202
        41 -10.4784    146.8038    242.7599   5.8458406343e+01   3.7352548222e+00    0.1672647    0.1383223  43.01 0.0005073142    1.335    0.251
        42  -9.1208     96.2957    174.6279   6.0203171514e+01   2.5626088414e+01    0.1565809    0.1137431  71.22 0.0007027322    1.735    0.424
        43 -11.7754     72.9990    170.3037   6.6050034137e+01   3.0263979477e+01     1.244555    0.5303295 -75.12  0.004016112    3.585    0.721
        44 -13.6759     82.1298    145.1218   5.8898859136e+01   3.5260255170e+01      3.10586      1.29649 -46.00   0.01094136    2.521    0.603
        45 -12.8123     79.6109    137.5907   5.8162460014e+01   3.7580990356e+01    0.9438372    0.4385627  43.90 0.0006652402    2.256    0.557
        46 -14.6552     57.4047    129.0143   6.3751401164e+01   4.3069675332e+01     2.178664     1.272253 -72.49   0.00683422    1.921    0.479
        47 -12.3718     59.4851    161.7944   6.8702225516e+01   3.4287565825e+01    0.4555351    0.3070518 -27.62  0.001874819    1.954    0.488
        48 -13.5836     64.6343    155.6563   6.6187127405e+01   3.5172415151e+01    0.9217365    0.6381279 -52.45  0.004447618    1.432    0.302
        49 -13.9272     61.3763    145.8369   6.5542669268e+01   3.8160683443e+01    0.8315212    0.6694288  -5.97  0.001404012    1.488    0.328
        50 -11.1518    179.4512    165.9607   3.7920289625e+01   1.2756274673e+01    0.4069522    0.2982858 -68.64  0.001911685    2.094    0.522
        51 -10.9154    110.5578    167.1971   5.4947257697e+01   2.5008487065e+01    0.2861978    0.2604938  62.47 0.0004610707    1.173    0.147
        52 -10.2316    101.7095    166.9629   5.7339936499e+01   2.6583012928e+01    0.2114564    0.1914237 -57.43 0.0003960571    1.138    0.121
        53 -10.0559    163.2311    164.1871   4.1104762019e+01   1.6054333774e+01    0.2170271    0.1893922 -11.05 0.0004781586    1.124    0.110
        54 -10.9430    236.4895    163.0197   2.6810358068e+01   3.9328948715e+00    0.1959366    0.1062332 -35.80 0.0006183084    1.549    0.354
        55  -9.6978    128.9486    162.0642   4.9022661925e+01   2.2895947203e+01    0.1827811    0.1716645 -37.87 0.0005644661    1.082    0.076
        56 -10.1167     84.9232    157.7705   6.0461335070e+01   3.1612509193e+01    0.2161763    0.2022106 -17.62 0.0005375763    1.143    0.125
        57 -16.4546     25.9050    176.8795   8.0139177232e+01   3.4260353640e+01     6.363887     2.520427  73.60   0.02124419    4.010    0.751
        58 -10.2811    125.9058    156.2191   4.8603783228e+01   2.4806008800e+01    0.3318299     0.224316 -69.63 0.0009445051    1.990    0.498
        59 -10.3930     92.7448    155.8188   5.7796854136e+01   3.0826359216e+01    0.2946741    0.2106477 -81.29  0.001306121    1.765    0.433
        60  -9.4501    110.1792    154.4375   5.2522717311e+01   2.8128231755e+01    0.2014718    0.1431613  47.60 0.0003387626    1.455    0.313
        61 -11.4943    133.3204    144.9778   4.4190088592e+01   2.5958240822e+01     1.131548    0.3354388 -53.55   0.00298835    4.449    0.775
        62  -9.5391    122.2772    148.6614   4.7951219012e+01   2.7251154135e+01    0.1544146    0.1249186  84.09 0.0002150162    1.615    0.381
        63 -10.2035    113.9784    146.5049   4.9771295614e+01   2.9331457469e+01    0.2771456    0.2170292 -72.85 0.0006057232    1.530    0.347
        64 -11.2671    108.9729    145.3713   5.0943823721e+01   3.0536220171e+01      0.29967    0.2798551  33.42 0.0006333727    1.060    0.057
        65 -14.4224     69.1771    144.1729   6.2769537032e+01   3.7491643322e+01     2.695813     1.302425  68.03  0.006600027    6.424    0.844
        66 -11.4906     37.3358    142.8338   7.2775738528e+01   4.1847475717e+01    0.4410684    0.3005213  71.43   0.00152582    1.663    0.399
        67  -9.5989     39.0361    138.7176   7.1611454380e+01   4.2744552063e+01    0.1947362    0.1472219  29.80 0.0004577528    1.398    0.285
        68 -10.3133    100.8482    143.4639   5.2893590606e+01   3.2483029464e+01    0.2457319    0.2097018 -69.00 0.0003998803    1.263    0.208
        69  -9.9905     77.8362    176.0932   6.5571478340e+01   2.8120559767e+01    0.2086298    0.1847353  70.98 -0.000430966    1.146    0.127
        70 -11.7692     98.2359    133.9885   5.1575896648e+01   3.5285275614e+01    0.6236195    0.3892764   1.70  0.002197615    2.903    0.655
        71  -9.8800     28.6847    135.9354   7.4625536237e+01   4.4509508210e+01    0.2384186    0.1939389  -4.16  0.001316629    1.441    0.306
        72  -9.6401    113.9987    134.6675   4.7084016611e+01   3.2147859746e+01    0.2150324     0.201254  29.58 0.0004426825    1.063    0.059
        73 -12.4935     84.9700    132.5119   5.5371928748e+01   3.7983417997e+01    0.3165293    0.2967564 -64.47 0.0003890591    1.080    0.074
        74 -10.2441    123.6519    131.4568   4.3614214046e+01   3.0984517932e+01    0.4477718    0.2593893 -77.38  0.001247471    4.703    0.787
        75 -11.2743    105.5303    130.7084   4.8619214481e+01   3.4724253745e+01    0.4271314    0.3585738 -33.83  0.001065148    1.232    0.188
        76 -10.1569    108.7530    126.4487   4.6638793422e+01   3.5120938292e+01    0.2864478    0.1586629  32.63  0.001106642    1.930    0.482
        77 -10.8993     74.6774    131.2313   5.8420305807e+01   3.9984905559e+01    0.2853022    0.2283154  73.16 0.0003035653    1.487    0.327
        78 -11.4599     44.0893    130.7007   6.8613961304e+01   4.4283552508e+01    0.3013723    0.2013854 -57.00  0.001462732    1.380    0.275
        79 -11.7752     35.1505    125.1716   7.0773546928e+01   4.6693684377e+01    0.5960966    0.2327326  48.32  0.001952836    3.322    0.699
        80 -15.4444      6.5675    187.2879   8.5984225400e+01   3.3433954939e+01     2.327344     1.267911  69.88   0.01213866    1.735    0.424
        81 -11.6323     95.4201    121.7102   4.9539444256e+01   3.8800736515e+01    0.3442728    0.2733218  11.04 0.0007897458    1.455    0.313
        82 -11.6651     44.8247    121.4542   6.6684240303e+01   4.6606912746e+01    0.3355803    0.2220542  62.19  0.001134775    1.896    0.473
        83 -10.3543     88.8241    149.1875   5.7665073607e+01   3.3138359687e+01    0.2253341    0.2030291  68.89  0.000454179    1.181    0.153
        84 -11.1176     27.8928    118.8495   7.2314897703e+01   4.9035643487e+01    0.2607258    0.2093297  38.51 0.0006015695    1.352    0.260
        85 -11.2436     43.5076    115.5064   6.6006853304e+01   4.8295660581e+01    0.2514992     0.178531 -53.71  0.000970251    1.293    0.226
        86 -10.1375    105.8294    116.1793   4.4926998995e+01   3.8114952348e+01     0.221033    0.2128299  87.87 0.0002877339    1.116    0.104
        87 -10.8320     35.5118    107.6053   6.7432561248e+01   5.1191584656e+01    0.3708147    0.1912697  43.85 0.0005566251    2.238    0.553
        88 -12.3905     31.4641    109.5377   6.9353409075e+01   5.1102014829e+01    0.5702456    0.2670639  44.62   0.00197106    2.530    0.605
        89 -11.7952     24.1756    104.9033   7.1301048179e+01   5.2943641241e+01    0.3461559     0.307573  36.32  0.001068369    1.252    0.202
        90 -10.7857    133.1940    103.7822   3.3907487480e+01   3.5055319462e+01    0.5132231     0.290168 -68.32  0.001622801    3.600    0.722
        91 -10.7628     20.1386    108.6873   7.3513847777e+01   5.2307740932e+01    0.2122099    0.1612499  48.25   0.00115942    1.490    0.329
        92  -9.6694     44.5045    102.4253   6.2845794814e+01   5.1499470173e+01    0.1430056    0.1340736 -40.13 0.0002226798    1.017    0.017
        93 -11.8056     15.2763     98.4131   7.3665468254e+01   5.5271326995e+01    0.2782232    0.2290622 -57.81    0.0011735    1.057    0.054
        94 -12.7178     74.0954    150.3828   6.2376243793e+01   3.5165187272e+01    0.5591156    0.4480228 -63.26 0.0006561717    1.240    0.193
        95 -10.4746    104.7024     93.5875   3.9014646637e+01   4.3414645365e+01    0.4367708    0.2775832  77.68  0.001228707    3.333    0.700
        96 -12.8258     38.7344     90.5034   6.2343596577e+01   5.5103020572e+01     0.400581    0.2729099  44.61 0.0008571124    1.711    0.415
        97  -9.9497     89.9476     87.2448   4.1846128969e+01   4.7788112380e+01     0.224969    0.2040759  69.17 0.0006448823    1.273    0.214
        98  -9.6107     75.5661     89.4502   4.7556227864e+01   4.9997183713e+01    0.1478796    0.1439278 -10.87  9.11542e-05    1.048    0.046
        99 -12.0518     43.4643     89.4818   6.0125091746e+01   5.4796491752e+01    0.3776141    0.2440501  59.90  0.001416089    2.282    0.562
       100  -9.4563    117.5257     80.4945   3.1312729132e+01   4.3256777366e+01    0.1510187    0.1476634  53.85 8.711201e-05    1.032    0.031
       101 -10.1208     60.4242     77.2477   4.9633955754e+01   5.5238127392e+01    0.1934376    0.1400715 -58.39 0.0007266187    1.559    0.359
       102 -11.1101     30.8696     72.1463   6.0946884584e+01   6.0264226072e+01    0.2534965    0.1845207  41.04  0.001357972    1.620    0.383
       103  -9.9352     84.6974     73.3036   3.9185018451e+01   5.1710791789e+01    0.1430651    0.1209915  84.96 0.0002148142    1.594    0.372
       104 -10.4532     19.8222     66.8364   6.4717414948e+01   6.2502886285e+01    0.1656468    0.1572445  55.44 0.0004362722    1.315    0.239
       105 -16.2289      3.3879    239.1179   8.9360926826e+01   2.2313059436e+01     1.608287    0.8647731  67.66  0.009765417    1.574    0.365
       106 -12.2778    199.8909     61.0089   9.8992086972e+00   2.7302089321e+01    0.4178962    0.3301039  52.03  0.001020029    1.437    0.304
       107 -13.4823    210.5565     53.8994   6.9526439680e+00   2.6006048947e+01     0.815257    0.7551975 -73.57  0.003069288    1.121    0.108
       108 -14.0967    222.9807     45.2908   3.7533834956e+00   2.4573439475e+01     0.754164    0.6697527  43.42  0.002864144    1.504    0.335
       109  -9.8195     46.6829     50.9943   4.6432987762e+01   6.2687361712e+01    0.1919671    0.1702854 -23.99   0.00115163    1.122    0.109
       110 -11.1966     15.2580     50.1532   6.2113125213e+01   6.6504953494e+01    0.2445196    0.1594396   8.52 0.0008952564    1.546    0.353
       111 -10.0063    108.6736     38.6741   1.9646347258e+01   5.2135874369e+01    0.1485862    0.1012126  28.63 0.0007049647    1.696    0.410
       112 -11.1121     12.9893     30.3675   5.6115653962e+01   7.0571366528e+01     0.238268    0.1648979  33.93   0.00127464    1.733    0.423
       113 -12.1834    249.2097     26.4104   3.5783951757e+02   2.1807793554e+01      0.35257    0.1840644 -51.13  0.001974182    1.483    0.325
       114 -10.7095    150.8450    248.9555   5.8452510140e+01   2.1543377977e+00    0.1976247    0.1508668   1.93  0.001130939    1.279    0.218
       115 -17.0748      6.0995    218.3717   8.7851494163e+01   2.6396720356e+01     3.284447     1.708141  52.20   0.01684764    1.594    0.373
       116 -10.1996     60.7147     21.1882   2.7337903517e+01   6.4873193517e+01    0.2180957    0.1638844  50.77 0.0007200978    1.364    0.267
       117 -10.6137     31.5497     18.8303   3.9681363616e+01   7.0228145307e+01    0.2843265    0.1629903  49.95  0.001388573    2.600    0.615
       118 -11.0773    138.0190    246.9849   6.0918780757e+01   4.2562538867e+00    0.1950372    0.1614458  24.25 0.0004266515    1.028    0.027
