#   1 NUMBER                 Running object number                                     
#   2 MAG_AUTO               Kron-like elliptical aperture magnitude                    [mag]
#   3 X_IMAGE                Object position along x                                    [pixel]
#   4 Y_IMAGE                Object position along y                                    [pixel]
#   5 X_WORLD                Barycenter position along world x axis                     [deg]
#   6 Y_WORLD                Barycenter position along world y axis                     [deg]
#   7 A_WORLD                Profile RMS along major axis (world units)                 [deg]
#   8 B_WORLD                Profile RMS along minor axis (world units)                 [deg]
#   9 THETA_WORLD            Position angle (CCW/world-x)                               [deg]
#  10 FWHM_WORLD             FWHM assuming a gaussian core                              [deg]
#  11 ELONGATION             A_IMAGE/B_IMAGE                                           
#  12 ELLIPTICITY            1 - B_IMAGE/A_IMAGE                                       
         1 -14.6488     68.3641    144.2834   1.0140182488e+02   3.7408766510e+01     5.134916      2.63476  69.23  0.007007889    3.863    0.741
         2 -14.3662    214.9478     28.1109   3.7989206147e+01   2.8584677616e+01     1.151083    0.8938219  37.88  0.006723894    1.747    0.428
         3 -14.5113    202.8745     40.0354   4.2211059617e+01   2.9837156031e+01     1.945244     1.430839  33.94  0.007288242    1.854    0.461
         4 -11.5382    217.6697     11.4279   3.3934085496e+01   2.9888326365e+01    0.4167555    0.2200203  48.36  0.002080024    2.505    0.601
         5 -13.1717    240.2899      4.2004   3.0715308742e+01   2.5835475178e+01     0.777772    0.4326059  81.01   0.00464331    1.658    0.397
         6 -11.0617     56.1419      5.7680   6.1799122303e+01   6.6833447853e+01    0.2636488    0.1936721  48.77  0.001054939    1.496    0.332
         7 -11.9790    193.4305    195.5318   8.0402899610e+01   4.1322091055e+00    0.9116667    0.5127566 -64.21  0.003095529    4.611    0.783
         8 -13.5409      7.1792    188.6974   1.2212047659e+02   3.3246279419e+01    0.9476027    0.4014852 -60.90  0.004806903    2.251    0.556
         9 -16.6238     42.0911    193.2983   1.1475353428e+02   2.8727623720e+01     11.93117     3.555952  48.51   0.04581071    3.231    0.690
        10  -9.7025     79.5137    182.7977   1.0456061280e+02   2.6339473654e+01    0.2745185    0.1890478 -75.32  0.001001833    1.473    0.321
        11  -9.7794     99.2609    180.9163   9.9367253782e+01   2.3740524110e+01    0.2329541    0.2032067  37.38 0.0006913118    1.167    0.143
        12 -16.4065     23.6869    249.3960   1.2259719473e+02   1.8995227266e+01     5.049732     1.280034  29.61   0.01072935    5.703    0.825
        13 -10.5919    189.1861    177.3764   7.7695843729e+01   8.2500118058e+00     0.476372    0.2545416 -57.08  0.001830643    2.815    0.645
        14 -12.8422     79.6428    160.5614   1.0108542947e+02   3.1719356493e+01       1.0122    0.4856682  52.07 0.0004728604    2.431    0.589
        15 -13.5834     67.4141    156.0738   1.0366166160e+02   3.4582100008e+01    0.6247763    0.4550609 -52.62  0.001610859    1.348    0.258
        16 -15.8844      3.6260    246.9737   1.2595669664e+02   2.1479939573e+01     1.627843    0.7201345 -69.48  0.008028117    2.258    0.557
        17  -8.6975    120.2675    194.5773   9.6495616574e+01   1.7148307394e+01     0.147532    0.1072461  79.60 0.0006862574    1.793    0.442
        18 -12.2610     65.7469    174.6771   1.0687085680e+02   3.0219959019e+01    0.4652402    0.3092283 -42.10  0.002311329    1.813    0.449
        19  -9.3746    136.1851    165.1936   8.7269700045e+01   2.0860439684e+01    0.2099692    0.1765223  66.30 0.0006091594    1.341    0.255
        20 -11.2192     33.0415    156.2582   1.1295801372e+02   3.8584298360e+01    0.3359035    0.3025282  89.61  0.000925705    1.077    0.072
        21 -12.2064     86.8598    153.9525   9.7965188338e+01   3.2250858865e+01    0.6341767    0.4598058 -20.50  0.002930738    1.929    0.482
        22  -9.3917    154.0626    154.8390   8.0735199905e+01   1.9680989018e+01    0.2232528     0.206991 -87.78  0.000411694    1.222    0.181
        23 -11.0166    134.0000    146.0013   8.3712330346e+01   2.5689806963e+01    0.8581575    0.2149425 -51.39  0.002232256    4.374    0.771
        24 -10.5210    133.0000    140.4947   8.2713198734e+01   2.7163689130e+01    0.5781674    0.2020792 -51.62  0.001796111    3.019    0.669
        25 -11.9214     54.6036    146.8450   1.0574957312e+02   3.8554531987e+01    0.7100335    0.6225713 -65.79  0.004167761    1.059    0.056
        26 -12.1766     70.6187    169.5896   1.0489476891e+02   3.0794924123e+01    0.4619326    0.2793628 -49.02  0.001166127    1.746    0.427
        27 -10.6929    174.5896    148.5501   7.4609680164e+01   1.6864062703e+01    0.3875793    0.2812056 -59.35  0.001144469    1.625    0.385
        28  -9.5744     35.8990    145.1412   1.1075918030e+02   4.1060503071e+01    0.1759733     0.147064 -45.33 0.0005462674    1.292    0.226
        29 -10.8685     28.8864    144.3277   1.1260344473e+02   4.1938589592e+01    0.3003993    0.2418061  65.92  0.001816937    1.276    0.216
        30 -10.2148    198.5296    140.3244   6.7709019864e+01   1.3646312210e+01    0.2976045    0.2286582 -61.95 0.0009389655    1.579    0.367
        31 -10.9279    101.0470    139.5485   9.1141370862e+01   3.3443754860e+01    0.5521752    0.3704371 -16.84  0.002232255    2.335    0.572
        32 -12.3657     88.3726    139.2192   9.4676358734e+01   3.5668846811e+01    0.2996797    0.2594188 -48.51 0.0004576924    1.129    0.114
        33 -10.7411     80.0013    140.2278   9.7292313364e+01   3.6735125487e+01    0.2972052    0.2299891  70.61 0.0006415054    1.489    0.328
        34 -11.1439     25.3042    137.3077   1.1270256513e+02   4.4003102375e+01    0.4065058    0.1683791  37.42  0.001827041    2.553    0.608
        35 -10.5315    106.0460    130.9169   8.7795929824e+01   3.4644633710e+01    0.3939632     0.346601 -52.20  0.002029088    1.099    0.090
        36 -10.1461    110.9058    130.0172   8.6213388461e+01   3.3955227259e+01    0.3374753    0.2483749  -9.22  0.001460708    1.904    0.475
        37 -11.1787    135.8255    128.1272   7.9022332792e+01   2.9425507900e+01    0.5411709    0.2125825 -50.14  0.001780788    2.631    0.620
        38 -10.1391    160.9048    127.6198   7.2734581050e+01   2.4181490706e+01    0.3246654      0.23021 -51.09   0.00132249    1.443    0.307
        39 -11.1814     97.8796    126.1087   8.9030710501e+01   3.7281590294e+01    0.3256539      0.26142 -18.68  0.001033186    1.479    0.324
        40 -10.2879    116.8631    124.2562   8.3154954997e+01   3.4172066361e+01    0.3008266    0.1996641 -23.40  0.001115247    2.042    0.510
        41 -10.5498    147.0129    172.9148   8.6207683542e+01   1.7090006017e+01    0.5343897    0.3188005 -72.86  0.001930771    3.081    0.675
        42 -15.6813      4.9667    163.0749   1.2072077698e+02   3.9360755295e+01     7.056644    0.7697914 -72.83   0.02035337    5.579    0.821
        43  -9.8383    107.1482    118.9993   8.4603573268e+01   3.7286703750e+01    0.2188936    0.2130695 -30.49 0.0004033027    1.021    0.021
        44  -9.5952     85.4139    119.3029   9.1170828828e+01   4.1061568069e+01    0.2484283    0.1769949  58.85 0.0005925765    1.708    0.415
        45 -10.5465     39.9771    113.6439   1.0446580261e+02   4.8510958039e+01    0.2370681    0.1795397  84.72 0.0005962388    1.524    0.344
        46  -9.2713    167.8329    112.9824   6.7448463100e+01   2.5711802103e+01    0.2642281    0.1783416 -67.42  0.001076633    2.042    0.510
        47 -10.2002    205.4941    110.2316   5.9270669015e+01   1.7917316413e+01    0.2910844     0.234216  40.62 0.0009126556    1.369    0.269
        48  -9.9394    115.4169    108.8744   7.9590631401e+01   3.8009140194e+01    0.3054389    0.2106442  -1.20  0.001207441    2.289    0.563
        49 -11.0007     33.1341    108.0202   1.0567030566e+02   5.0555575320e+01    0.3183475    0.2270483 -62.62  0.001774667    1.201    0.167
        50 -11.6054    248.0162    102.5055   5.0897751739e+01   1.0686884609e+01    0.3347808    0.1589711 -48.84  0.001500956    1.998    0.500
        51  -9.2228    137.5284    104.5392   7.2414166981e+01   3.4269286140e+01    0.2254507    0.1539328  58.74 0.0001408883    1.677    0.404
        52 -10.6705     41.9330    103.5710   1.0180209379e+02   5.0772337741e+01     0.300998    0.2246179  60.76 0.0009428606    1.679    0.404
        53 -10.0446    134.5111    105.5425   7.3470633843e+01   3.4717899390e+01    0.3363239    0.1529606 -43.46  0.001209363    2.160    0.537
        54 -10.9350     36.3312    101.1016   1.0321928196e+02   5.1932643219e+01    0.2886316    0.2235333 -79.97 0.0008574886    1.383    0.277
        55 -10.2344     52.8318     90.8732   9.5006318772e+01   5.2546531426e+01    0.2216283    0.1731741 -35.58 0.0005963517    1.191    0.160
        56  -9.4055     17.2383     90.1715   1.0781947034e+02   5.6114237715e+01     0.164945     0.139054 -89.25 0.0003954995    1.327    0.246
        57  -9.9882    159.1029     82.6834   6.1128620120e+01   3.3634590255e+01    0.2162105    0.1979585  47.21 0.0006804977    1.107    0.097
        58  -9.3230    151.0757     82.8796   6.2967971013e+01   3.5496345996e+01    0.2279448     0.200205 -78.01 0.0004736781    1.269    0.212
        59  -8.7953     69.3493     81.6604   8.6526083528e+01   5.2343877215e+01    0.1416207    0.1148978  81.31 -7.880588e-05    1.793    0.442
        60  -9.3369    110.0370     79.8254   7.2700474155e+01   4.5310122324e+01    0.2232265    0.2026333  75.32 0.0007875595    1.293    0.226
        61  -8.9224    184.4975     77.4515   5.4683286104e+01   2.8526301527e+01    0.1431171     0.142232 -30.21 8.580116e-05    1.084    0.078
        62 -10.3114     51.9128     64.4269   8.7717566676e+01   5.8429970502e+01    0.3256906    0.2176819  49.81  0.001639907    2.071    0.517
        63 -15.4148     20.2770    221.3432   1.2158268232e+02   2.4909556557e+01     1.532199     1.103639 -77.87  0.007305332    1.326    0.246
        64 -10.6243     13.4385     59.8868   1.0251262121e+02   6.3148004114e+01    0.2448734    0.1876429 -54.83 0.0004012724    1.183    0.155
        65  -9.5775     78.0312     57.7725   7.5600496863e+01   5.5683211719e+01    0.3613259    0.1834758  48.05  0.001538633    2.283    0.562
        66 -15.8219      9.5204    207.6176   1.2285205793e+02   2.8860557943e+01     1.983913     1.060722 -68.12   0.01025215    1.753    0.430
        67 -12.7733    193.2964     46.6052   4.5134308161e+01   3.1199538240e+01    0.6661243    0.5578434  54.77 0.0009757515    1.270    0.213
        68 -14.4520     56.9120    238.9463   1.1569220607e+02   1.7151629101e+01    0.7907053    0.5983921  78.86   0.00223266    1.187    0.158
        69 -10.9992    138.2720     44.1577   5.3923967529e+01   4.4891432663e+01      0.36199    0.2685228 -83.55 0.0004115437    1.732    0.422
        70  -9.9253    138.9082     37.0476   5.1494970360e+01   4.5686309597e+01    0.2045099    0.1898943  70.70 0.0003467018    1.059    0.056
        71  -8.5770     60.9981     49.0000   7.8705473673e+01   6.0059305582e+01    0.2104824   0.07324602  37.34 0.0007999656    2.925    0.658
        72 -10.7813      2.6889     25.1509   9.6856362536e+01   7.0587338060e+01    0.2990973    0.1851682  22.80  0.001816388    1.845    0.458
        73 -10.5026    198.0431     23.7579   3.8738540087e+01   3.2981103074e+01    0.2563187    0.1969461 -16.66  0.001021292    1.656    0.396
        74  -9.3817    189.5202     14.9743   3.7474722999e+01   3.5956942883e+01    0.1797806    0.1234568 -34.41  0.000691225    1.544    0.352
        75  -9.6560    149.8203    187.8558   8.8425956059e+01   1.3379479194e+01    0.1984173    0.1745471  76.88 0.0005551617    1.357    0.263
        76 -10.8675    107.7359    204.0438   1.0087415217e+02   1.7158350254e+01    0.2479639    0.2043689  60.20 0.0004277375    1.179    0.152
