#   1 NUMBER                 Running object number                                     
#   2 MAG_AUTO               Kron-like elliptical aperture magnitude                    [mag]
#   3 X_IMAGE                Object position along x                                    [pixel]
#   4 Y_IMAGE                Object position along y                                    [pixel]
#   5 X_WORLD                Barycenter position along world x axis                     [deg]
#   6 Y_WORLD                Barycenter position along world y axis                     [deg]
#   7 A_WORLD                Profile RMS along major axis (world units)                 [deg]
#   8 B_WORLD                Profile RMS along minor axis (world units)                 [deg]
#   9 THETA_WORLD            Position angle (CCW/world-x)                               [deg]
#  10 FWHM_WORLD             FWHM assuming a gaussian core                              [deg]
#  11 ELONGATION             A_IMAGE/B_IMAGE                                           
#  12 ELLIPTICITY            1 - B_IMAGE/A_IMAGE                                       
         1 -15.5124     15.0330    115.8985   2.9245629808e+02   6.3571686606e+00   0.08412378   0.05682201 -59.67  0.008193887    1.498    0.332
         2 -16.4998    187.5977     86.6577   2.9025212123e+02   5.6169470243e+00    0.1324543    0.0695743 -36.33   0.01045993    2.356    0.576
         3 -14.9945    170.1625     37.9280   2.9014908342e+02   6.2788405318e+00   0.05279692   0.04655132 -11.66  0.005225355    1.196    0.164
         4 -15.6020    179.2214      9.7168   2.8986514620e+02   6.5422692449e+00   0.09301753   0.05011578  31.64  0.007286214    1.779    0.438
         5 -14.5046    247.4344      5.1427   2.8903872350e+02   6.1674952971e+00   0.03921117   0.03199927  78.94  0.003693324    1.435    0.303
         6 -13.0906    247.0289    225.2070   2.9042902565e+02   3.6727485745e+00   0.05949608   0.03167621  69.14   0.00424573    3.857    0.741
         7 -13.1150    247.2958    247.3298   2.9056470231e+02   3.4198663953e+00   0.03258814   0.02425074  79.05  0.003428826    1.697    0.411
         8 -16.0625    233.8791    155.0488   2.9014173090e+02   4.5515143970e+00    0.1685571   0.09705132 -72.26   0.01557229    2.082    0.520
         9 -15.0157    202.3668    244.9906   2.9107412026e+02   3.7261870989e+00    0.0567605   0.04966424 -80.66  0.005330645    1.241    0.194
        10 -16.8849    213.4516    213.8823   2.9074970610e+02   4.0105924456e+00    0.1788376   0.08198861 -61.70    0.0153741    2.245    0.555
        11 -15.2955    218.0318    175.5112   2.9045534273e+02   4.4179517287e+00     0.057434   0.05279816  72.43  0.004948016    1.170    0.145
        12 -14.1326    180.4059    247.6703   2.9134722353e+02   3.8323841874e+00   0.04993938   0.02857481  44.36  0.004138314    1.816    0.449
        13 -13.5702    166.1090    240.6495   2.9147017914e+02   4.0010946172e+00   0.06200672   0.02860591 -59.32  0.004718971    2.160    0.537
        14 -14.8088    152.8200    246.2565   2.9166045948e+02   4.0199878472e+00   0.04759609   0.03795722   8.37  0.003957784    1.340    0.254
        15 -13.3818    141.5909    241.3920   2.9176116761e+02   4.1450751584e+00   0.03538403   0.01921161  40.96  0.003198481    1.837    0.456
        16 -18.8307     77.2545    242.3653   2.9251898157e+02   4.5333690981e+00    0.3357817    0.2135508  34.91   0.02885934    1.520    0.342
        17 -12.8297    238.9868    222.2330   2.9050415894e+02   3.7566394236e+00   0.02587303   0.02060653  62.10  0.002888791    1.420    0.296
        18 -18.7680     61.5482     96.3518   2.9178866840e+02   6.2911987507e+00     0.764443   0.05285231 -61.16   0.02619688   14.081    0.929
        19 -11.6228     29.4199    216.5412   2.9291704755e+02   5.1234109581e+00   0.01193048   0.00812759 -23.21  0.001179633    1.809    0.447
        20 -11.6560      9.8239    214.1017   2.9313103782e+02   5.2723619974e+00   0.01727834   0.01166259 -66.09  0.001786637    1.567    0.362
        21 -11.9230    140.1905    213.6092   2.9160360549e+02   4.4696301714e+00   0.01894899   0.01490244  51.78  0.002114818    1.353    0.261
        22 -11.5630     88.5763    212.9822   2.9220300719e+02   4.7973288079e+00   0.01250794  0.009347201   2.27  0.001023487    1.531    0.347
        23 -14.2170     20.5472    163.4781   2.9268942824e+02   5.7819473454e+00   0.09957736   0.06163228 -86.97  0.009046657    2.322    0.569
        24 -15.0031     17.4157    145.2225   2.9261192997e+02   6.0089611932e+00   0.07710929   0.05217242 -86.90  0.007563237    1.935    0.483
        25 -13.5036      2.3677    178.8175   2.9299810042e+02   5.7198695652e+00   0.03483035   0.01929983 -58.10  0.002895903    1.795    0.443
        26 -14.4444      6.1540    165.1195   2.9286821240e+02   5.8522909264e+00   0.05024102   0.03738545 -27.99  0.004003621    1.511    0.338
        27 -14.0841     13.9743    177.7449   2.9285553902e+02   5.6603155709e+00   0.04263433   0.02379012 -43.12  0.003471372    1.912    0.477
        28 -15.0754     14.9026    188.7112   2.9291316518e+02   5.5298213216e+00   0.06485289    0.0454938  29.29   0.00578913    1.391    0.281
        29 -13.5889     11.2927    202.7525   2.9304305479e+02   5.3924011131e+00   0.05351754    0.0386038 -52.95  0.005807155    1.385    0.278
        30 -12.9014     20.4404    205.3660   2.9295234096e+02   5.3060985157e+00   0.02061152   0.01251512 -59.62   0.00150709    1.660    0.398
        31 -14.1477     80.3992    198.0328   2.9220512440e+02   5.0180843557e+00   0.04695815   0.02585888 -58.70  0.003457923    1.814    0.449
        32 -12.8670    175.3371    196.3331   2.9108467234e+02   4.4473607608e+00   0.02388304    0.0174766  51.21  0.001906298    1.473    0.321
        33 -10.7741    160.3365    195.6567   2.9125568967e+02   4.5484104995e+00  0.007188626  0.004995721  62.40 0.0007049816    1.767    0.434
        34 -15.0302      3.5209    196.5791   2.9309547058e+02   5.5106757657e+00   0.07388568    0.0252104 -55.80  0.005676391    2.744    0.636
        35 -12.9695     90.4087    190.2171   2.9203914239e+02   5.0448609239e+00    0.0237128   0.01826042  32.03  0.001741496    1.266    0.210
        36 -15.2745    118.1069    179.5200   2.9164819286e+02   4.9944747518e+00   0.08659348   0.06776697  58.98   0.00765604    1.429    0.300
        37 -14.1005    117.6815    168.3191   2.9158295780e+02   5.1244695851e+00    0.0408732   0.01690537 -55.85  0.003259024    2.326    0.570
        38 -13.1336     46.2763    183.7784   2.9251518552e+02   5.3917493283e+00   0.02273439     0.018161   0.47  0.001649515    1.381    0.276
        39 -12.8205     51.7773    175.9542   2.9240187627e+02   5.4466637747e+00   0.02394386   0.01850616 -47.34  0.002395186    1.305    0.234
        40 -13.4368     51.5950    167.3958   2.9235046393e+02   5.5451372829e+00    0.0312998   0.02325136 -46.60  0.002187422    1.362    0.266
        41 -13.5747    200.5134    175.1773   2.9065781212e+02   4.5309474672e+00   0.02964805   0.02259322  41.91  0.002003632    1.315    0.240
        42 -13.9204    100.8843    165.1558   2.9175962475e+02   5.2648036541e+00   0.03315361   0.02846926  67.16  0.003142579    1.289    0.224
        43 -11.5648    204.9446    161.4896   2.9052007476e+02   4.6588315427e+00   0.01050491  0.006465117  28.34  0.001011415    1.590    0.371
        44 -12.1300     80.5838    160.2893   2.9196667634e+02   5.4461810358e+00   0.01684012    0.0114702 -39.38  0.001363808    1.569    0.362
        45 -11.8478     95.4906    155.3929   2.9176154250e+02   5.4093118881e+00   0.01405627    0.0108304 -15.40 0.0008389588    1.497    0.332
        46 -12.6908     76.0865    154.2052   2.9198119575e+02   5.5432752529e+00   0.02010744   0.01623168 -25.69  0.001660938    1.349    0.259
        47 -12.2950      1.7866    146.1763   2.9280095778e+02   6.0947596926e+00   0.02089676  0.008719919 -54.42  0.001744031    2.299    0.565
        48 -13.7679    128.6499    142.9157   2.9129529057e+02   5.3450592497e+00    0.0153168   0.01496408 -28.60  0.001750038    1.028    0.028
        49 -13.5822     25.4309    133.8033   2.9244658197e+02   6.0892281098e+00    0.0439358   0.02681378 -80.63  0.004057392    2.181    0.542
        50 -12.1683    106.2897    139.0432   2.9153262734e+02   5.5281047040e+00   0.00927847  0.008807801 -64.16  0.000433876    1.083    0.077
        51 -16.3115    152.9957    125.1968   2.9089921321e+02   5.3949007990e+00   0.08275802   0.06622501  63.90  0.006343213    1.422    0.297
        52 -14.8833    146.3663    110.6028   2.9088503865e+02   5.6020044612e+00   0.03719525   0.03064981 -65.86  0.002842085    1.263    0.208
        53 -14.3436    125.2031    127.3339   2.9123779242e+02   5.5436030702e+00    0.0277084   0.01492097  32.06  0.001892838    1.778    0.438
        54 -12.5283     13.6990    248.1608   2.9329800579e+02   4.8609245135e+00   0.01495936   0.01221266 -60.72 0.0008526903    1.248    0.199
        55 -14.0891    212.6040    103.4236   2.9006538725e+02   5.2705181258e+00   0.02742648    0.0185092  52.07  0.002528433    1.649    0.393
        56 -14.0260      2.8338    102.4737   2.9251520170e+02   6.5852440056e+00    0.0525464   0.01382329 -61.86   0.00338964    3.981    0.749
        57 -12.6268    149.5137     97.4501   2.9076550970e+02   5.7318208276e+00   0.01462122   0.01173892 -25.91  0.001350984    1.360    0.264
        58 -10.9676     14.2602    243.6711   2.9326347751e+02   4.9085319473e+00  0.008325573  0.006920833 -88.38 0.0004037739    1.366    0.268
        59 -14.4708    187.6364     70.2029   2.9014804055e+02   5.8035074638e+00    0.0383242   0.03092568 -61.97  0.003647801    1.271    0.213
        60 -13.4673    207.2880     92.7310   2.9006018449e+02   5.4250996433e+00   0.02883179   0.01556105  18.38  0.002576387    2.105    0.525
        61 -14.8834    219.6730    112.5999   2.9004056627e+02   5.1222002510e+00   0.07808096   0.04161055  61.71  0.006156013    3.036    0.671
        62 -14.4550    241.5477     79.1783   2.8957457114e+02   5.3648851317e+00   0.04764512   0.04033208  32.59  0.005587539    1.156    0.135
        63 -14.8938    214.6327     60.1751   2.8976923113e+02   5.7487172148e+00   0.04024845   0.02966514 -71.20  0.003913385    1.483    0.326
        64 -14.7510    212.4703     49.4375   2.8972680938e+02   5.8840490744e+00   0.04626531    0.0302686  41.62  0.004757144    1.531    0.347
        65 -12.5040      1.6150    245.5900   2.9342325256e+02   4.9648501394e+00   0.02443334  0.008577533 -62.22  0.001818949    2.971    0.663
        66 -14.7786    180.5695     44.3398   2.9006772836e+02   6.1411351269e+00   0.05764218   0.03012796  57.23  0.004692155    2.763    0.638
        67 -11.5747    190.5298    242.7460   2.9119820650e+02   3.8253548469e+00   0.01291758  0.009247839  26.53  0.001086741    1.377    0.274
