#   1 NUMBER                 Running object number                                     
#   2 MAG_AUTO               Kron-like elliptical aperture magnitude                    [mag]
#   3 X_IMAGE                Object position along x                                    [pixel]
#   4 Y_IMAGE                Object position along y                                    [pixel]
#   5 X_WORLD                Barycenter position along world x axis                     [deg]
#   6 Y_WORLD                Barycenter position along world y axis                     [deg]
#   7 A_WORLD                Profile RMS along major axis (world units)                 [deg]
#   8 B_WORLD                Profile RMS along minor axis (world units)                 [deg]
#   9 THETA_WORLD            Position angle (CCW/world-x)                               [deg]
#  10 FWHM_WORLD             FWHM assuming a gaussian core                              [deg]
#  11 ELONGATION             A_IMAGE/B_IMAGE                                           
#  12 ELLIPTICITY            1 - B_IMAGE/A_IMAGE                                       
         1  -6.7804     84.6679      7.2839   3.2990123766e+01   6.1303637006e+01     0.113481    0.1019501 -76.88 0.0007009314    1.615    0.381
         2  -7.6573    100.0124      1.3843   2.6370224415e+01   5.8618761855e+01    0.1849423    0.1097285  55.74            0    1.498    0.333
         3  -8.6156     51.2469    247.5713   9.4266482391e+01   1.7755566564e+01    0.1857359    0.1271888 -88.35 0.0006871763    1.364    0.267
         4  -9.1335     42.2714    249.6120   9.5905588907e+01   1.8499853247e+01     0.303927    0.2013168  33.25  0.002054362    1.944    0.485
         5 -16.0844      7.5058    239.2703   1.0099836499e+02   2.4165532139e+01     1.619424     1.297992  87.08   0.01283911    1.331    0.249
         6  -7.4593     77.7432    229.5680   8.8051348753e+01   1.7493225230e+01    0.1711722   0.08940198  51.45 0.0009400543    1.565    0.361
         7  -9.0369     80.5987    221.6220   8.6723540586e+01   1.8598206181e+01    0.2433776    0.1849151  40.14  0.001544706    1.386    0.278
         8  -6.7455    150.6571    220.2549   7.2485860893e+01   7.4296057270e+00    0.1320223   0.09113271  60.49  0.000325357    1.583    0.368
         9  -8.4432     86.7672    220.5903   8.5402972076e+01   1.7890885453e+01    0.1854426   0.09419581  50.36 0.0009551732    1.662    0.398
        10  -7.2183    148.6108    215.5282   7.2197240857e+01   8.6175686059e+00    0.1311058    0.1153127  43.52 8.852174e-05    1.030    0.029
        11  -9.8409     57.8309    208.2516   8.9912010969e+01   2.4409084270e+01    0.4197626    0.2467155  66.21 0.0009795161    1.549    0.354
        12  -8.9969     50.2743    214.8102   9.1968087376e+01   2.4042925910e+01    0.2454825    0.1340926  63.57 0.0005994882    1.613    0.380
        13 -10.1691     52.1736    210.7041   9.1249165298e+01   2.4632798914e+01    0.5149093    0.1833523 -60.20  0.002388654    2.868    0.651
        14  -8.3242     71.1410    241.7579   9.0349952259e+01   1.6179569170e+01    0.2165136    0.1464663 -69.90 0.0007845272    1.621    0.383
        15  -8.7250     47.8594    241.8337   9.4454459456e+01   1.9200021639e+01    0.1576732    0.1281825  73.97 0.0006597965    1.177    0.150
        16  -7.8296     33.2955    207.5644   9.4634476691e+01   2.7516833898e+01    0.1898128   0.09286463  43.94 0.0006169244    1.843    0.458
        17  -8.3100     57.0992    238.8314   9.2623165178e+01   1.8577419137e+01    0.1929644    0.1331079  87.27 0.0007525863    1.312    0.238
        18  -7.6236     87.1031    198.5050   8.2793748602e+01   2.2302152806e+01    0.1858011     0.116507  44.34 0.0004868858    1.467    0.318
        19  -7.7309    231.2033    236.8490   5.9747791153e+01  -8.4558560110e+00    0.1665458    0.1404908  20.69 0.0006868857    1.195    0.163
        20  -9.0124    124.9659    235.0582   7.9569139710e+01   9.2340180149e+00     0.195221    0.1733914 -83.16  0.000287189    1.278    0.218
        21  -8.4199     50.2340    192.4514   8.9948095624e+01   2.8695456662e+01    0.2491466    0.2190015 -10.08  0.000971359    1.808    0.447
        22  -7.6472     76.0679    233.0609   8.8690428319e+01   1.7079019719e+01    0.2043339     0.112337  65.30  0.001136485    1.718    0.418
        23  -8.2906    110.4659    231.0933   8.1916448130e+01   1.2268040052e+01    0.2453336    0.1672942 -73.30  0.001056361    1.690    0.408
        24  -9.7147    137.7999    183.6915   6.9354394787e+01   1.6704826530e+01    0.2644105    0.2337644 -48.00 0.0004793568    1.240    0.193
        25  -8.8362     61.9039    182.0659   8.6315245017e+01   2.9477059933e+01    0.3362094    0.1833958  45.78  0.001746016    1.724    0.420
        26  -8.1203    143.6859    181.1876   6.7589274390e+01   1.6097386541e+01    0.2649138    0.2176303  26.84 0.0006247966    1.304    0.233
        27  -7.3041    155.5161    229.5294   7.2863615874e+01   5.0295866512e+00    0.1301379    0.1076686  41.91 0.0001566121    1.004    0.004
        28  -9.5970     19.8760    176.6083   9.4888606921e+01   3.5461091601e+01    0.4793567     0.143074 -61.07  0.002121457    2.959    0.662
        29  -6.7570    150.2787    177.6471   6.5459135692e+01   1.5539137312e+01    0.1455311    0.1132728  83.15 0.0007010714    1.649    0.394
        30  -7.2680    143.8090    174.5807   6.6345837820e+01   1.7436459731e+01    0.2031696     0.130068  52.70 0.0004555923    1.564    0.361
        31  -8.8907     81.2433    172.1158   8.0583356025e+01   2.8983075047e+01    0.2085101    0.1983406  77.52 0.0003002047    1.148    0.129
        32  -8.7487     77.2331    164.7592   8.0465363231e+01   3.1269181989e+01    0.3562599    0.2251915 -29.18  0.001538948    2.857    0.650
        33  -8.3040    224.5152    158.9335   4.6155896145e+01   4.1383840878e+00    0.2435652      0.20017  47.25 0.0003593736    1.331    0.249
        34  -7.3315     85.8551    155.8076   7.6924463918e+01   3.2045919773e+01    0.1979233    0.1540419  77.14 0.0005128717    1.322    0.244
        35  -7.6923     46.2452    156.1529   8.6813131893e+01   3.7336456474e+01    0.1779216    0.1515714 -70.61 0.0003326521    1.148    0.129
        36  -9.3574     74.7457    150.3932   7.8848924267e+01   3.4997716165e+01    0.3523509    0.2224814 -54.23 0.0008487046    1.545    0.353
        37  -7.0395    246.5270    151.5511   4.0666081069e+01   1.1920045533e+00    0.1362654    0.1204751 -12.97 0.0008077878    1.015    0.015
        38  -6.9185    237.4454    148.4401   4.1541901507e+01   3.3986882123e+00    0.1381725    0.1257317 -15.88 -9.86783e-06    1.042    0.040
        39  -7.9553     90.9370    147.9846   7.4261508739e+01   3.3073459173e+01    0.2133034    0.1998967 -86.35 0.0004237817    1.030    0.029
        40  -9.9442     68.5095    143.6195   7.9353678569e+01   3.7488841810e+01    0.7078794    0.3667516  70.68  0.002649859    3.247    0.692
        41  -9.0277    150.4683    138.6885   5.7267061714e+01   2.3740759576e+01     0.385722    0.3089863 -19.71 0.0008710497    1.495    0.331
        42  -7.5379    190.2944    137.1899   4.7969990025e+01   1.5246026930e+01    0.4595395     0.240241 -64.87  0.001228308    5.287    0.811
        43  -7.8115     92.8817    135.8842   7.1429546933e+01   3.5615272733e+01    0.2142497    0.1879935 -35.91 0.0004648101    1.270    0.213
        44  -8.8631     35.6873    131.1655   8.6174861400e+01   4.4335564332e+01    0.2891602    0.1922335 -75.55 0.0003774764    1.302    0.232
        45  -8.3275     71.5450    127.5051   7.5653063870e+01   4.0913819833e+01    0.3622331     0.205286  19.79  0.001539833    2.595    0.615
        46  -7.1825     62.3087    127.3098   7.8211909821e+01   4.2216604766e+01    0.1366186    0.0997343 -35.40 0.0003543194    1.619    0.382
        47  -7.6582    128.8973    123.5271   5.9046617826e+01   3.1691183722e+01    0.2211881     0.152615  43.33 0.0003042542    1.458    0.314
        48  -6.9524     68.3104    119.2446   7.4949902155e+01   4.3335993220e+01    0.1306042    0.1043079 -26.00 0.0002500493    1.506    0.336
        49 -10.4682     56.9704    117.0177   7.7825820717e+01   4.5344993293e+01     0.230784    0.2097612 -64.05   0.00141959    1.041    0.039
        50  -7.6480    107.8912    104.9377   6.0060576042e+01   4.0109669769e+01     0.216543    0.1949304 -14.72  0.001132776    1.207    0.171
        51  -6.7791    172.2639    100.2666   4.2475587671e+01   2.6701854316e+01    0.1493497    0.1232653  11.35            0    1.459    0.315
        52  -7.6270    135.0591     82.7688   4.6303796499e+01   3.9002648197e+01    0.2087703    0.1979298  39.27  0.001094781    1.047    0.045
        53  -8.4153    201.5713     81.0032   3.1521656805e+01   2.3039014974e+01    0.2630652    0.2145679  62.13   0.00132898    1.247    0.198
        54  -8.3049    128.0693     79.9284   4.7277680414e+01   4.1148685174e+01    0.2221394     0.210718   7.55  0.001179615    1.061    0.058
        55  -7.5810     96.8222     79.2243   5.6067753345e+01   4.7760663350e+01    0.1970405    0.1627933 -15.73 0.0003938136    1.288    0.223
        56  -7.8520    214.1935     78.0631   2.8647975487e+01   2.0472921434e+01    0.2083879    0.1925203   0.26 0.0002865938    1.232    0.189
        57  -6.9069    239.6914     72.2652   2.3503380493e+01   1.5486817443e+01    0.1395391   0.09928709 -67.41 0.0002434085    1.534    0.348
        58  -6.7224    117.2834     71.6899   4.7656281394e+01   4.5111636256e+01     0.145494     0.120597 -77.43 0.0002233665    1.569    0.363
        59  -8.9084     99.0889     67.3332   5.1602216022e+01   4.9681834455e+01    0.2892389    0.2253591 -43.19            0    1.289    0.224
        60  -7.4089    167.5005     66.9843   3.4035174857e+01   3.3956336695e+01    0.2294013    0.1506012 -37.36 0.0004507038    1.544    0.352
        61  -7.2281    167.4934     60.5095   3.2112095996e+01   3.5019715843e+01    0.1515288    0.1455975  50.11 7.528903e-06    1.041    0.039
        62  -6.9550    114.6647     51.3158   4.1570129594e+01   4.9260052519e+01    0.1436609    0.1174184 -78.49 0.0007047501    1.693    0.409
        63  -7.1477     96.5765     51.2056   4.6842271451e+01   5.3065334743e+01    0.1897254    0.1299229 -21.66 0.0004119748    1.538    0.350
        64  -8.1841    147.9319     44.0531   3.1008464798e+01   4.2465681600e+01    0.2123647    0.2005282  47.17            0    1.012    0.012
        65  -7.8326    194.8245     43.6305   2.2511523841e+01   3.0550123533e+01    0.2122783    0.1319929  78.74 0.0009496965    1.738    0.425
        66  -7.3017    203.4776     38.4560   1.9886186623e+01   2.9069363325e+01    0.1400634    0.1308667  81.45 6.048946e-05    1.067    0.063
        67  -8.4918    184.9100     22.8967   1.8181729955e+01   3.5723293521e+01    0.2057703    0.1841652  68.15 0.0003772665    1.072    0.068
        68  -7.2351    135.6275     20.7197   2.5743305397e+01   4.8469106565e+01    0.1518549   0.09289364  36.49 0.0007011702    1.698    0.411
        69 -10.2168    100.4153    246.3766   8.5449791959e+01   1.1154129203e+01    0.2277031    0.1972718 -89.35 0.0005719154    1.271    0.213
