#   1 NUMBER                 Running object number                                     
#   2 MAG_AUTO               Kron-like elliptical aperture magnitude                    [mag]
#   3 X_IMAGE                Object position along x                                    [pixel]
#   4 Y_IMAGE                Object position along y                                    [pixel]
#   5 X_WORLD                Barycenter position along world x axis                     [deg]
#   6 Y_WORLD                Barycenter position along world y axis                     [deg]
#   7 A_WORLD                Profile RMS along major axis (world units)                 [deg]
#   8 B_WORLD                Profile RMS along minor axis (world units)                 [deg]
#   9 THETA_WORLD            Position angle (CCW/world-x)                               [deg]
#  10 FWHM_WORLD             FWHM assuming a gaussian core                              [deg]
#  11 ELONGATION             A_IMAGE/B_IMAGE                                           
#  12 ELLIPTICITY            1 - B_IMAGE/A_IMAGE                                       
         1 -11.4166    190.1105     43.8283   3.7645059370e+01   3.2580816255e+01     3.483643    0.6552948 -43.89   0.01119112    4.446    0.775
         2 -10.8388    206.7070     15.4253   2.9577441480e+01   3.2396585808e+01    0.5381311    0.4822131 -28.51  0.001760314    1.496    0.332
         3 -11.2632    229.2498     30.2459   3.0671007895e+01   2.6086198871e+01     1.140101    0.6774784 -78.76  0.006647015    1.585    0.369
         4 -10.6969    212.7985     24.0438   3.0839882345e+01   3.0154868007e+01    0.8373386    0.6175319  -3.58  0.004900331    2.470    0.595
         5 -14.3588    180.6998     76.2071   4.6911015698e+01   2.9854693982e+01     11.17564     4.397378 -57.47   0.03342499    4.509    0.778
         6 -12.1934    220.0924     35.3302   3.2501269036e+01   2.7285701130e+01     1.695932    0.3923187 -47.58  0.006485465    3.556    0.719
         7 -14.1205    223.7465     72.6082   3.9900859087e+01   2.1303799403e+01     3.909272     2.047776 -76.52    0.0164168    3.051    0.672
         8 -14.2271    226.9091     89.1019   4.2992881177e+01   1.8053619727e+01     7.777552     1.922792 -51.16   0.02131776    5.692    0.824
         9 -11.8920    249.9949     28.4994   2.8742290303e+01   2.2372972976e+01     1.084626    0.3261735 -35.70  0.004063128    3.352    0.702
        10 -14.1660    241.4198     54.9859   3.4418132347e+01   2.0494266237e+01     2.096678     1.396263  75.53   0.01324651    1.569    0.363
        11  -9.9244    232.4350     16.7569   2.7831435817e+01   2.7052272029e+01    0.4178105    0.1694266 -30.57  0.002032123    3.090    0.676
        12  -8.8515    224.9053     18.9689   2.8815116108e+01   2.8279240283e+01    0.2984735    0.2045011  22.91  0.001519969    3.545    0.718
        13  -9.4474    165.0165     16.6579   3.4130837746e+01   4.1476842139e+01    0.2149331    0.1736839 -40.47 0.0003560206    1.376    0.273
        14 -10.0627    134.5585     15.3871   3.8064999136e+01   4.8681109305e+01    0.3488694    0.2332035 -28.08  0.001552673    1.749    0.428
        15 -10.5934     92.5241     13.2483   4.5774303011e+01   5.8449029366e+01    0.3170592    0.2252119 -19.48 0.0006824469    1.627    0.386
        16  -8.7961    246.4202     11.6986   2.5981946189e+01   2.4980445925e+01     0.219764    0.1611862 -29.20  0.001038084    1.857    0.462
        17 -10.4874    249.9322      3.0013   2.4269373301e+01   2.5281212609e+01    0.3669523    0.2177566 -18.36  0.002050344    3.494    0.714
        18  -9.9414    120.1954      9.3049   3.8615279085e+01   5.2557931386e+01    0.3062522    0.2708615 -78.75  0.001078608    1.235    0.190
        19  -9.2593    184.0615      8.8619   3.0189099829e+01   3.7959883847e+01      0.24596    0.1668741 -34.16 0.0008788327    1.667    0.400
        20  -9.4623    235.7045      4.8959   2.5423377922e+01   2.7716835082e+01    0.3161116    0.1705534 -42.32  0.001542668    1.698    0.411
        21  -8.1035    142.5593      6.5163   3.4323542133e+01   4.7616344327e+01    0.1239168    0.1031455  75.60 9.033475e-05    1.007    0.007
        22  -8.6829    188.1901      5.1583   2.8976268360e+01   3.7413620172e+01    0.1996514    0.1373057 -84.99 0.0006042199    1.225    0.183
        23  -8.4853     79.3247      4.0982   4.5608808210e+01   6.2034031337e+01    0.1603712    0.1430003  28.01 0.0006620654    1.142    0.124
        24  -8.5273    171.6102      2.4974   2.9913970579e+01   4.1326573718e+01    0.2377439    0.1576785 -80.97 0.0009022248    1.367    0.268
        25  -8.8782    119.1357      3.0933   3.6823545079e+01   5.3301650106e+01    0.1995897    0.1402464  48.87  0.000544259    1.293    0.226
        26  -9.4127    114.7444      2.5920   3.7408694359e+01   5.4343714301e+01     0.283484    0.1310363  67.20  0.001400428    1.814    0.449
        27  -9.2998    104.9870      2.9794   3.9331029945e+01   5.6525262211e+01    0.1918711    0.1407485 -72.96  0.001142908    1.721    0.419
        28  -8.4347    147.4186      1.9175   3.2432448635e+01   4.6878830792e+01    0.2180005    0.1380088  81.57 0.0005816855    1.382    0.276
        29  -8.0931    137.2328      1.3637   3.3590183734e+01   4.9269038895e+01    0.1715096    0.0987132  80.72 0.0004273959    1.596    0.373
        30  -8.7468    187.6134    169.2687   6.7278741091e+01   1.0203564883e+01    0.2612677    0.2171729  65.26 0.0005181278    1.623    0.384
        31  -9.2151    135.9161    249.7625   9.3179063442e+01   2.3451605296e+00    0.3641244    0.1790643  47.29  0.001619741    2.316    0.568
        32  -8.4858    184.7652    166.3892   6.7275897300e+01   1.1306937937e+01    0.2260274    0.1925246 -41.00 0.0004318703    1.133    0.118
        33 -11.6868     12.3501    158.1487   1.1299788264e+02   3.9793273550e+01    0.7299309    0.2873911 -60.58  0.003144062    2.078    0.519
        34  -9.4376    178.9798    246.4116   8.3349067577e+01  -3.1417764948e+00    0.2744128    0.2397102  71.19  0.001235289    1.896    0.473
        35  -9.6492    112.7171    242.1358   9.7381055818e+01   7.1681037749e+00    0.4474101    0.2352019  58.32  0.001850352    2.801    0.643
        36 -10.2483    199.9458    240.6761   7.8104517973e+01  -5.0012535730e+00    0.2425284    0.1894244 -17.68 0.0006427456    1.147    0.128
        37  -9.1310    166.4854    240.1279   8.5026541463e+01  -3.1130904621e-01    0.2399101    0.1877143  24.15 0.0003307585    1.147    0.128
        38 -12.3607    203.2196     79.8896   4.4245914401e+01   2.4338055511e+01     1.415329     1.001767 -78.41   0.00312219    1.592    0.372
        39 -12.0045    185.0782     89.6155   4.9461198111e+01   2.6576922092e+01     1.160373    0.8480147  44.28  0.005953929    1.539    0.350
        40  -8.8644    134.2840    240.6978   9.2273302592e+01   4.2879508893e+00    0.3251553    0.1814808  64.00  0.001163888    4.130    0.758
        41  -9.8859    249.4173    158.7915   5.3942434639e+01   2.2159639102e+00    0.3313342    0.1860114 -26.59   0.00158017    1.813    0.448
        42  -8.1258    219.2758    159.3005   5.9023051449e+01   6.7596420923e+00    0.1702542    0.1510379 -58.22  0.000564633    1.314    0.239
        43  -9.6670    168.0941    157.7364   6.9090747698e+01   1.6248709642e+01     0.260641     0.222154 -38.59 0.0003048488    1.111    0.100
        44  -8.2815    203.6397    152.3333   6.0447080328e+01   1.0781493334e+01    0.2092503    0.1657994 -69.37 0.0005966579    1.644    0.392
        45  -8.3720    111.6523    152.4711   8.2465939030e+01   2.8271201536e+01    0.1976941     0.156104  18.34 0.0009047124    1.395    0.283
        46  -9.0983    173.3134    149.0180   6.5967727559e+01   1.7141093523e+01    0.2694084    0.2416597 -48.10  0.001422345    1.115    0.103
        47  -9.1313    134.2975    148.0377   7.5239664889e+01   2.5062970476e+01    0.6720868    0.1976009 -53.51  0.001769988    4.091    0.756
        48 -10.3331     55.3514    141.0199   9.7397992721e+01   4.0084154291e+01    0.8053982    0.4537984  65.87  0.003004828    2.812    0.644
        49 -10.3739     59.3691    147.3942   9.7270221545e+01   3.7880850960e+01    0.6507277    0.4829683  43.55  0.003207214    1.436    0.303
        50  -9.1778    162.9901    146.9823   6.7852074904e+01   1.9616256044e+01    0.2907147    0.2710902  66.66  0.001528459    1.214    0.177
        51  -8.9015    160.5447    143.5550   6.7633724897e+01   2.0865622308e+01    0.2673518    0.2498372  58.50 0.0005736135    1.177    0.150
        52  -9.9351     70.2032    145.4031   9.3485952576e+01   3.6930025979e+01    0.5873037    0.4510301 -88.87  0.002690545    1.534    0.348
        53 -10.3847     66.3351    143.6815   9.4377082013e+01   3.7930628056e+01    0.6115087    0.3879342 -69.84  0.002147356    1.665    0.399
        54  -9.4843    223.7843    145.6499   5.5414040413e+01   8.5666886301e+00    0.3164459    0.2258858  69.32  0.001049769    2.148    0.535
        55  -9.7703    217.2415    144.8939   5.6377574715e+01   9.8280678457e+00    0.3836839    0.2760713 -31.23 0.0009622957    1.287    0.223
        56  -9.1826    214.7150    140.5427   5.5894258488e+01   1.1098485916e+01    0.2680698    0.1840716 -50.85  0.000842154    1.412    0.292
        57 -10.2809    210.6021    138.4429   5.6168129766e+01   1.2239233467e+01     0.367514    0.2990475 -56.73 0.0006406337    1.279    0.218
        58 -10.0046    189.9651    132.0159   5.8601174628e+01   1.7424532546e+01    0.3825929    0.2940375 -56.88  0.001931997    1.356    0.262
        59  -9.0954    192.1447    144.1318   6.0901433763e+01   1.4542527174e+01    0.2887899    0.2451582 -62.98 0.0005564026    1.320    0.242
        60 -10.3889    192.6742    139.2680   5.9709956319e+01   1.5429578577e+01    0.6314911    0.3766455 -68.50  0.002331499    3.067    0.674
        61  -9.6681    145.9816    141.5328   7.0705678209e+01   2.4262283027e+01    0.7222614    0.2280951 -48.79  0.002144412    3.177    0.685
        62  -9.4018    141.5038    134.0151   7.0044505477e+01   2.6907326896e+01    0.3943717    0.2523578 -74.66  0.001277394    2.706    0.631
        63  -9.5949    174.2046    139.2401   6.3536220633e+01   1.9063560867e+01    0.3278013    0.2297158 -53.83 0.0006736194    1.481    0.325
        64 -10.6573    224.0533    129.3399   5.1948266262e+01   1.1535834708e+01    0.4173879    0.3509815 -51.62  0.001456354    1.124    0.111
        65  -8.8656    136.3383    129.0651   7.0169884147e+01   2.9112906171e+01    0.3765856    0.1455548 -45.89  0.001191883    2.520    0.603
        66  -9.3742    168.2561    235.5165   8.3904784980e+01   2.6030297791e-01     0.255677    0.2065854  -4.40 5.095609e-05    1.146    0.127
        67  -8.8616    160.3805    128.4707   6.4085547428e+01   2.4217225512e+01     0.301415    0.2451073 -47.55  0.001480113    1.191    0.160
        68  -7.4781    118.2957    127.2687   7.4673314924e+01   3.3206450583e+01    0.1566383    0.1247278  -7.12  0.000221085    1.516    0.340
        69  -9.7234    201.9368    125.9830   5.4974853979e+01   1.6272682605e+01    0.2891861    0.2339659 -71.71 0.0005166489    1.443    0.307
        70  -9.7501    170.4637    119.7448   5.9709401172e+01   2.3937219811e+01    0.6781926     0.355149 -66.78  0.001861341    4.421    0.774
        71 -10.5802    229.2029    118.3927   4.8848027927e+01   1.2597609056e+01    0.6547094    0.3646701 -69.07  0.002574846    3.339    0.700
        72  -8.7057    169.0468    231.0193   8.2997182040e+01   9.6454394459e-01    0.2323507     0.191035 -44.59 0.0003402113    1.389    0.280
        73  -8.0955    205.7616    122.2275   5.3455722502e+01   1.6252413330e+01    0.1833842    0.1615322 -11.09 0.0005354463    1.285    0.222
        74  -8.1141     61.7796    118.7447   9.0675609878e+01   4.5047202335e+01    0.1844095    0.1697939  88.12 0.0003358443    1.232    0.188
        75  -8.9702    222.8247    117.8377   4.9696595363e+01   1.3849946274e+01    0.1922912    0.1499089 -65.67  0.001074954    1.382    0.277
        76  -7.3772    179.6664    231.6922   8.0812333350e+01  -6.9956483916e-01     0.140765   0.09259041  -4.97 0.0007041201    1.670    0.401
        77  -9.2437    175.7193    112.1025   5.6743288207e+01   2.4366807672e+01    0.4280993     0.283591 -24.69  0.001188593    1.867    0.464
        78  -9.5023    134.6184    110.6265   6.5877568780e+01   3.3610930749e+01    0.7992659    0.1486934 -44.21  0.001853763    5.310    0.812
        79 -10.1380    205.4803    109.9554   5.0746650141e+01   1.8607275451e+01    0.4198418    0.3679717  11.79  0.002066086    1.427    0.299
        80 -10.7046    122.1598    102.4887   6.7024630782e+01   3.8045741009e+01    0.7710226    0.5569033  80.08  0.002987356    2.120    0.528
        81 -10.0868    120.1211     96.4784   6.5902048403e+01   3.9754196695e+01    0.5019408     0.276428 -58.10  0.001648411    2.424    0.587
        82  -9.8857    119.3642     91.7767   6.4761652846e+01   4.0885196462e+01    0.3565607    0.2874424 -32.45   0.00145334    1.276    0.216
        83  -8.0268    144.2000    106.1810   6.2270394098e+01   3.2465678088e+01    0.2120957    0.1855644 -86.02 0.0007425589    1.310    0.237
        84  -9.0788    151.1306    102.9291   5.9755899130e+01   3.1598249339e+01    0.3325905    0.2501076  54.62 0.0006998836    1.379    0.275
        85  -9.7663    204.7489     98.9614   4.8372217671e+01   2.0748545466e+01    0.4779887    0.2290661 -56.32  0.001177285    2.464    0.594
        86 -10.2921     80.7981    101.3843   7.9640986879e+01   4.6351143553e+01    0.2618063    0.2417508 -36.90 0.0002677765    1.064    0.060
        87  -9.3704    208.9754     96.2410   4.7095091457e+01   2.0370482559e+01    0.4424914    0.2228483 -57.44  0.001734963    2.301    0.565
        88  -8.3574    179.1894     98.6995   5.2765623870e+01   2.6206778683e+01    0.2248124    0.1789891  84.49   0.00072249    1.453    0.312
        89 -10.6782    164.3342     98.1418   5.5589077401e+01   2.9596521059e+01    0.8652128    0.3355803  47.19  0.003068868    2.670    0.626
        90  -9.3756    136.9432     98.9962   6.2132380174e+01   3.5554683236e+01    0.3600386    0.2312619  48.97  0.001216183    1.571    0.363
        91  -9.7146    145.3488     93.6181   5.8606384863e+01   3.4746216530e+01    0.3273901     0.277091 -57.41 0.0006520137    1.225    0.184
        92  -9.7958    169.6952     92.1008   5.2946104717e+01   2.9536616262e+01    0.5053312     0.253292  37.15  0.001873846    2.788    0.641
        93  -8.5305    114.2973     93.1359   6.6596667396e+01   4.1691289314e+01    0.2686689    0.2102837  29.74 0.0006776538    1.329    0.248
        94 -11.0906    233.1398     44.0222   3.3041273070e+01   2.3566160409e+01    0.3387456    0.2234478 -42.03 0.0009356784    1.434    0.303
        95 -10.9209    161.9000     89.2661   5.3784821833e+01   3.1818499444e+01    0.3355906    0.2689247 -33.51 0.0005919308    1.304    0.233
        96  -8.5146    127.3171     89.6595   6.1990019613e+01   3.9566924422e+01    0.1559719    0.1222288 -83.29 0.0001799915    1.709    0.415
        97  -9.5366    130.6160     83.0419   5.9221645219e+01   4.0102286973e+01      0.25825    0.2061479  63.01 0.0006395074    1.336    0.252
        98 -10.5411    140.5208     78.5189   5.5516130169e+01   3.8671633228e+01    0.3700772    0.3212588 -23.43  0.001560694    1.259    0.206
        99 -10.4678    156.9582     77.7752   5.1733272911e+01   3.5007741418e+01    0.4272096    0.1630558  50.81  0.001552902    2.561    0.610
       100  -8.4953    197.6333    161.3104   6.3536576052e+01   1.0055952191e+01     0.283292    0.1704741 -58.22  0.001205492    2.161    0.537
       101  -7.9028    102.0037    230.2948   9.8327381638e+01   1.1187022866e+01    0.1909292    0.1619076  34.77 0.0002206642    1.075    0.069
       102 -10.2825    151.2263     71.6403   5.1229064460e+01   3.7381239185e+01    0.3118109    0.2549537 -57.29 0.0004283052    1.266    0.210
       103  -8.7644    129.9517     63.2514   5.3502925279e+01   4.3702011086e+01    0.2354353    0.2027676 -35.30 0.0006160981    1.229    0.186
       104 -10.6877    153.4720     59.9827   4.7543248836e+01   3.8718624415e+01    0.5101047    0.2833925 -32.23  0.002298238    1.992    0.498
       105  -9.9039    144.4220     59.5661   4.9220171226e+01   4.0905460828e+01    0.2722777    0.2510035 -84.13 0.0006896544    1.094    0.086
       106  -7.5784    115.0285     58.9694   5.5887432166e+01   4.7786778802e+01    0.1673551    0.1564355  40.15            0    1.004    0.004
       107  -7.6160     72.6072     58.4853   6.9062555390e+01   5.6558629759e+01    0.1371949    0.1256291   3.47 7.084776e-05    1.067    0.062
       108 -10.1054    193.9444    157.5985   6.3485600727e+01   1.1464626172e+01    0.4341572    0.3410136 -69.92 0.0007386088    1.700    0.412
       109  -9.1417    115.9161     46.9910   5.1777661750e+01   4.9362872169e+01    0.2898931    0.1893109 -32.83 0.0005425829    1.669    0.401
       110  -8.1515    105.0634     46.5137   5.4424381167e+01   5.1865321873e+01    0.2866819    0.1317746  56.91  0.001169575    2.207    0.547
       111  -8.5898    103.1315     43.1967   5.3809249291e+01   5.2749453896e+01    0.2220526    0.1621969 -36.03 0.0004489571    1.506    0.336
       112 -11.6620    134.1566     41.6397   4.6022584492e+01   4.5848909459e+01    0.6704074    0.4516301 -31.29  0.003518808    1.651    0.394
       113  -9.5685    192.4665    153.4965   6.2897348670e+01   1.2570407786e+01    0.3263381    0.2688263  74.64  0.001557736    1.662    0.398
       114 -10.6919    204.1842     37.9384   3.4655902509e+01   3.0275104064e+01    0.3509783    0.1779574 -41.35  0.001067857    1.845    0.458
       115 -13.0703    239.1843     66.7301   3.6952253314e+01   1.9223837807e+01    0.8958092    0.6452373  75.06  0.003185145    1.485    0.327
       116  -9.8126    122.6070     38.9948   4.7633926872e+01   4.8883484342e+01    0.3151653    0.1764397  49.05  0.001510661    1.613    0.380
       117 -12.5521     28.9109    154.7928   1.0779047538e+02   3.9285324536e+01    0.8715115    0.7113059 -21.60  0.001363625    1.443    0.307
       118  -9.3374    110.8085     31.9675   4.8013107377e+01   5.2445524055e+01    0.2245003    0.2125745  -3.11 0.0004649634    1.168    0.144
       119  -8.4991    200.8766     31.7004   3.3631920128e+01   3.1764667926e+01    0.1843832    0.1705719 -30.28  0.001265594    1.395    0.283
       120  -8.0834     86.8873     31.8185   5.4332182050e+01   5.7699975764e+01    0.1633242    0.1563345  82.17 0.0003897213    1.293    0.227
       121  -7.2957    197.2865    228.7289   7.6623327299e+01  -2.6588102637e+00    0.1109734     0.103639  41.48            0    1.504    0.335
       122  -8.6392    163.6865     26.3235   3.6785731839e+01   4.0752612003e+01    0.2872368    0.1788441  84.95  0.001038227    1.602    0.376
       123  -9.5375    179.2691     23.5143   3.4126580156e+01   3.7497448174e+01    0.4030448    0.2618234  76.95  0.001901069    1.366    0.268
       124  -9.9690    134.1811     23.4707   4.0538897258e+01   4.7965333743e+01     0.244855    0.2080794 -79.23  0.001369023    1.235    0.190
       125  -9.8371    171.4338     20.1614   3.4231980504e+01   3.9642238627e+01    0.2487477    0.2069225 -38.15 0.0005994352    1.365    0.268
       126  -8.2123    101.6755     26.3178   4.8265222106e+01   5.5135793227e+01     0.127144    0.1008687 -80.39 0.0005269862    1.672    0.402
       127 -10.1134    136.2462    223.7548   8.9274175404e+01   7.3707557533e+00    0.2575528    0.2316822 -36.82 0.0004661713    1.181    0.153
       128  -8.6401    224.7321    218.7398   6.9481712272e+01  -4.6400950667e+00    0.2555483    0.1856571  56.83  0.001330865    2.743    0.635
       129  -9.4497    130.1424     19.2528   3.9969185312e+01   4.9338789536e+01    0.2056693    0.1742472   6.52 0.0007222468    1.450    0.310
       130  -8.1972    188.9232     18.3844   3.1879673093e+01   3.5905600252e+01    0.1752041    0.1369775 -47.39 0.0005860206    1.315    0.240
       131  -8.6956    143.9966     18.1748   3.7399402759e+01   4.6205734936e+01    0.1959534    0.1824154 -50.13 0.0005270365    1.218    0.179
       132  -8.4320     87.9672    217.0937   9.9980218815e+01   1.6171937439e+01    0.1980578    0.1898614  31.31  0.001182741    1.078    0.072
       133  -9.3768    188.0524    209.4712   7.5113842867e+01   2.1417707460e+00    0.3436084    0.2764781  80.67  0.001070485    2.298    0.565
       134  -8.0883    161.4377     17.1267   3.4697529733e+01   4.2253477609e+01    0.1579422    0.1232246 -34.20 0.0005594554    1.470    0.320
       135  -8.7418    159.3004    210.1882   8.1613244429e+01   6.5113098387e+00    0.2169237    0.1763284  15.19 0.0002989627    1.163    0.140
       136  -8.5171    238.2990    204.0247   6.4349811923e+01  -3.9576869152e+00    0.2179943    0.1633061  60.34  0.001172568    2.689    0.628
       137  -9.2478     20.2494    201.0086   1.1486215352e+02   2.8287966949e+01    0.2103253    0.1823524  43.61 0.0002491492    1.227    0.185
       138  -8.1481    242.1106     11.5720   2.6227825224e+01   2.5791900938e+01     0.148419   0.08335438  63.76 0.0009337972    1.994    0.499
       139  -9.5685    192.3606    193.8543   7.1248693236e+01   4.4679150512e+00    0.7660294    0.3776522 -61.37  0.002258375    5.441    0.816
       140  -7.3456     67.5463    193.4821   1.0205466812e+02   2.4743969339e+01    0.1423716    0.1343905  81.30 6.103477e-05    1.009    0.009
       141 -12.4045     40.5560    149.8034   1.0355143963e+02   3.9453235644e+01     1.054751     0.862492 -50.23  0.002667886    1.172    0.147
       142  -7.8983    210.3182    190.3258   6.6931106474e+01   2.3457564153e+00      0.14427   0.09579552 -11.23 0.0007045554    1.676    0.403
       143  -8.8798     23.0474    185.1911   1.1278325328e+02   3.1946908018e+01    0.2133893    0.1686165 -76.53 0.0004024088    1.129    0.114
       144  -8.3721    242.0695    183.3593   5.9838788016e+01  -9.8192200652e-01     0.166024    0.1443036  -5.65 0.0003742994    1.168    0.144
       145  -7.5278    180.5855    182.2646   7.1472949478e+01   8.7407996165e+00    0.1415922    0.1164989  69.86 0.0006956127    1.764    0.433
       146 -10.9239    224.0911    176.0625   6.1543676126e+01   2.8867655893e+00    0.7005686    0.3664258  12.24  0.002546153    3.973    0.748
       147 -10.5936    230.9136    167.9112   5.8727702314e+01   3.3349697351e+00    0.6555348    0.2072924 -43.40  0.002469969    2.735    0.634
       148  -9.8965    238.4778    175.9871   5.9027437713e+01   7.9047392843e-01    0.3364508    0.2488578  74.12  0.001294105    2.840    0.648
       149  -9.2615    212.6334    176.6391   6.3777801426e+01   4.5538459893e+00    0.3995221    0.2229285  23.64  0.001795906    2.247    0.555
       150  -8.8276    249.5274    168.9673   5.5883745307e+01   4.5605850873e-01    0.1981381    0.1031301 -40.57   0.00101646    1.558    0.358
