#   1 NUMBER                 Running object number                                     
#   2 MAG_AUTO               Kron-like elliptical aperture magnitude                    [mag]
#   3 X_IMAGE                Object position along x                                    [pixel]
#   4 Y_IMAGE                Object position along y                                    [pixel]
#   5 X_WORLD                Barycenter position along world x axis                     [deg]
#   6 Y_WORLD                Barycenter position along world y axis                     [deg]
#   7 A_WORLD                Profile RMS along major axis (world units)                 [deg]
#   8 B_WORLD                Profile RMS along minor axis (world units)                 [deg]
#   9 THETA_WORLD            Position angle (CCW/world-x)                               [deg]
#  10 FWHM_WORLD             FWHM assuming a gaussian core                              [deg]
#  11 ELONGATION             A_IMAGE/B_IMAGE                                           
#  12 ELLIPTICITY            1 - B_IMAGE/A_IMAGE                                       
         1 -13.3053    223.7036    116.6452   5.0110297441e+01   1.3924086206e+01       1.7925     1.119029 -47.93  0.009386106    1.481    0.325
         2 -10.2639    250.0241     16.4577   2.6481680202e+01   2.3200584147e+01    0.2465475    0.1693276 -47.20  0.001103368    1.216    0.178
         3 -11.3227    248.9530     23.1436   2.7825315772e+01   2.2643552591e+01    0.5266908    0.1831072 -45.75  0.002370524    2.110    0.526
         4 -11.1618    244.6364     18.5804   2.7216355083e+01   2.3961721677e+01    0.4418755    0.1795228 -40.16  0.002232509    1.955    0.488
         5 -11.3204    247.1693     12.7675   2.5946403713e+01   2.4130377189e+01    0.3219227    0.2597259  57.17 0.0003566117    1.700    0.412
         6 -12.4753    237.9744     20.4679   2.8020666240e+01   2.5012968891e+01    0.6555165    0.3085808 -42.72  0.002769915    1.709    0.415
         7 -11.8817     46.1722     28.2756   6.7699296078e+01   6.6459339350e+01     0.489668    0.3864616  10.41  0.002034239    1.130    0.115
         8 -12.1660     16.1176     13.5506   7.6598440959e+01   7.2851068952e+01    0.2525419    0.1941228  11.48 0.0002545488    1.165    0.141
         9 -11.8351     33.9529     20.7908   7.0091144195e+01   6.9448406979e+01     1.184134    0.6081669  -7.18  0.004783206    3.424    0.708
        10 -11.4986     28.1085     18.6545   7.2160765522e+01   7.0585904896e+01    0.6615213    0.3474421  -7.02  0.002919526    2.898    0.655
        11 -12.6397     24.2391     12.3078   7.0991003841e+01   7.2014116878e+01     0.385373    0.2889582 -24.91  0.000482626    1.293    0.227
        12 -11.4401     55.6885     18.6004   5.8919809305e+01   6.6099427163e+01    0.5508429    0.2619707  25.25  0.002070031    2.806    0.644
        13 -10.9707     58.6732     13.0869   5.5050401041e+01   6.6163089996e+01    0.3956271    0.2568758  35.27  0.001726454    1.343    0.255
        14 -12.2052    112.1139     18.7852   4.2494817312e+01   5.3786229393e+01    0.4217274     0.333221  26.45  0.002447798    1.389    0.280
        15 -10.9255     10.2584     15.1027   8.1203225412e+01   7.3237841069e+01    0.2763932    0.2161859 -34.11 0.0007925137    1.304    0.233
        16 -10.5670    155.4651     14.6682   3.4186070763e+01   4.3726807898e+01    0.3088674    0.1861741  60.22  0.001046355    1.525    0.344
        17 -11.4744    228.7694     15.3344   2.7600697124e+01   2.7383196474e+01    0.3441677    0.2544118  10.46  0.002056505    2.536    0.606
        18 -11.1796    100.8568     15.0817   4.3531721914e+01   5.6811382457e+01    0.7049356    0.3399678  32.07  0.002967979    2.677    0.627
        19 -11.7828    122.3386     11.2421   3.7927175544e+01   5.2052995890e+01    0.4044092    0.2920338  25.50  0.000851345    1.657    0.396
        20 -10.6969     76.9069     15.5299   5.0005935099e+01   6.2160859476e+01    0.3018386    0.2292771  67.37  0.001050329    1.473    0.321
        21 -12.3086    187.0355     13.6838   3.0530505093e+01   3.6450355649e+01    0.2681197    0.1996564 -68.10 0.0003634572    1.187    0.158
        22 -11.4622    182.3584     12.5595   3.0690466172e+01   3.7628196377e+01    0.3304825    0.2934729  39.22  0.001311082    1.439    0.305
        23  -9.3478    144.8876     12.5816   3.4946871041e+01   4.6474583610e+01    0.2328812    0.1132779 -47.90 0.0007762451    2.198    0.545
        24 -12.2109     46.1499      9.2248   5.8160726467e+01   6.8926599188e+01    0.3380782    0.2202615  20.70 0.0003497058    1.458    0.314
        25  -9.7079    176.2569     12.1743   3.1186737898e+01   3.9069920389e+01    0.1674905      0.14971  89.39  0.000330954    1.096    0.088
        26 -10.6436     92.4127     11.0791   4.3907436432e+01   5.9140744231e+01    0.3104834    0.2209005  71.54 0.0007702797    1.441    0.306
        27 -10.6706    209.0144      9.6562   2.7782073595e+01   3.2046026070e+01     0.337607    0.2511421  45.25  0.001235871    1.842    0.457
        28 -10.1184     34.8368      9.0136   6.3381745156e+01   7.0872107739e+01    0.2540515    0.1732678 -15.46 0.0009641662    1.420    0.296
        29 -10.8287    216.9629      6.6104   2.6569381860e+01   3.0694914693e+01    0.3269978    0.2143511 -14.63 0.0009257103    2.261    0.558
        30 -10.0158     12.6545      5.9230   7.4575210868e+01   7.4352316904e+01    0.2375972    0.2031297  26.01  0.001650943    1.485    0.327
        31 -11.1874     17.8419      3.7479   6.9922284829e+01   7.3999850606e+01    0.3414267     0.203848  30.47  0.001519598    1.531    0.347
        32 -10.3434     10.0564      1.6412   7.3760251550e+01   7.5234945886e+01    0.3169882    0.2077352  33.21  0.002045779    1.660    0.398
        33 -10.9480      2.1217      3.0631   8.0338204183e+01   7.5865810719e+01     0.408711    0.3306566 -71.76  0.002564492    2.696    0.629
        34 -10.1355    238.4832      7.7471   2.5476840212e+01   2.6299829611e+01    0.2017926   0.08564307 -39.11 0.0005559966    1.947    0.486
        35  -9.6891    116.9882      8.9624   3.8057232708e+01   5.3541941692e+01    0.2295708    0.1458807 -58.06 0.0006033481    1.897    0.473
        36 -10.1693     78.0282      6.4962   4.5651567527e+01   6.2773654069e+01    0.2889099    0.2096132  52.41  0.001255251    1.183    0.155
        37  -9.4338    167.9931      5.1162   3.0163777063e+01   4.1664722067e+01    0.3757895    0.2577962  29.04  0.002102246    2.096    0.523
        38 -11.6639    127.8917      4.9879   3.4954319810e+01   5.1252946157e+01    0.3511611    0.2344976  87.56  0.001201052    1.488    0.328
        39 -10.3529    105.7178      3.2310   3.8009559751e+01   5.6697569704e+01    0.5284352    0.2811409 -80.13  0.002242994    2.997    0.666
        40 -11.9791     89.7406      3.4508   4.1392929475e+01   6.0398812594e+01    0.4151039    0.3194175  50.83  0.001668244    1.093    0.085
        41  -9.6490     40.4902      5.1064   5.8453506217e+01   7.0367237178e+01    0.2381281    0.1385284  46.14 0.0009916667    1.631    0.387
        42 -10.1939    154.0227      2.7933   3.0972314384e+01   4.5163041633e+01    0.3123088    0.1715425  55.49  0.001150881    1.752    0.429
        43  -8.9245     99.2693      4.2860   3.9671332523e+01   5.8130414891e+01    0.1279647   0.08316649  38.77  0.000176536    1.500    0.333
        44 -10.3693      8.0349      8.9435   7.9436131371e+01   7.4416582661e+01    0.3340649    0.1920092 -37.58  0.001254624    1.608    0.378
        45  -9.1283    119.7143      1.9986   3.5186444800e+01   5.3457666910e+01    0.1679216    0.1568388  74.09 0.0006000028    1.094    0.086
        46 -10.8856    244.9905      1.7338   2.3976544759e+01   2.5691751966e+01    0.3796678     0.138774  82.25  0.001975996    2.712    0.631
        47  -9.8328    211.6482      6.2923   2.6859328289e+01   3.1832517814e+01    0.2261885    0.1373186 -73.36 0.0007600593    1.446    0.308
        48  -9.7768    113.8917    159.0341   8.3180525400e+01   2.6265419383e+01    0.2186513    0.2112618 -30.77            0    1.036    0.035
        49  -9.4454     84.0611    250.5964   1.0354796213e+02   1.0824892625e+01    0.1803081    0.1013113  33.31 0.0009816518    1.498    0.332
        50 -10.3248     15.3644    249.8770   1.1761741756e+02   1.8809848952e+01    0.1910532    0.1837739 -22.66     0.000845    1.494    0.331
        51 -10.4692     10.8926    155.6193   1.1257166479e+02   4.0616242396e+01     0.256905    0.1372035  41.65  0.001263557    1.883    0.469
        52  -8.9707      1.4833    153.5804   1.1506759287e+02   4.1795479888e+01    0.1285685    0.1087864  89.94 7.453547e-05    1.016    0.015
        53  -8.8649     80.9778    152.2197   9.1221649864e+01   3.3447119217e+01    0.1983439    0.1225508  33.16 0.0003996804    1.640    0.390
        54 -10.7853     16.9393    150.0544   1.1027247932e+02   4.1567037020e+01    0.3563165     0.195111  22.45 0.0009584231    2.046    0.511
        55 -11.9550    248.8006    144.1266   5.2141095612e+01   5.3016718689e+00    0.5829424    0.2802234 -25.36  0.002675939    2.343    0.573
        56 -12.2992    245.5989    140.4904   5.1875656754e+01   6.3601977289e+00    0.4879947    0.2965553 -12.97  0.002447071    2.216    0.549
        57  -9.8232    125.1768    147.3592   7.7690823370e+01   2.6957918826e+01    0.2316236     0.205412 -31.92 0.0004004862    1.136    0.120
        58  -9.5591     30.9922    147.0141   1.0566758919e+02   4.1111400257e+01     0.206264    0.1874673  87.97 0.0003853925    1.044    0.042
        59 -10.5271     11.6308    145.1353   1.1135734324e+02   4.3241626937e+01    0.2411684    0.2214901  64.10  0.001537875    1.143    0.125
        60 -10.1675      2.0338    143.6201   1.1408547252e+02   4.4281256146e+01     0.285499    0.1810782 -79.39  0.001009525    1.338    0.252
        61 -10.9692     28.2899    140.4366   1.0565696791e+02   4.3082897589e+01    0.3778642    0.3223831 -67.06  0.001138559    1.066    0.062
        62 -10.6386     21.3281    141.9718   1.0803790899e+02   4.3296670893e+01    0.2070025      0.16879  73.51  0.000556371    1.218    0.179
        63  -9.0845     44.7079    141.6487   1.0060974593e+02   4.1077229277e+01    0.1519156    0.1002324 -39.24 0.0007029352    1.675    0.403
        64 -12.7950    224.8383    136.7151   5.4227355484e+01   1.0312807001e+01    0.6447446    0.3121132 -36.99   0.00300164    1.778    0.438
        65 -10.3319    212.4971    123.0419   5.3263916479e+01   1.4866660067e+01    0.3005782    0.1786438 -39.36  0.001034873    1.471    0.320
        66 -11.3118    212.0927    129.0922   5.4664107989e+01   1.3872626395e+01     0.603986    0.3647761 -57.43   0.00240868    2.080    0.519
        67 -12.2500    219.3328    136.6990   5.5111106167e+01   1.1254828452e+01    0.5201663    0.3338549 -33.87  0.002516589    1.370    0.270
        68 -11.7077    215.3138    134.9886   5.5408526210e+01   1.2254785439e+01    0.4036722    0.2576372 -31.68  0.002069722    1.436    0.304
        69  -9.3798     37.7814    137.2083   1.0215530793e+02   4.2995289713e+01    0.1972169    0.1540315 -40.89  0.000458229    1.340    0.254
        70  -8.8143    145.3243    135.2183   6.9748210463e+01   2.5759949171e+01    0.1479694    0.1174495  10.02 0.0002366602    1.499    0.333
        71  -9.3816     11.7461    128.9740   1.0955947482e+02   4.7404605199e+01    0.1840401    0.1523822 -77.06    0.0010941    1.052    0.050
        72 -10.7443     15.9106    131.8129   1.0853900810e+02   4.6367910892e+01    0.5233555    0.2579672 -43.52  0.002345143    2.143    0.533
        73  -9.6684     15.6686    128.6898   1.0823190056e+02   4.7196441528e+01    0.2033458    0.1737591 -20.03 0.0005186861    1.344    0.256
        74  -9.8960     54.0592    133.2307   9.6163341494e+01   4.2161549825e+01    0.2475694    0.1964958 -64.35 0.0003265806    1.184    0.156
        75 -12.2656    245.0206    128.3849   4.9521634538e+01   8.3881294062e+00    0.5166406    0.3582978  52.04  0.003087091    1.817    0.450
        76 -12.9299    249.7364    119.5167   4.7100948170e+01   9.0451807276e+00     1.476561    0.1791982 -41.04  0.003995539    5.910    0.831
        77 -11.6694    242.4588    111.0498   4.6312722757e+01   1.1571513603e+01    0.4453731    0.2734058  53.55    0.0024939    1.992    0.498
        78 -12.4199    237.6918    106.9240   4.6073569589e+01   1.3043140231e+01    0.5872056    0.3475832 -53.84  0.002923404    1.722    0.419
        79  -9.7448      4.3963    246.0066   1.1957125465e+02   2.0594980410e+01    0.2441969    0.1269917  38.81  0.001507573    1.595    0.373
        80 -11.0214     46.9235    125.6689   9.7179796773e+01   4.5005000381e+01    0.4439973    0.2717253  33.08   0.00182863    1.714    0.416
        81  -9.9221     32.1764    123.0111   1.0180569391e+02   4.7272930409e+01    0.3927394    0.2020756 -32.45  0.001157985    2.489    0.598
        82  -9.5686      1.5597    123.7257   1.1232713376e+02   4.9389763814e+01    0.2146865    0.1196711 -48.35 0.0006399214    1.705    0.413
        83  -9.9682     93.9459    123.0010   8.1059156874e+01   3.8637103583e+01    0.2253849    0.2185249 -28.65            0    1.019    0.019
        84 -10.1676     10.6612    122.1479   1.0909327267e+02   4.9241397218e+01    0.3096462    0.1420425  24.06  0.001408116    2.386    0.581
        85  -9.6623     67.6899    121.1445   8.9174712634e+01   4.3420159747e+01    0.3095083    0.1580494  44.59  0.001197273    2.153    0.536
        86  -9.4595     83.5898    119.1743   8.3435220258e+01   4.1389829196e+01    0.2207003    0.1366936 -42.88 0.0004893263    1.622    0.383
        87 -10.4212      7.7411    118.1221   1.0959343455e+02   5.0464365846e+01    0.2496039     0.212851  66.14 0.0009127261    1.257    0.204
        88 -10.7030      3.2340    112.8463   1.1051859288e+02   5.2075423709e+01    0.4002704    0.3262078  72.98  0.001459029    1.297    0.229
        89 -10.0629    233.0159    117.0645   4.8849343120e+01   1.2211783555e+01    0.1964323    0.1885117  43.02 0.0003811944    1.244    0.196
        90  -9.9400     69.1583    117.4902   8.7855241155e+01   4.4128112380e+01    0.2555063    0.2130588 -85.42  0.001121776    1.370    0.270
        91  -9.5199     57.8230    118.0992   9.1906183042e+01   4.5592691860e+01    0.2210717    0.1972235  70.95 0.0004262843    1.237    0.192
        92 -10.1618     45.6043    117.6516   9.6120698203e+01   4.7241107504e+01    0.2690585    0.2042195 -51.17 0.0007009257    1.214    0.176
        93 -10.2111     37.5907    115.1715   9.8517000206e+01   4.8766747249e+01    0.3238085    0.2162823   7.79  0.001568579    1.795    0.443
        94 -10.1759     45.5051    109.4288   9.4482093579e+01   4.9363909750e+01    0.2938675    0.2419334  62.14  0.001560998    1.406    0.289
        95  -9.2779     52.5890    111.5087   9.2342026504e+01   4.7963835077e+01    0.1474099    0.1341827 -49.29 7.621762e-05    1.020    0.019
        96 -10.4569     34.9488    108.1238   9.8141499808e+01   5.0849751430e+01    0.4723146    0.1744921 -55.99  0.001069106    2.236    0.553
        97  -9.1660    119.9480    107.9806   6.9475142823e+01   3.7061209088e+01     0.185309    0.1732098  37.62            0    1.081    0.075
        98 -10.4820     16.1576    107.7155   1.0510490900e+02   5.2573028257e+01    0.3908983    0.2765245 -51.20  0.002152971    1.252    0.201
        99 -11.4671     80.8075    103.1707   8.0303953097e+01   4.5761619714e+01    0.4573108    0.3084046  21.55            0    1.707    0.414
       100 -11.5508     65.6732    104.0742   8.5855115943e+01   4.7998920292e+01    0.6928235    0.2991258  42.68   0.00171038    2.552    0.608
       101 -11.8193    249.8812    102.9076   4.3720044247e+01   1.1600770032e+01    0.4938568    0.2455128 -33.72  0.002509552    1.776    0.437
       102 -11.4056    249.7192     95.8291   4.2299706280e+01   1.2706578359e+01    0.3421827    0.1835169 -36.62  0.001361421    1.552    0.356
       103 -10.1832     57.3264    103.8071   8.8834852928e+01   4.9270346827e+01    0.2512221      0.23158  -0.42 0.0003115565    1.124    0.110
       104  -9.6264     45.5044    102.0760   9.2867107280e+01   5.1221766399e+01    0.2324311    0.1979803  50.62 0.0004356089    1.329    0.248
       105 -10.8111     42.3432    101.3527   9.3914056265e+01   5.1771366363e+01    0.4787925    0.1615371 -47.16  0.001684207    2.718    0.632
       106 -10.3278     52.6731    100.3409   8.9733326664e+01   5.0755441781e+01    0.3317161    0.2181611 -41.94   0.00157343    1.459    0.315
       107 -10.4234     76.4548    104.4617   8.2143383242e+01   4.6191997792e+01     0.318186    0.2070341 -49.08 0.0005115323    1.471    0.320
       108  -9.1401    106.8573     97.8505   7.0437216996e+01   4.2018673221e+01    0.2043058     0.182815  82.73    0.0010272    1.301    0.231
       109 -11.2264    101.6326     97.9164   7.2048347928e+01   4.3065911795e+01      0.26452    0.2429377  33.17  0.000193892    1.095    0.087
       110 -10.3547     70.4438     96.5438   8.2150691368e+01   4.9070693595e+01    0.3135856    0.2497315  62.87 0.0009065875    1.564    0.361
       111  -9.9076     60.9723     97.0034   8.5762215210e+01   5.0418394404e+01     0.229394    0.2116997 -39.26 0.0005288353    1.020    0.020
       112 -10.3864     47.4473     95.6992   9.0607058753e+01   5.2565632414e+01    0.4259799    0.2613513  89.84  0.001560261    2.872    0.652
       113 -11.9240    234.8939     95.7198   4.4060373336e+01   1.5313323293e+01    0.3654736    0.2635857 -25.97   0.00211699    1.456    0.313
       114  -9.8750     97.7423     94.9100   7.2398505477e+01   4.4508626567e+01    0.4333961    0.2688488  13.77  0.001609484    2.618    0.618
       115  -9.9441     52.0627     95.1789   8.8682175390e+01   5.2101159123e+01    0.2365581    0.1549443  52.60  0.001004048    1.936    0.483
       116  -9.6604     16.5055     95.0783   1.0281955381e+02   5.5743734859e+01    0.1950339    0.1178679 -64.72 0.0003126225    1.439    0.305
       117  -9.7405    116.5055     93.3471   6.6325258903e+01   4.0949410197e+01    0.2490556    0.2062739 -65.66 0.0004742489    1.377    0.274
       118  -9.3128     29.6053     93.2840   9.7163234460e+01   5.5106970701e+01    0.2020153    0.1095416 -51.76 0.0003034792    1.584    0.369
       119 -11.4707    126.4778     91.4384   6.3053658447e+01   3.9155294396e+01    0.2710612    0.2699213 -12.48 0.0002638627    1.004    0.004
       120 -10.3774     57.2387     89.9925   8.5302131114e+01   5.2632449883e+01    0.3523971    0.2688161  71.12  0.001699668    1.838    0.456
       121 -11.8856     34.8768     89.8274   9.4223664012e+01   5.5435312200e+01     0.293568    0.2523328 -66.79  0.001681693    1.191    0.160
       122 -11.1834     86.9605     87.0491   7.3591213441e+01   4.8328937350e+01     0.417872    0.3395697 -70.21  0.001497772    1.511    0.338
       123  -9.8354     50.7157     89.0200   8.7601521276e+01   5.3760465540e+01    0.2007644    0.1719737 -41.84 0.0002222401    1.074    0.069
       124 -11.7003     76.6319     74.9428   7.3395385330e+01   5.2828785529e+01    0.5175356    0.4153124  19.09 0.0005403982    1.289    0.224
       125 -10.8203     83.3096     74.6570   7.0924623652e+01   5.1639475528e+01    0.3486432    0.2660829 -34.10 0.0005042962    1.310    0.237
       126 -10.6498     71.0417     82.2281   7.7771304165e+01   5.2250359125e+01    0.2608632    0.2387705 -78.98 0.0002056667    1.304    0.233
       127 -11.4102     75.9847     82.2601   7.5965094545e+01   5.1387015474e+01    0.6897337    0.2963325 -47.01   0.00260466    2.272    0.560
       128  -8.6626     12.7660     88.2768   1.0308491577e+02   5.7686741721e+01    0.1189268   0.09668074  79.71            0    1.434    0.303
       129  -9.6000    139.1264     86.9243   5.8582962378e+01   3.7184436789e+01    0.2147421    0.1948935 -72.65 -0.0006383859    1.171    0.146
       130 -11.5527    116.5531     85.3413   6.3933952551e+01   4.2579005459e+01     0.525727    0.3178941  65.23  0.002050892    2.323    0.570
       131 -11.4610    245.0284     85.1917   4.0648382384e+01   1.5115046791e+01    0.2280383    0.1542205 -41.85 0.0008324503    1.204    0.169
       132 -10.3456    131.0569     85.9581   6.0275386101e+01   3.9210460072e+01    0.2196404    0.2177047  50.21 0.0003216254    1.009    0.009
       133 -10.2510    102.8908     85.0950   6.7853559003e+01   4.5562834750e+01    0.2617016    0.2185432 -43.02 0.0006288278    1.202    0.168
       134  -9.0185    124.2662     85.3363   6.1840476045e+01   4.0865321783e+01    0.1518212    0.1206345  -0.99 0.0004665868    1.590    0.371
       135 -10.0212     27.4007     84.8779   9.6182212538e+01   5.7367455579e+01    0.2540648    0.1757921  39.91 0.0008694474    1.675    0.403
       136  -9.0341     20.4785     83.4564   9.8823448897e+01   5.8303485393e+01    0.1377352    0.1154834 -43.20  0.000808372    1.038    0.037
       137  -9.9733     80.0117     80.9666   7.4116840957e+01   5.0940358793e+01    0.2240486    0.2087386  -0.26 0.0003108155    1.040    0.039
       138  -9.4181     46.5542     82.0256   8.7372638705e+01   5.5945746043e+01    0.2173034    0.1303248 -52.77 0.0004957189    1.553    0.356
       139 -10.1486     91.7303     80.6272   7.0002467490e+01   4.8767009581e+01     0.278465    0.2294182 -21.73 0.0006914825    1.279    0.218
       140  -9.4300     54.0816     80.9458   8.3978882441e+01   5.5180720821e+01    0.2261013    0.1583696 -22.39  0.000435914    1.573    0.364
       141 -10.3151    104.3027     79.6605   6.5730539777e+01   4.6368853753e+01    0.3252888    0.1791361 -52.76  0.001289448    2.118    0.528
       142 -12.3748    249.5306     72.9474   3.7667387991e+01   1.6105634988e+01    0.7977804    0.1930421 -37.93  0.003056642    3.199    0.687
       143 -12.3938    242.6030     74.8417   3.8766711298e+01   1.7072444456e+01     0.481829    0.3341915 -77.18  0.002885119    1.638    0.389
       144 -10.4028     24.1174    125.9013   1.0502003894e+02   4.7249107527e+01    0.4887356    0.2307708 -87.02  0.001899456    2.645    0.622
       145  -9.9573      4.8067     76.5183   1.0426665894e+02   6.1006494615e+01    0.4020419    0.2436964 -32.67  0.002177511    1.570    0.363
       146  -9.9975     60.4416     76.2665   7.9997177289e+01   5.5281487024e+01    0.3469542    0.2205671  -7.97  0.001039181    2.247    0.555
       147  -9.3776     36.7603     76.7419   9.0058958635e+01   5.8341342814e+01    0.1706707    0.1593659  84.55  0.000330725    1.307    0.235
       148 -10.4910     50.0175     76.2379   8.4243946011e+01   5.6809663317e+01    0.3639462    0.1988139  36.32  0.001638916    1.927    0.481
       149 -11.0930     45.8348     72.1029   8.4754821836e+01   5.8289629257e+01    0.4208116    0.2828241 -61.39  0.001225117    1.675    0.403
       150  -8.9630    130.7272     74.9782   5.7072629547e+01   4.1342942665e+01    0.1753902    0.1316735 -37.67  0.000342879    1.353    0.261
       151 -11.5197    102.3215     70.1468   6.3249565715e+01   4.8631248303e+01    0.5791354    0.2961406 -52.32            0    2.437    0.590
       152  -9.4315    140.1548     72.7783   5.4202750116e+01   3.9531445783e+01     0.200891    0.1890901  63.15 0.0004519169    1.049    0.046
       153 -10.9749    136.9735     69.5008   5.3936285671e+01   4.0846087399e+01    0.3086715    0.2187242 -36.72  0.001261316    1.442    0.306
       154 -10.8188     17.6566     70.8409   9.7122866574e+01   6.1510860252e+01    0.3316353    0.1894479 -44.12  0.001585482    1.491    0.329
       155  -9.7700     57.2849     72.2188   7.9979722575e+01   5.6643744302e+01    0.2315769    0.1629704 -28.61 0.0005403885    1.446    0.308
       156  -9.9278     33.1106     72.0555   9.0356008828e+01   5.9812364279e+01    0.3228945     0.182427 -43.56  0.001091334    1.574    0.365
       157 -10.4328     34.9946     66.5005   8.7851628814e+01   6.0846710481e+01    0.3350088    0.2303648 -57.09  0.001398041    1.479    0.324
       158 -10.5709     32.4354     62.2595   8.7717763534e+01   6.2054762912e+01    0.3798628    0.2583408  43.92  0.001525031    1.840    0.456
       159 -11.8201     60.5884     57.5747   7.3557098681e+01   5.9094985941e+01    0.5116116    0.3433512  38.25  0.002595584    1.506    0.336
       160 -10.4010     63.8735     69.6061   7.6466437959e+01   5.6151942991e+01    0.3603914     0.287158  74.44  0.001632353    1.878    0.467
       161 -10.8939     59.0042     65.8084   7.7139133319e+01   5.7722655956e+01    0.4975267    0.3040655  10.76  0.001461981    2.181    0.541
       162 -10.0291     97.1993     68.9421   6.4420881341e+01   4.9951943943e+01    0.3296664    0.1882069 -34.07 0.0009413089    1.863    0.463
       163  -8.7960     27.0000     69.9483   9.2549326390e+01   6.0908917117e+01    0.2176382   0.06986587 -58.64 0.0004428712    2.848    0.649
       164  -9.6849     90.0016     68.4688   6.6577102104e+01   5.1536231272e+01    0.2142879    0.1928272 -27.25 0.0003427338    1.110    0.099
       165 -12.1144     70.7885     63.9627   7.1832969575e+01   5.6096150286e+01    0.4038923    0.3729439  45.03 0.0004420311    1.209    0.173
       166 -10.0199     76.8962     66.1348   7.0322303232e+01   5.4552298540e+01    0.2713248    0.1984255  53.42 0.0005248988    1.590    0.371
       167 -11.6477    110.8770     65.4470   5.9211476772e+01   4.7593814203e+01    0.3544611    0.2992689 -58.71   0.00185252    1.330    0.248
       168 -10.2775     43.7881     63.9821   8.3051730985e+01   6.0314673688e+01    0.3789132    0.2430673  19.52  0.001901773    1.635    0.389
       169  -9.8351    194.0124     64.0381   4.2204829595e+01   2.8479582547e+01    0.1979989    0.1758703 -61.14  0.001192893    1.013    0.012
       170 -10.8482    147.0950     61.6349   4.9409677428e+01   3.9738059777e+01    0.2432438    0.2038256 -39.15 0.0003999381    1.217    0.178
       171 -12.6612    150.8025     57.6388   4.7504688345e+01   3.9471727048e+01    0.2847536    0.2771313 -42.25 0.0004117397    1.092    0.084
       172 -10.1778     95.6254     57.0831   6.0801222669e+01   5.2408711621e+01    0.3145598    0.2289291  28.24  0.001401309    1.463    0.317
       173 -10.4127     91.4461     57.4609   6.2251146599e+01   5.3236416695e+01    0.2849623    0.2149038  34.12 0.0008250282    1.301    0.231
       174  -9.7154     88.6707     60.3034   6.4171841981e+01   5.3317185327e+01    0.2405732    0.2029528 -46.87 0.0007283426    1.290    0.225
       175  -9.6995     91.2803     62.6513   6.4147591986e+01   5.2354027294e+01    0.2585765    0.1859255  52.73 0.0008259513    1.466    0.318
       176 -12.8349    246.8512     56.6969   3.4627384114e+01   1.8839653059e+01    0.6978407    0.4037454 -36.85   0.00253593    1.525    0.344
       177  -9.1306     83.0488     63.4975   6.7209260157e+01   5.3869975633e+01    0.2181035    0.1391404  40.82  0.000376286    1.532    0.347
       178  -9.1820     12.5300     60.2853   9.6852692843e+01   6.4286012552e+01     0.196038    0.0943924 -48.36 0.0007796233    1.679    0.404
       179 -11.8472     79.6659     55.2902   6.5420629874e+01   5.6024591175e+01    0.5729755    0.4542081   7.45  0.001744237    1.364    0.267
       180  -9.9639     90.8356     43.6368   5.7313586982e+01   5.5590979661e+01    0.2625946    0.1899954  25.11 0.0009121319    1.488    0.328
       181 -10.3795     91.0503     40.0880   5.5883867699e+01   5.6061877707e+01     0.238067    0.2016719 -22.80  0.001353237    1.242    0.195
       182 -10.7491     85.4328     49.1229   6.1129323946e+01   5.5890224390e+01    0.2761723    0.2630223  80.71 0.0005801791    1.247    0.198
       183 -10.9091     85.8496     45.1712   5.9480499806e+01   5.6426211589e+01    0.3701118    0.2883244 -13.06  0.001549917    1.393    0.282
       184 -10.2269      8.1696     56.9127   9.8154300702e+01   6.5324915055e+01    0.2618346    0.1640888 -24.33 0.0003818017    1.521    0.342
       185 -11.6918    248.2666     41.3762   3.1438445307e+01   2.0576640878e+01    0.3779126     0.342573 -35.35  0.002816641    1.361    0.265
       186 -11.7735    246.8960     48.0479   3.2879692865e+01   1.9975540886e+01    0.3501545    0.3472904  -2.34  0.001774694    1.403    0.287
       187 -10.2717    175.8095     54.9265   4.2504118309e+01   3.3954755216e+01    0.4529022    0.2129405 -52.15  0.001877597    2.297    0.565
       188  -9.4734    160.8986     56.5055   4.5347747850e+01   3.7232210771e+01    0.1999064    0.1754639  62.95 0.0006404162    1.129    0.115
       189  -9.1069    162.3051     53.2763   4.4197435196e+01   3.7372143576e+01    0.1776278    0.1189618 -35.71 0.0003798046    1.519    0.342
       190  -9.9043     48.4244     66.2258   8.1751796647e+01   5.9212379801e+01    0.2741529    0.2025299  11.30  0.001447892    1.412    0.292
       191  -8.9608     26.6101     56.1837   8.8579811154e+01   6.3966470980e+01    0.1799368    0.1047797 -41.87 0.0003768307    1.502    0.334
       192  -9.5269    200.8503     54.9139   3.9079380868e+01   2.8307502918e+01    0.1848943    0.1803426  -9.89 0.0007723884    1.263    0.208
       193  -9.8851     44.7443     54.2731   7.9219954170e+01   6.2165915017e+01    0.3187869    0.2170571 -54.80  0.001646262    1.690    0.408
       194 -10.6541     30.4704     53.4870   8.5753849604e+01   6.4116428367e+01    0.3113168     0.219162 -70.06  0.001098032    2.003    0.501
       195  -8.8668    185.2461     54.6418   4.1060404831e+01   3.1824143300e+01    0.1417709   0.09119426 -60.27 0.0006939327    1.599    0.375
       196  -9.9163    128.0972     53.4722   5.0930475257e+01   4.5547183225e+01     0.268025    0.2054541  53.85  0.000824526    1.241    0.194
       197  -9.4414    126.6118     50.2029   5.0202007701e+01   4.6391459222e+01    0.2292379    0.2239776  34.45  0.000708679    1.061    0.057
       198 -10.2747     68.6611     53.8472   6.8943170207e+01   5.8374738184e+01    0.2504126    0.1878031 -45.80  0.001314883    1.455    0.313
       199  -9.4096     35.0339     51.3140   8.2732303919e+01   6.4022142993e+01    0.1791555    0.1541873  -0.66 0.0003869342    1.088    0.081
       200 -10.6385     24.8343     49.7413   8.7297148597e+01   6.5480742138e+01    0.4795071    0.2377688 -19.50   0.00121261    2.703    0.630
       201 -10.0680      4.9219     49.2470   9.7743483340e+01   6.7188788556e+01    0.4656468    0.2048771 -31.63   0.00220197    2.161    0.537
       202 -10.1208    212.1123     49.9228   3.6598846116e+01   2.6585114898e+01    0.2020463    0.1681132 -82.02 0.0005195874    1.135    0.119
       203  -9.7591    202.2655     50.0280   3.7737429592e+01   2.8678074494e+01     0.209297     0.171988  44.94 0.0006379852    1.507    0.337
       204  -9.5282     73.0745     50.5020   6.5990838104e+01   5.8135465945e+01    0.2065123     0.132489  42.23 0.0004577908    1.512    0.339
       205 -10.9771     63.6142     48.7381   6.8953279810e+01   6.0186381230e+01    0.4114796    0.2562594  48.29 0.0008476007    1.793    0.442
       206  -9.9619     60.2924     45.6679   6.9078791391e+01   6.1300039224e+01    0.2329942    0.2092368  -0.05 0.0004223491    1.031    0.030
       207  -9.6848     55.3941     49.7399   7.2761108232e+01   6.1409597456e+01     0.258738    0.1819673 -10.72 0.0006820573    1.580    0.367
       208 -10.3217    121.7338     48.1924   5.0654804127e+01   4.7848368689e+01    0.2466457    0.2151632  86.09 0.0006856181    1.238    0.192
       209  -9.6025     18.3314     48.4821   9.0272860598e+01   6.6357198727e+01     0.247605    0.1803795  72.49  0.001281285    2.488    0.598
       210 -10.3408    232.8941     47.9545   3.4085661470e+01   2.2636157789e+01    0.2104094    0.1503759 -69.37 0.0004462763    1.285    0.222
       211 -11.3494    137.0853     46.8822   4.6907311307e+01   4.4352247419e+01    0.2931993    0.2371489 -71.68 0.0005792248    1.359    0.264
       212 -10.4748     33.1013     44.9514   8.1294196002e+01   6.5494793298e+01    0.5798374    0.2568793 -26.99  0.002230047    3.126    0.680
       213  -9.3477     98.5913     47.3323   5.6380965683e+01   5.3326938291e+01     0.175758     0.137043 -17.70 0.0002584553    1.408    0.290
       214  -8.8651     91.7311     47.7385   5.8589350701e+01   5.4771625107e+01    0.1368364    0.1038777  18.47 0.0006837387    1.459    0.315
       215 -11.7383    240.6962     43.8171   3.2540620850e+01   2.1676229365e+01    0.3253282    0.2023297 -47.29  0.002000041    1.295    0.228
       216  -9.6577     73.6033     45.2123   6.3721526346e+01   5.8911167056e+01    0.2495671    0.1723853 -23.30  0.001270364    1.538    0.350
       217  -8.7094     67.2923     45.2739   6.6121287140e+01   6.0104601437e+01    0.1372831    0.1001589   8.26 0.0001654611    1.519    0.342
       218 -10.4876    108.6474     43.4149   5.2209330749e+01   5.1611825912e+01    0.3930209    0.2215563  60.94  0.001188997    1.813    0.449
       219 -11.0197    163.0790     42.3663   4.1001862752e+01   3.8698838244e+01    0.2287641    0.2017401 -62.04 0.0003007338    1.097    0.089
       220  -9.9095     54.4087     36.8280   6.7861652440e+01   6.3770842180e+01    0.2067281    0.1653121  37.29 0.0003449682    1.273    0.214
       221 -12.1207     57.0963     41.4463   6.8678605884e+01   6.2562450343e+01    0.3771268    0.2824566   4.79 0.0004640949    1.378    0.274
       222 -11.3620     63.0012     37.9500   6.4778985021e+01   6.2069442074e+01    0.3684314    0.2806034  25.01 0.0003381209    1.226    0.184
       223 -11.7830     18.0323     40.4301   8.7567005557e+01   6.7995619515e+01    0.3499051    0.2429197 -57.93 0.0008766586    1.639    0.390
       224  -8.8012    198.5218     42.6203   3.6392039664e+01   3.0488637155e+01    0.1295186    0.1095856 -73.24 0.0001520557    1.044    0.043
       225  -9.3231     39.9849     44.0227   7.7518434834e+01   6.4770989294e+01    0.1628883     0.139418  -3.88 0.0005681052    1.026    0.025
       226  -9.2285     28.1618     40.8607   8.2234070138e+01   6.6854671920e+01    0.1824687    0.1282818 -20.02 0.0004104661    1.318    0.241
       227 -11.5937    229.9639     38.6075   3.2368525928e+01   2.4413883057e+01    0.3689567    0.2172968 -60.20  0.001768329    1.514    0.340
       228  -9.3152     44.1414     39.7836   7.3777787520e+01   6.4927416398e+01     0.179809    0.1365657  -5.33 0.0004343563    1.270    0.213
       229 -10.0524     76.0508     38.5846   6.0167227125e+01   5.9446631565e+01    0.2293463    0.1880058 -12.74  0.001304969    1.248    0.199
       230 -10.4553     70.2184     38.0906   6.2064267796e+01   6.0679446043e+01    0.4793805    0.2533842  17.22  0.001740421    3.463    0.711
       231 -10.5320    140.1768     37.9127   4.3501339243e+01   4.4807349536e+01    0.2154021    0.1967037  78.15 0.0002812846    1.022    0.021
       232 -10.7387     83.7741     37.1010   5.6973672531e+01   5.8055853415e+01     0.355136     0.213529 -56.58  0.001534263    2.634    0.620
       233  -9.7490      2.5651     37.8652   9.5571999029e+01   6.9694233668e+01    0.2006889    0.1369043 -16.57 0.0003765337    1.329    0.248
       234  -9.9492    127.4337     37.1221   4.5708158861e+01   4.7997151613e+01    0.2554574    0.1807804  57.11 0.0007983586    1.297    0.229
       235  -9.4635     28.8233     36.5610   8.0121607766e+01   6.7565142867e+01     0.216189    0.1467869 -30.70 0.0002772732    1.325    0.245
       236  -8.9091    207.4844     37.4093   3.4199815512e+01   2.9204921059e+01    0.1261321    0.1059303 -69.96  0.000141831    1.017    0.017
       237 -12.3677    245.8287     32.5248   2.9869228900e+01   2.2117473131e+01    0.4672036    0.3987015  54.38  0.002322328    1.597    0.374
       238 -10.7782    106.1391    243.9639   9.8092896577e+01   9.1220268417e+00    0.2844825    0.2298612  37.98 0.0009224663    1.057    0.054
       239 -10.5815     29.0793    244.0598   1.1457892797e+02   1.8559907436e+01    0.3089244    0.1593242  56.74   0.00175646    1.650    0.394
       240  -9.1217     41.8749    242.1665   1.1180799206e+02   1.7553102538e+01    0.1449707    0.1392537  23.78 0.0006035395    1.308    0.236
       241  -8.3197     45.3438    241.2867   1.1101442901e+02   1.7338563468e+01    0.1084993    0.0926937 -15.25 0.0007020466    1.646    0.393
       242 -12.1671    236.2771     29.0927   2.9883111263e+01   2.4340566361e+01    0.4325563    0.3597355 -18.43  0.002982853    1.629    0.386
       243  -8.7210    189.6584    239.3042   7.9929922163e+01  -1.5621475819e+00     0.110863     0.093559  45.98  0.000704047    1.681    0.405
       244  -8.9382    218.4483     41.4790   3.4041242726e+01   2.6377946150e+01    0.1267475    0.1019986 -62.94 6.245481e-05    1.038    0.037
       245 -11.2586    107.0400     34.8102   4.9502196057e+01   5.3148508788e+01    0.2242569    0.2136045  57.53 0.0003023505    1.059    0.056
       246  -9.7615    169.9184     33.7900   3.7651529810e+01   3.8162468356e+01    0.2079101     0.175643 -42.79 0.0005275803    1.219    0.180
       247 -11.5889     40.0203     33.1807   7.2892653511e+01   6.6646653104e+01    0.2528545    0.2048772  16.28            0    1.127    0.113
       248  -9.2479    166.4864    234.5065   8.3861792553e+01   2.3249384153e+00    0.1299158    0.1059454   8.92 -8.972577e-05    1.045    0.043
       249  -9.4585     97.0596     33.2708   5.1522737170e+01   5.5644888322e+01    0.1890544    0.1586677  50.24 0.0001958393    1.097    0.089
       250  -8.9113     85.7089     33.6758   5.4984024002e+01   5.8110254762e+01    0.1409465   0.09846379  20.24 0.0004684964    1.613    0.380
       251  -9.6982     53.9773     32.3380   6.6068258639e+01   6.4538791587e+01     0.187072     0.154709  24.32 0.0006253569    1.101    0.092
       252 -10.0708    132.1290     29.4191   4.2263059195e+01   4.7800825027e+01    0.2678533    0.2174439 -21.92  0.001066312    1.399    0.285
       253  -9.5201    124.0307     30.5770   4.4203929403e+01   4.9626368374e+01    0.1859138    0.1817712 -22.99  0.000146389    1.126    0.112
       254 -11.1068     43.8992     18.3469   6.3925752099e+01   6.8222308833e+01    0.3540091    0.2373897  58.19  0.001863029    2.259    0.557
       255 -11.0570     34.5189     28.0873   7.3341125471e+01   6.8257809267e+01    0.5063936    0.2788957 -20.68  0.002486794    2.062    0.515
       256 -11.7179    119.2722    230.8832   9.3579244850e+01   9.7312311007e+00    0.3167985    0.2659172 -82.04 0.0003922662    1.511    0.338
       257 -11.4411    140.5726    227.2830   8.8331959735e+01   7.3033047373e+00    0.2629198    0.2456987  24.35 0.0002089593    1.126    0.112
       258 -10.6896      3.3925    228.2990   1.1902220721e+02   2.4251194681e+01    0.2264547    0.1682142 -21.47  0.001428825    2.189    0.543
       259 -10.6128     22.2553    224.7104   1.1485917131e+02   2.3240153486e+01    0.3284453    0.2428338 -17.20  0.001953296    2.144    0.534
       260 -10.8750     15.5164     28.0546   8.4005233232e+01   7.0537247679e+01    0.4006478     0.219293  -3.65  0.002021568    2.110    0.526
       261 -10.2937     81.2890     26.6471   5.3460470036e+01   5.9962873588e+01    0.3774782    0.2927053  78.06  0.002060566    1.706    0.414
       262 -10.2899     77.4713     23.5186   5.3331615202e+01   6.1154493676e+01    0.2485822    0.1752035  41.06  0.001062628    1.254    0.203
       263  -9.6043    207.0904     25.3965   3.1474829406e+01   3.0738984277e+01    0.1790715    0.1571649 -41.86 0.0003805558    1.257    0.204
       264  -9.4465    121.6113     25.9942   4.3122660537e+01   5.0738508215e+01    0.2242645    0.1624384  63.82 0.0005531328    1.252    0.202
       265  -8.8585    183.5093     25.4594   3.3821704448e+01   3.5976672586e+01    0.1304601     0.108838 -75.58  3.61034e-05    1.049    0.047
       266  -9.2319     41.5842     25.2718   6.8451075268e+01   6.7637191971e+01    0.1681686    0.1098453 -19.56 0.0005407139    1.535    0.349
       267 -11.3679     73.0957     25.7928   5.5768425677e+01   6.1792833348e+01    0.2871063    0.2379203 -29.07  0.001487343    1.320    0.242
       268 -10.0324    225.4720     23.0018   2.9433362384e+01   2.7186185306e+01    0.1835091    0.1589141  34.25 0.0006969859    1.703    0.413
       269  -9.4751    158.6179     22.9245   3.6135808540e+01   4.2112487855e+01    0.1676246      0.15166 -65.36  0.001055948    1.104    0.094
       270  -9.3469     98.8913     23.3263   4.7196804900e+01   5.6414087054e+01    0.1925592    0.1553519  53.92 0.0009817531    1.110    0.099
       271  -9.6193     98.1402    225.1164   9.7662681484e+01   1.3884371477e+01    0.1984735    0.1732577   4.45 0.0005932298    1.271    0.213
       272 -10.3252    183.9347    225.9898   7.8954836920e+01   1.2849919425e+00    0.1920321    0.1610129   3.60   0.00036038    1.034    0.033
       273  -9.3057    179.9471     22.4948   3.3453881226e+01   3.7130164837e+01    0.1934115    0.1151358  76.53  0.001021356    1.567    0.362
       274  -9.5397    164.6280     22.0349   3.5114314698e+01   4.0774075453e+01    0.2782536    0.1640068  32.70   0.00128321    2.598    0.615
       275 -11.3659     73.7216    215.7039   1.0230328265e+02   1.9225312303e+01    0.9875085     0.610239  51.12  0.005124917    1.534    0.348
       276  -9.8122      7.9996     20.9839   8.5539617296e+01   7.2469571757e+01    0.3991002    0.1117609 -43.48  0.001696553    2.894    0.654
       277 -10.8668    108.6237    220.3552   9.4618776988e+01   1.3349643428e+01    0.3964437    0.1956923  39.56  0.001821616    1.794    0.443
       278  -9.6669      1.8882     20.7372   8.9483419539e+01   7.2999303863e+01    0.3328525    0.1025889 -43.34  0.001514694    2.511    0.602
       279  -9.1015    222.3244     20.2990   2.9098626946e+01   2.8130705474e+01    0.1049692    0.0896355  44.62 0.0007026026    1.630    0.386
       280 -11.0986    150.6157     18.5584   3.5950232094e+01   4.4500709658e+01      0.24737    0.2276582 -83.16 0.0005555521    1.067    0.063
       281 -11.1258    118.4943    215.8647   9.1690919728e+01   1.2800388463e+01    0.4701651    0.3063405 -67.48  0.002349469    1.956    0.489
       282  -9.8524      3.1398    216.8658   1.1854632217e+02   2.6702019633e+01    0.1500213    0.1315996 -70.98 0.0005277475    1.332    0.249
       283  -9.2150    193.3209     16.8970   3.0732037487e+01   3.4701650827e+01    0.1612939    0.1384676 -70.04 0.0004343169    1.058    0.055
       284  -9.2466     99.6270    215.7768   9.6131714517e+01   1.5608213731e+01    0.1808151    0.1302607 -77.76 0.0009495115    1.688    0.408
       285 -10.0696    117.7520     15.7679   4.0311453323e+01   5.2734730341e+01     0.220471    0.1888759 -42.26  0.000446233    1.296    0.228
       286  -8.8445    103.2962    213.3735   9.4936756619e+01   1.5580699396e+01     0.138632    0.1030664 -18.88 0.0007026708    1.740    0.425
       287  -9.3965    149.0112    210.5107   8.3851861330e+01   9.1773709277e+00    0.1938438    0.1777915 -18.72 0.0004008114    1.120    0.107
       288  -8.8893    208.9746    210.2274   7.1397080494e+01   3.5661286832e-01    0.1530086   0.09563185  28.66 0.0002472108    1.555    0.357
       289  -9.9656      2.7924    210.1140   1.1828984626e+02   2.8210877052e+01    0.1824435    0.1300099  66.17 0.0003861491    1.151    0.131
       290 -10.5693     90.1252    204.5554   9.6952908396e+01   1.9423326751e+01     0.447876    0.2741994 -84.82  0.001761191    2.255    0.557
       291  -9.9421    193.8359    206.1716   7.3600068299e+01   3.1593985016e+00    0.1811804    0.1340465  -6.63 0.0003162722    1.281    0.219
       292  -9.0638     74.5122    204.5496   1.0082458364e+02   2.1610100486e+01     0.135742    0.1238189  53.64 0.0002307911    1.009    0.009
       293 -11.9301     11.4873    202.4974   1.1590735654e+02   2.9176913665e+01    0.3361866     0.222606  85.27   0.00173996    1.335    0.251
       294  -9.0645    122.9907    198.5312   8.7971274462e+01   1.5724596946e+01    0.2092647    0.1310918  35.09 0.0003578904    1.485    0.326
       295 -10.5965     66.0055     18.4915   5.4946342384e+01   6.4109814643e+01    0.2218291    0.2020283  17.19 0.0005525868    1.098    0.089
       296  -9.5805     57.7990    196.5029   1.0409026195e+02   2.5656625522e+01      0.21246    0.1603247  64.50 0.0004543204    1.290    0.225
       297  -9.9628    103.1112    194.6205   9.2279442358e+01   1.9719026417e+01    0.2386646    0.2020403 -46.55  0.000401009    1.254    0.203
       298  -9.6520    167.0550    198.0396   7.7707723129e+01   8.7139317122e+00    0.2067798    0.1816923   0.87 0.0003112917    1.021    0.021
       299  -9.0924     63.4365    188.4426   1.0168451200e+02   2.6868093365e+01     0.135718    0.1289088  72.22 0.0002758988    1.042    0.040
       300  -9.1112      1.0000    184.4944   1.1730491971e+02   3.4244055017e+01    0.2599902   0.06129881 -78.89 0.0008729025    3.713    0.731
       301 -10.8657    249.4241    182.8109   5.9445461078e+01  -7.8141545318e-01    0.2885724    0.1265399 -37.78   0.00145832    1.901    0.474
       302  -8.7973    113.6494    184.2643   8.7921317681e+01   2.0396599502e+01    0.1492614    0.1090373  60.16 0.0006982097    1.616    0.381
       303 -10.1964     28.4229    183.6868   1.1034392058e+02   3.2051413395e+01    0.2262477    0.2048961 -79.99 0.0003303441    1.118    0.106
       304  -8.9689     39.0255    180.0212   1.0719451869e+02   3.1854680925e+01    0.1620118    0.1447831  80.65 0.0003543546    1.005    0.005
       305 -10.2407     23.9956    178.4635   1.1103123916e+02   3.3763280338e+01    0.2331184    0.1614329 -59.46  0.000359434    1.451    0.311
       306  -9.0538      9.4719    179.5396   1.1487484533e+02   3.4771769513e+01    0.1275339    0.1082642  83.45  9.08125e-05    1.019    0.018
       307 -10.9733     36.5409    172.4796   1.0706027353e+02   3.4006212393e+01    0.2477077    0.2234732 -81.49 0.0001493457    1.062    0.059
       308  -9.1493     88.0309    171.4882   9.2573741012e+01   2.7528795328e+01       0.2218    0.1436908  32.11 0.0005859829    1.539    0.350
       309 -12.0093     54.1936    168.6157   1.0164945530e+02   3.2966926446e+01    0.2836315    0.2602892 -85.90 0.0004137447    1.028    0.028
       310  -8.6415    118.3422    169.7257   8.4083211970e+01   2.2961938575e+01    0.1520254    0.1157499  64.94 0.0003668796    1.617    0.382
       311 -10.1147     40.9121    168.1777   1.0535286208e+02   3.4625643577e+01    0.2897022    0.2058367  41.49  0.001170168    1.396    0.284
       312 -10.6135     29.5328    163.9116   1.0808796101e+02   3.6890226669e+01    0.3604971    0.1924195  64.72  0.001391476    2.123    0.529
       313  -9.6299     22.3613    161.3114   1.0985119614e+02   3.8221666256e+01    0.1391561    0.0930113 -40.65 8.011617e-05    1.748    0.428
       314  -9.8570      4.1521    159.7521   1.1480655587e+02   4.0064530225e+01    0.2520957    0.1283842 -52.96  0.001053575    1.987    0.497
