#   1 NUMBER                 Running object number                                     
#   2 MAG_AUTO               Kron-like elliptical aperture magnitude                    [mag]
#   3 X_IMAGE                Object position along x                                    [pixel]
#   4 Y_IMAGE                Object position along y                                    [pixel]
#   5 X_WORLD                Barycenter position along world x axis                     [deg]
#   6 Y_WORLD                Barycenter position along world y axis                     [deg]
#   7 A_WORLD                Profile RMS along major axis (world units)                 [deg]
#   8 B_WORLD                Profile RMS along minor axis (world units)                 [deg]
#   9 THETA_WORLD            Position angle (CCW/world-x)                               [deg]
#  10 FWHM_WORLD             FWHM assuming a gaussian core                              [deg]
#  11 ELONGATION             A_IMAGE/B_IMAGE                                           
#  12 ELLIPTICITY            1 - B_IMAGE/A_IMAGE                                       
         1 -12.1618     73.4577     32.0111   4.0788817726e+01   6.1779916407e+01    0.4477609    0.4255882  -3.31  0.002252088    1.085    0.079
         2 -12.5201    128.5761     23.9672   2.1439122540e+01   4.9880763875e+01    0.3629908    0.2819702 -34.99 0.0003642293    1.350    0.259
         3 -11.8640      4.1108     18.2929   7.1767035465e+01   7.3561359081e+01     0.734345    0.1544459 -50.93   0.00298619    2.939    0.660
         4 -11.8448      3.2793     13.3507   7.0313417533e+01   7.4597147351e+01    0.3934124    0.2369292 -39.95   0.00125739    1.319    0.242
         5 -10.8876     20.2124     17.6649   6.0725725528e+01   7.2404307372e+01    0.3227491    0.2693143 -69.65  0.001235006    1.659    0.397
         6 -12.4268     28.5964     19.6593   5.6521664922e+01   7.1119599997e+01    0.3031575    0.2297851   2.67 0.0002729506    1.295    0.228
         7 -11.4252    137.0546     14.9521   1.6430976693e+01   4.8648123543e+01    0.2927972    0.2126053 -55.09 0.0003435824    1.514    0.339
         8 -10.4609     82.1196      7.3775   2.5678333564e+01   6.3215485778e+01     0.266003    0.1827633 -15.64 0.0004972889    1.518    0.341
         9 -11.3314     75.3212     10.6986   2.9605519901e+01   6.4370124096e+01    0.7162963    0.2203445  47.28  0.002633091    2.832    0.647
        10 -11.2223    102.2398      9.2685   2.1140354559e+01   5.8212741586e+01     0.487482    0.2135321 -19.82  0.001852207    2.515    0.602
        11 -10.1093    138.0619     10.5500   1.4628877824e+01   4.8819094945e+01    0.2439675    0.1686373 -51.58  0.000743145    1.575    0.365
        12 -10.9822      9.9371      9.1152   6.3433803355e+01   7.4927000730e+01    0.3394046    0.2387488  31.75  0.002123514    1.714    0.417
        13 -11.3194    119.5995     11.6442   1.8364078069e+01   5.3564973981e+01     0.290881    0.2443837  20.72 0.0002730166    1.261    0.207
        14 -11.2418    145.4023      7.7867   1.2512369540e+01   4.7127709469e+01    0.4082901    0.2584296 -22.59  0.001698207    1.712    0.416
        15 -10.0975     27.1413     11.3990   5.2999405037e+01   7.2736172594e+01    0.2921845    0.1111256 -33.57  0.001223389    2.721    0.633
        16 -11.0478    159.3246      8.6189   1.0934125228e+01   4.3352348829e+01    0.4406399    0.1747002  79.10  0.001597697    2.717    0.632
        17 -10.3624    154.1605      8.1529   1.1439972069e+01   4.4765299983e+01    0.2373589    0.1926517  80.70 0.0004334708    1.147    0.128
        18 -10.4801     36.6414      7.7193   4.5153857705e+01   7.2000851054e+01    0.2984397    0.2150137  37.41  0.001071676    1.475    0.322
        19 -11.2110    164.8016      5.0233   9.1099488581e+00   4.2237243758e+01    0.3171768    0.2051063 -46.00 0.0008220759    1.552    0.356
        20 -11.2328    168.1179      2.0059   7.7909453371e+00   4.1633819871e+01    0.2452483    0.1831656  80.00 0.0003373354    1.224    0.183
        21  -9.5470     42.6657      7.2313   4.1576222871e+01   7.1116507600e+01    0.1084715    0.1009635  60.92 0.0002862706    1.531    0.347
        22  -9.9300     20.1637      6.2933   5.4581397811e+01   7.4415198273e+01    0.2847682   0.06554139 -41.27  0.001024413    3.779    0.735
        23  -9.9211    222.9526      5.7550   4.2012949229e+00   2.7727842493e+01    0.1707074    0.1416474 -67.69 0.0002237509    1.047    0.045
        24 -10.9933    125.4970      2.9315   1.3761026610e+01   5.2824565534e+01    0.3609797    0.3351432  37.47  0.001660876    1.100    0.091
        25 -10.5299    229.9907      1.9627   2.8296229260e+00   2.6506249913e+01    0.2733226    0.1480411 -28.69  0.001215062    1.756    0.430
        26 -10.6938    179.0004      3.9422   7.2894737432e+00   3.8636324993e+01    0.1990347    0.1797902 -83.99 0.0002949118    1.013    0.013
        27 -11.2468     74.0724      2.4727   2.5623058072e+01   6.5523999278e+01    0.3361031    0.2644345 -52.46  0.001538877    1.652    0.395
        28 -10.6064     16.2707      3.1690   5.5408614325e+01   7.5360044438e+01    0.2095492    0.1609185 -51.08  0.001344619    1.618    0.382
        29 -10.6338    242.7800      3.0910   2.3394412075e+00   2.3618907433e+01    0.2173395     0.162324  75.26 0.0008301371    1.421    0.296
        30  -9.8125     98.0213      3.3444   1.9409509596e+01   5.9813991905e+01    0.1921225    0.1601537  51.38 0.0003877409    1.077    0.071
        31 -10.6167     91.0066      2.1912   2.0580584860e+01   6.1625894111e+01    0.2078662    0.1842637   2.89 0.0002714575    1.158    0.136
        32 -10.9392     26.7820      2.3014   4.7674415909e+01   7.4213488063e+01    0.2957983    0.2059835  15.06  0.001817723    1.369    0.269
        33 -10.3209     22.5116      1.5310   4.9985634054e+01   7.4888071898e+01    0.2117278    0.1585237   5.05  0.001139584    1.209    0.173
        34 -10.2901    140.9957      1.6558   1.0924670886e+01   4.8834346834e+01    0.2019609    0.1567264  72.32 0.0002088577    1.166    0.143
        35 -11.0903     11.0333      2.2759   5.8749202983e+01   7.6038548789e+01    0.2536406    0.1650325 -12.48  0.001012552    1.464    0.317
        36  -9.2363    134.7308    196.6386   6.5440547757e+01   1.5916803744e+01    0.1276036   0.09864946  -3.62 0.0002914836    1.648    0.393
        37  -9.7176    109.9859    250.2305   7.6882955504e+01   1.0841436517e+01    0.1569893   0.07248337  37.35 0.0006425757    1.616    0.381
        38 -12.2899     21.1482    248.3565   9.3246836355e+01   2.1734307027e+01    0.5264667    0.1102316  45.26   0.00267576    2.581    0.613
        39 -12.0344      8.1243    248.8037   9.5531959887e+01   2.2911880360e+01    0.4839666    0.1727543  38.17  0.002654877    2.007    0.502
        40 -11.1804      5.6826    244.4284   9.5827496521e+01   2.3862605448e+01     0.250274    0.1331984  48.54  0.001014205    1.308    0.235
        41  -9.6697    186.4719    193.5049   5.4176581668e+01   7.8172292142e+00    0.1309855    0.1086741  17.33 0.0008099717    1.012    0.012
        42 -11.7735     15.7506    192.1319   9.1845334479e+01   3.2680162646e+01    0.3078626    0.2858107  18.98  0.001967294    1.461    0.316
        43  -9.6309    145.2711    190.3420   6.2167231335e+01   1.5275300770e+01    0.1306256   0.09954811  -0.78 0.0004090034    1.611    0.379
        44  -9.9940     61.9426    184.5131   8.0690857022e+01   2.9235106779e+01     0.194455    0.1576292 -88.18  0.001002182    1.215    0.177
        45 -11.8192     16.4567    181.8233   9.1131998979e+01   3.4772277196e+01    0.3801283     0.210535  45.97  0.002279276    1.525    0.344
        46 -10.9744     23.2567    180.2789   8.9474158201e+01   3.4470853258e+01    0.3601238     0.129128  56.64  0.001632212    2.558    0.609
        47  -9.6538      1.4738    180.4668   9.4434822303e+01   3.6321950000e+01    0.1123331   0.08948885  74.01 0.0008083908    1.062    0.058
        48 -11.3571    243.6759    179.9476   4.1509336199e+01   6.7757724644e-01    0.2716977   0.09826426 -31.36  0.001237622    2.580    0.612
        49 -10.5712    248.4676    168.5428   3.8593055324e+01   1.4041236897e+00    0.1223937   0.09806057  -3.61 0.0001355695    1.024    0.023
        50 -10.6155     68.0059    165.9901   7.7099152528e+01   3.2498053704e+01    0.3068713    0.1634263 -86.85  0.001344471    2.406    0.584
        51  -9.7604     33.4411    166.4033   8.5980758157e+01   3.6520879612e+01     0.183739    0.1193521  61.93 7.236472e-05    1.375    0.273
        52  -9.7090     36.4948    165.5241   8.5133020173e+01   3.6401879498e+01    0.1745466    0.1224301  17.03  0.000990486    1.811    0.448
        53 -10.8339     50.7405    162.1938   8.1136042169e+01   3.5562191470e+01    0.4014861    0.1735326 -73.23  0.001777308    2.324    0.570
        54 -11.0816      7.4812    163.9465   9.2237228084e+01   3.9421868444e+01    0.1981623    0.1566109  46.46 0.0003172093    1.254    0.203
        55  -9.2978    132.6501    161.6791   6.0106108869e+01   2.2941404310e+01     0.146962    0.1111986   1.46 0.0001027587    1.743    0.426
        56 -10.5387     67.0241    157.8534   7.6307837303e+01   3.4486019132e+01    0.1976716    0.1735034  66.86 0.0003528573    1.025    0.024
        57 -10.4459     20.2479    157.5720   8.8629775317e+01   3.9792409046e+01    0.2129896    0.1965447 -43.81  0.001483808    1.385    0.278
        58 -10.2733    216.4576    154.4722   4.1081502016e+01   8.5650245864e+00    0.1334461    0.1156242  -0.41 9.402767e-05    1.015    0.015
        59  -9.9419    158.4216    153.8581   5.2576657683e+01   1.9591181095e+01    0.2537317     0.165915  35.50  0.001209989    1.459    0.314
        60  -9.9065     40.7831    153.0107   8.2794562786e+01   3.8827591553e+01    0.1817594    0.1437244 -88.04 0.0005910908    1.146    0.128
        61 -12.1620    238.1380    151.6450   3.6862881800e+01   5.2642692175e+00    0.3534317    0.2409104  72.41  0.001614509    3.483    0.713
        62  -9.9884    249.6123    151.3080   3.5018657552e+01   3.4590233256e+00    0.1135154    0.0974828 -59.74 0.0007016145    1.811    0.448
        63 -10.8726     13.9805    147.9863   8.9557557880e+01   4.2533422593e+01    0.1818404    0.1475966  78.30  0.001206084    1.019    0.019
        64 -10.6291    234.2802    146.9965   3.6519340334e+01   6.5588188689e+00    0.1907793    0.1465117 -21.81 0.0009460231    1.158    0.137
        65  -9.7818     14.0227    140.0318   8.8936416309e+01   4.4393612233e+01    0.1487873    0.1235813  83.04 0.0003157004    1.005    0.005
        66  -9.9770     65.4594    139.0199   7.4035878982e+01   3.9137924871e+01    0.2033165    0.1304444 -66.24 0.0005553853    1.517    0.341
        67 -10.3458    235.9944    137.7824   3.4301792475e+01   7.5695624665e+00    0.1813535    0.1577297   8.45 0.0008403526    1.100    0.091
        68 -13.2698     37.5012    135.4333   8.1740529788e+01   4.3371115123e+01    0.4689996    0.2914609 -73.99 0.0005220362    1.469    0.319
        69 -11.1862     37.7024    130.2805   8.1043569492e+01   4.4604406967e+01    0.2984276    0.2126514 -84.76 0.0005912214    1.303    0.232
        70 -10.7051      2.6975    136.5285   9.1822453062e+01   4.6030614908e+01    0.3323704   0.06872102 -72.44  0.001228472    3.539    0.717
        71  -9.8847     21.0000    134.9976   8.6517429124e+01   4.5025478496e+01    0.2087449    0.0634592 -75.15 0.0007968021    2.904    0.656
        72 -12.9057    243.2598    132.7453   3.2114025665e+01   7.0212247075e+00    0.4490042    0.3111219  29.27  0.002489613    1.521    0.343
        73 -11.4901    243.9329    127.4883   3.0884555700e+01   7.6370199760e+00    0.2055441    0.1540968  15.36 0.0006053781    1.402    0.287
        74 -10.5597     59.0212    131.4982   7.4762590937e+01   4.1818221756e+01    0.2164465    0.1734077 -71.37 0.0005336175    1.184    0.156
        75 -10.8239     53.0031    131.6018   7.6595020192e+01   4.2553315211e+01    0.2756231    0.1789534  88.78  0.001359608    1.673    0.402
        76 -10.9558     73.4704    129.0723   6.9992579873e+01   4.0393064765e+01    0.2911663    0.2180123  51.04  0.000752913    1.329    0.248
        77 -10.4990      4.0553    130.3277   9.1014762606e+01   4.7401745349e+01    0.1602139    0.1416393  66.60 0.0005233691    1.146    0.127
        78 -10.3441    234.2973    127.3078   3.2293994957e+01   9.3744850287e+00    0.1337824   0.09409269   4.01 0.0002229961    1.591    0.372
        79 -11.0731     56.3728    126.9351   7.4842852066e+01   4.3274306433e+01    0.2414777    0.2033271  18.45 0.0006254201    1.384    0.277
        80 -10.5979     24.5474    126.5200   8.4596777093e+01   4.6772481132e+01    0.1290594    0.1106244 -88.79  0.000121466    1.007    0.007
        81 -10.8485     15.9125    125.3961   8.7104719940e+01   4.7748720859e+01    0.2965305    0.1443232  26.27  0.001486595    2.230    0.552
        82 -10.0118     30.4937    124.5314   8.2535807009e+01   4.6722362850e+01    0.1316928    0.1137741  87.18  7.18989e-05    1.027    0.026
        83 -10.6822      3.7908    123.4020   9.0576289111e+01   4.9065725420e+01    0.2625767    0.1427075 -54.14   0.00141865    1.860    0.462
        84 -10.5346     19.8896    122.3373   8.5575961675e+01   4.8180803790e+01    0.2332517    0.1463894 -86.50 0.0008644789    1.438    0.304
        85 -11.5246      9.8436    121.2961   8.8570907314e+01   4.9177823902e+01     0.494712    0.2209077  75.97  0.002108126    2.456    0.593
        86 -10.6204     69.4214    121.4926   6.9830102075e+01   4.2828925463e+01    0.4033501    0.2464523  10.84  0.001675456    2.562    0.610
        87 -10.8668     56.6547    121.1404   7.3791927920e+01   4.4662248495e+01    0.2230187    0.1634244 -88.70 0.0007175929    1.428    0.300
        88 -12.0124    249.8260    118.1426   2.8019046973e+01   7.9029870323e+00    0.3343239    0.1995562 -36.93  0.001611769    1.510    0.338
        89 -10.6674      1.4115    118.5717   9.0921824759e+01   5.0363165098e+01    0.2264436   0.09884813 -78.45 0.0004639605    1.885    0.470
        90 -12.1234     52.5919    115.8816   7.4192349727e+01   4.6470971384e+01    0.2791724    0.2218901 -75.21 0.0001821691    1.185    0.156
        91 -11.3878      9.9472    111.1916   8.7576220913e+01   5.1622086602e+01    0.7588793    0.1840034 -46.67  0.002321891    5.613    0.822
        92 -11.1031     25.2675    106.9581   8.1950299031e+01   5.1521002553e+01    0.2257804    0.1939194  27.97  0.001315586    1.325    0.246
        93 -11.7510     16.1048    115.1669   8.6000144468e+01   5.0223632229e+01    0.3448967    0.2233558  59.62 0.0008157102    1.564    0.361
        94 -12.7797     16.5496    110.6269   8.5348426793e+01   5.1303080718e+01    0.5650271    0.4568508 -10.19  0.003506098    1.567    0.362
        95 -10.1932    182.6254    114.3318   3.8326687629e+01   2.1874649359e+01    0.2414036    0.2223239 -76.56 0.0005315375    1.279    0.218
        96 -10.0518    105.6002    114.7954   5.7370061874e+01   3.8291174772e+01    0.2140634    0.1452932 -62.86 0.0009474927    1.644    0.392
        97 -12.6428    248.2411    111.9922   2.6887583171e+01   9.0294803225e+00    0.5335163    0.3093566  22.97  0.002541821    2.413    0.586
        98 -11.8360    249.0877    105.8223   2.5406148521e+01   9.7277957649e+00    0.2740489    0.2029268 -72.70  0.001500892    2.059    0.514
        99 -10.9665     55.2479    109.7488   7.2195057856e+01   4.7654301837e+01    0.2526754    0.2250189 -51.21 0.0006959304    1.134    0.118
       100 -11.1463     31.2555    108.9455   8.0193060803e+01   5.0498224347e+01    0.3103944    0.1635934  85.14   0.00135463    2.319    0.569
       101 -10.3929     72.0021    115.8003   6.7896880363e+01   4.3835030453e+01    0.2390219    0.1975518 -87.66  0.001270035    1.266    0.210
       102 -10.2800     92.3293    111.1448   6.0477129490e+01   4.1602423893e+01    0.2749147    0.1760404  54.48 0.0006690174    1.742    0.426
       103  -9.6971    111.9259    105.9709   5.3322122507e+01   3.9036422273e+01    0.1823326    0.1645979  42.32            0    1.101    0.092
       104  -9.8176     62.2874    106.6747   6.9208034774e+01   4.7473472616e+01    0.1451194    0.1065605  75.21 0.0002010901    1.608    0.378
       105 -10.9582     22.5922     99.9158   8.1888261852e+01   5.3481573445e+01    0.4276587    0.1849008  38.62  0.001948592    2.406    0.584
       106 -11.5041     62.1700     98.5117   6.7475389532e+01   4.9487641383e+01    0.3687317    0.2488786 -58.43  0.001190492    1.390    0.280
       107  -9.8886     47.9270    100.4497   7.2925875667e+01   5.0853645993e+01    0.1855286    0.1359693  32.56 0.0003875557    1.465    0.317
       108 -11.1156     33.1024     97.4301   7.7705058661e+01   5.3180281417e+01    0.4841281    0.2327809  71.60     0.001755    3.612    0.723
       109  -9.8162      9.7216     99.0614   8.6337300252e+01   5.4598718468e+01    0.1726369    0.1325108 -78.68 0.0002953115    1.097    0.089
       110 -10.7375     15.6698     96.8894   8.3947936553e+01   5.4742655067e+01    0.2630891    0.1740941  -4.11  0.001392327    1.981    0.495
       111  -9.2410     57.3083     96.2883   6.8699319035e+01   5.0697630953e+01    0.1414907    0.1052031 -29.25  0.000196877    1.575    0.365
       112 -10.5881     66.9220     97.8510   6.5660595689e+01   4.8960896878e+01    0.2356772    0.2061951  28.21  0.001297381    1.224    0.183
       113 -11.3963    249.5835     91.6572   2.2160789280e+01   1.1574900818e+01     0.250344    0.1134496 -26.80  0.000867774    2.055    0.513
       114 -10.3622    231.5484     91.5090   2.4476433814e+01   1.5107493931e+01    0.1357423    0.1199876 -29.25 6.870527e-05    1.011    0.011
       115 -10.1888     56.5160     90.4924   6.7652479564e+01   5.2215001190e+01    0.2831998    0.1292462 -57.82 0.0007795696    2.007    0.502
       116 -10.9107     10.5399     90.8896   8.5030297946e+01   5.6547537293e+01    0.1921695     0.184635  -1.38  0.000365818    1.241    0.194
       117 -10.0862    158.6615     89.6732   3.6799061501e+01   3.1858546090e+01    0.1621538     0.121174  14.19 0.0007051625    1.728    0.421
       118  -9.8653     87.2102     89.3698   5.6506944305e+01   4.7599750872e+01    0.2456733    0.1904388  85.11 0.0007892337    1.705    0.414
       119 -10.2771     83.1928     88.8279   5.7711173091e+01   4.8448167412e+01    0.2598673    0.2124307  -5.55 0.0008558214    1.487    0.328
       120  -9.7583     60.6759     89.3315   6.5838731884e+01   5.1923197871e+01    0.1471266    0.1093188  74.58 0.0007050463    1.704    0.413
       121 -11.1004     22.2764     87.9855   8.0150006939e+01   5.6447964610e+01     0.366138    0.2006527  85.04  0.001679772    2.236    0.553
       122 -10.6384     65.3634     86.3588   6.3357118344e+01   5.1951064047e+01    0.2743849    0.1827676 -53.30  0.001324258    1.410    0.291
       123 -11.4922    107.2558     84.7189   4.8732507341e+01   4.4664382581e+01    0.3131763    0.2712743  75.37 0.0002892125    1.328    0.247
       124 -11.6750     30.4129     82.2784   7.5901320233e+01   5.7159942253e+01    0.4702045    0.1970949 -61.94  0.001837799    2.001    0.500
       125 -11.1182    247.2477     84.4039   2.0790798586e+01   1.3002164571e+01     0.159892    0.1271381  81.95 0.0007309881    1.599    0.375
       126 -10.8468     76.7630     82.3544   5.8115409161e+01   5.1057111453e+01    0.3072245    0.2265846  62.31 0.0009226887    1.676    0.403
       127  -9.3201     94.5020     88.5047   5.3860670782e+01   4.6422431727e+01      0.15005    0.1473923 -74.85  0.000810363    1.039    0.038
       128 -10.4060      7.4315     81.4883   8.4946468593e+01   5.9016775421e+01    0.3031441    0.1486981 -52.77   0.00154101    1.766    0.434
       129 -10.6745     26.3236     78.0938   7.6715635380e+01   5.8537806564e+01    0.1824948    0.1572349 -70.63  0.000551347    1.070    0.066
       130 -11.3684     21.9631     74.8375   7.7878507018e+01   5.9679167090e+01    0.2474297    0.1692332 -66.49  0.001387556    1.270    0.213
       131  -9.3134    155.2442     77.2735   3.3922146543e+01   3.4931012287e+01    0.1454034    0.1193741  11.58 0.0002658397    1.442    0.306
       132 -11.1679     99.9023     76.3759   4.8425513387e+01   4.7978818940e+01    0.3113719    0.2232112 -49.29  0.001078086    1.419    0.296
       133  -9.7758     88.1613     77.3919   5.2630758522e+01   5.0106498042e+01    0.2013782    0.1399367  53.11 0.0001008221    1.603    0.376
       134 -10.4133     37.6353     76.3452   7.1661223839e+01   5.7891734603e+01    0.2874863    0.1616927 -33.66  0.001313239    2.075    0.518
       135 -10.3152     44.8884     74.6761   6.8256121624e+01   5.7482189702e+01    0.1837007    0.1711623  36.39 0.0008071264    1.179    0.152
       136 -11.9708    167.7421     73.4408   3.0182806215e+01   3.2501976665e+01    0.2686066    0.2498703 -52.16 0.0002859143    1.082    0.076
       137  -9.4614     61.6819     73.2937   6.1104609330e+01   5.5555923455e+01    0.1397762    0.1120172  75.63 0.0002890365    1.605    0.377
       138 -10.4092      7.0599     73.3703   8.3896117212e+01   6.0998068879e+01    0.2490985    0.1531103  -1.07  0.001263763    2.023    0.506
       139 -10.2173      1.6783     72.9280   8.6082807330e+01   6.1364753196e+01    0.1857159    0.1343526 -71.53  0.001150596    1.136    0.120
       140 -14.1705     16.7323     67.2666   7.8615214197e+01   6.1878481204e+01    0.4891192    0.3616653 -53.33  0.001227066    1.157    0.136
       141  -9.6630     91.1432     70.1186   4.9261538956e+01   5.1081025325e+01    0.1928068    0.1752485  79.84  0.001012532    1.271    0.213
       142 -11.4525     50.2552     68.1934   6.4233066604e+01   5.8331570678e+01    0.2794938    0.2063856 -41.24 0.0004999956    1.275    0.216
       143 -10.5288      6.6965     68.6190   8.3285038570e+01   6.2156144612e+01    0.2596081     0.147428 -80.23 0.0009001295    1.646    0.393
       144 -11.1396    122.7324     67.4280   3.8714176225e+01   4.4645918709e+01    0.2737581    0.2542476 -44.34 0.0004661706    1.100    0.091
       145 -12.5175    146.9516     65.5101   3.2104555288e+01   3.9041760302e+01    0.3067166    0.2788392 -52.67 0.0003330586    1.131    0.116
       146  -9.8229     93.8033     66.7503   4.7223893464e+01   5.1236634852e+01    0.1992821    0.1777084 -76.22 0.0004290316    1.310    0.237
       147 -11.9584     30.6956     63.8718   7.1557178735e+01   6.1544891555e+01    0.5170806     0.299422  34.01  0.001721715    1.909    0.476
       148 -11.0647     28.4918     61.0000   7.1810115377e+01   6.2420510710e+01    0.3574974    0.1862497  22.86  0.001155842    2.142    0.533
       149 -10.1987    105.4575     65.1921   4.2944883224e+01   4.9050210117e+01    0.3496275    0.2262022  -1.49   0.00126401    2.732    0.634
       150 -10.1235    110.3348     64.4970   4.1230632794e+01   4.8086541166e+01    0.2705951    0.1858127 -59.66   0.00116978    1.824    0.452
       151 -10.1882     81.5079     65.0108   5.0907191027e+01   5.4023477917e+01    0.2274034    0.1951566  35.77 0.0004784979    1.187    0.158
       152 -11.5931      3.0245     63.4846   8.4056688769e+01   6.3554521838e+01    0.3638991     0.267516  82.76  0.001762078    1.445    0.308
       153 -12.9598    231.8554     58.9948   1.6557426540e+01   1.9552705820e+01    0.7854838    0.3250706 -45.99  0.003287605    2.307    0.567
       154 -10.7957    202.0254     62.4863   2.1266675379e+01   2.5830684229e+01    0.2557243    0.1952585 -31.21  0.001332733    1.260    0.206
       155  -9.9812    155.6672     62.5248   2.9282830799e+01   3.7337251623e+01     0.273849    0.1429956 -32.48  0.001078218    1.947    0.486
       156 -11.0489     51.9462     62.2153   6.1685177235e+01   5.9463726563e+01    0.3202315    0.2453964 -16.43  0.001706518    1.459    0.315
       157 -11.6080     46.6521     60.4721   6.3432706887e+01   6.0554751045e+01    0.3898239    0.2412202 -26.67 0.0009596412    1.923    0.480
       158 -13.1909     12.5046     47.4274   7.6069310974e+01   6.6781071576e+01    0.4620981    0.3691227 -60.97 0.0007187438    1.119    0.106
       159 -10.9872      6.2454     58.5290   8.1679887032e+01   6.4569381027e+01     0.489335    0.2027058  51.88  0.001980521    3.748    0.733
       160  -9.9684      7.1808     41.0935   7.7249449491e+01   6.8521359998e+01    0.2664898    0.1813058 -37.42 0.0009674691    1.311    0.237
       161 -12.2356     10.2069     56.0439   7.9276031354e+01   6.4937130614e+01    0.8454277     0.507323  86.11  0.003377711    2.098    0.523
       162 -12.2057      3.3630     49.9516   8.1362506330e+01   6.6700913438e+01    0.7963231    0.2693354 -59.23  0.003650216    2.119    0.528
       163  -9.8474    150.6076     60.8024   2.9793206670e+01   3.8903616624e+01    0.2070229    0.1400532 -44.53 0.0002419719    1.514    0.339
       164 -10.4352     89.5345     60.4539   4.6455618609e+01   5.3377221786e+01    0.4236414    0.2764192 -80.78  0.001412296    3.404    0.706
       165  -9.6246    109.4088     60.4054   4.0067417366e+01   4.9066909090e+01    0.1489677    0.1450313  17.20   5.6939e-05    1.001    0.001
       166  -9.6436    169.2641     59.3428   2.5661837375e+01   3.4384023216e+01    0.1503332    0.1169271  15.78 0.0006977017    1.599    0.375
       167 -10.9603    135.6834     58.4711   3.2384048236e+01   4.3063769492e+01    0.3570206    0.2706703  75.08  0.001659952    1.523    0.343
       168 -10.8114    127.2119     58.9029   3.4624712355e+01   4.5094752189e+01    0.2585852    0.2133265  45.70 0.0002072008    1.189    0.159
       169 -10.4251     58.8393     58.7990   5.7624035847e+01   5.9219441125e+01    0.2155863    0.1836519 -20.00  0.000517664    1.175    0.149
       170 -11.0011     80.0344     56.8128   4.8517879009e+01   5.5980853540e+01    0.4399529    0.2948664  -4.71  0.001723143    2.238    0.553
       171  -9.6801     46.3619     55.2582   6.1864555709e+01   6.1750480144e+01    0.1390441   0.09856258 -16.89 0.0002580827    1.628    0.386
       172  -9.6534    145.9692     54.0708   2.8576187869e+01   4.1168489669e+01    0.1797926     0.170016  61.45            0    1.038    0.036
       173 -12.5300    105.0459     52.5191   3.8490240294e+01   5.1496688741e+01    0.3044779    0.2813853 -16.79 0.0003239723    1.087    0.080
       174 -12.4684     38.7613     50.4287   6.3773141464e+01   6.3744599106e+01    0.5488861    0.5146908 -19.91   0.00281496    1.084    0.077
       175 -11.4337    128.9615     49.9877   3.1048225020e+01   4.6143471452e+01    0.4494318    0.2707603  45.47  0.001497248    1.646    0.392
       176 -10.3940     89.2149     50.5883   4.2866847868e+01   5.5330414121e+01     0.199425    0.1906899 -40.15 0.0005668797    1.107    0.097
       177  -9.8982     73.4374     50.7867   4.8738146356e+01   5.8411385635e+01    0.2116404    0.1301692 -30.74 0.0009495885    1.730    0.422
       178 -11.4404     52.1299     47.4066   5.6421410084e+01   6.2625626337e+01    0.5856712    0.3475433 -59.76  0.002696135    2.039    0.510
       179  -9.7843    164.0049     48.4747   2.3229106670e+01   3.7352140100e+01    0.2192519    0.1450288  62.85 0.0003378193    1.491    0.329
       180 -11.3762     44.8082     43.6268   5.8389086815e+01   6.4430092677e+01    0.5684409    0.2911255 -60.43  0.002415376    2.486    0.598
       181 -11.6065     45.0259     38.1696   5.6089437127e+01   6.5500530567e+01    0.2753374    0.2509497 -62.45            0    1.327    0.246
       182 -10.2212     82.9105     46.6736   4.3542727906e+01   5.7349673628e+01    0.2586651    0.1968488 -18.73  0.001297425    1.408    0.290
       183 -10.4448     77.7284     45.8937   4.5143466323e+01   5.8525519208e+01    0.4106567    0.2055337 -54.48   0.00109432    2.855    0.650
       184 -10.0395     62.2154     47.3927   5.1979305858e+01   6.1049829733e+01    0.1805037    0.1321024  45.16 0.0003191376    1.513    0.339
       185 -11.0667    121.8208     43.7602   3.0537321237e+01   4.8910457573e+01    0.4118405    0.2380527 -30.61  0.001520764    1.797    0.443
       186 -12.1972    112.3178     45.4933   3.3709126238e+01   5.0972054596e+01    0.2689682    0.2573051  16.50 0.0002701445    1.029    0.028
       187  -9.9658    104.4773     46.4617   3.6343304641e+01   5.2670558093e+01    0.1492144    0.1423043  21.60 8.210634e-05    1.007    0.007
       188 -10.7477    153.1321     45.0879   2.4129677737e+01   4.0665651330e+01    0.2505516    0.2047941  62.09 0.0003343907    1.190    0.160
       189 -10.3348    141.6265     45.1634   2.6467339399e+01   4.3646958392e+01     0.393897    0.1773503  64.82  0.001419485    2.409    0.585
       190 -10.6641     23.9348     42.2972   6.8517063040e+01   6.7049683859e+01    0.2760252    0.1561494 -56.77  0.001095379    1.569    0.363
       191 -11.2594     97.4034     41.5010   3.6536060606e+01   5.5117390072e+01    0.4016852    0.2626853  16.82  0.000826631    2.087    0.521
       192 -10.5313     72.9015     43.1189   4.5862087400e+01   5.9964075304e+01    0.2035732    0.1955572 -70.04 0.0003968711    1.241    0.194
       193 -10.2192     55.7747     43.1648   5.3098553836e+01   6.2926433025e+01    0.2665541    0.1583308  49.61  0.001224749    2.132    0.531
       194 -10.4909     27.5676     53.7913   7.0249600837e+01   6.4163037965e+01    0.2246922     0.180265  11.68  0.001141574    1.373    0.272
       195  -9.9939    162.8908     41.9070   2.1325499313e+01   3.8562905696e+01    0.1996082    0.1667988 -69.52  0.001024937    1.260    0.206
       196 -10.1506    130.9556     41.6996   2.7580538111e+01   4.6906810981e+01    0.2120152    0.1898656  63.73 0.0004439587    1.100    0.091
       197 -10.9816     88.8334     41.1067   3.9178071849e+01   5.7082751868e+01    0.3232698    0.2903256  86.43  0.001128693    1.381    0.276
       198 -11.2229     83.7526     36.7671   3.9097357460e+01   5.8889886940e+01    0.4274859    0.3203113 -37.07  0.001612012    1.357    0.263
       199 -10.6575     78.4002     41.0707   4.2890702384e+01   5.9261156375e+01    0.2414837    0.2015815  60.22  0.000370739    1.418    0.295
       200  -9.7176     67.6416     41.3128   4.7218645644e+01   6.1270510098e+01    0.1370434    0.1150634  88.55 0.0007043206    1.744    0.427
       201 -10.2093     60.1853     41.3902   5.0411142357e+01   6.2555116170e+01    0.1816707    0.1297949  46.65 0.0004404214    1.586    0.369
       202 -10.1116    236.1403     39.8366   1.1451109094e+01   2.1046795074e+01     0.165781    0.1518281  23.63 0.0005336205    1.332    0.249
       203 -10.0916    226.3458     39.9528   1.2425748645e+01   2.3186917244e+01    0.2756073   0.09316234 -36.02  0.001096632    2.410    0.585
       204 -10.9762    109.5326     38.4059   3.1706751748e+01   5.2752681624e+01    0.3641189    0.2266428 -35.93  0.001111384    1.644    0.392
       205 -11.4778    111.2122     34.7741   2.9793924511e+01   5.2878288265e+01    0.2980357    0.2451496  51.21 0.0008584411    1.162    0.139
       206 -12.2970     57.3430     34.9437   4.8879076680e+01   6.4228740951e+01    0.5061972    0.3642871  -1.87  0.002626128    1.606    0.378
       207 -12.8066     27.6311     37.6829   6.4902300546e+01   6.7684382442e+01    0.2655494    0.2442412 -41.01  0.000402421    1.133    0.118
       208 -11.5083     24.5068     34.5802   6.5453237386e+01   6.8639525601e+01    0.3181385    0.1769119 -39.79  0.001169522    1.582    0.368
       209 -11.2726    248.0440     36.3995   9.5957224995e+00   1.8946650930e+01     0.221728    0.1726094 -36.06 0.0003173474    1.140    0.123
       210  -9.6404    201.9899     37.2682   1.4369252387e+01   2.9224947890e+01    0.1661693    0.1190902  72.64 0.0003699734    1.415    0.293
       211 -11.2131     65.1926     36.8054   4.6289179679e+01   6.2530590301e+01    0.2153925    0.1822089  43.44 0.0002827049    1.283    0.221
       212  -9.9636      1.4216     37.1524   7.9449905348e+01   6.9681502734e+01    0.1845707   0.09675083 -63.38  0.001004651    1.551    0.355
       213 -11.1111     97.1350     36.0832   3.4376310449e+01   5.6038145751e+01    0.2171392     0.209663  23.24 0.0005673967    1.045    0.044
       214 -10.8426     74.6672     35.9335   4.2086554065e+01   6.0889427504e+01    0.2362322    0.1961259  35.04 0.0004538959    1.183    0.155
       215 -10.2636    247.4896    249.5351   5.2364498786e+01  -7.3791856295e+00    0.1059658   0.07220216  11.82  0.000809506    1.015    0.014
       216 -10.7197      9.8072     34.5874   7.3882975068e+01   6.9800364162e+01    0.2547559    0.1876453   8.69  0.001611423    1.503    0.334
       217 -11.3291      7.1167     30.2532   7.4101295977e+01   7.0895962598e+01    0.3332778    0.2287151 -86.25 0.0009648736    1.920    0.479
       218  -9.9879    146.2716     33.9361   2.1626100399e+01   4.3991098052e+01    0.1991959    0.1830834 -20.23 0.0003632167    1.155    0.134
       219  -9.6329    134.5547     34.5108   2.4157443775e+01   4.6986083617e+01    0.1482117    0.1413896 -87.73 0.0001504323    1.077    0.072
       220 -10.5122    122.6667     33.5072   2.6424968487e+01   5.0186797779e+01    0.3000572     0.195233  51.35  0.001068746    1.444    0.307
       221  -9.4219     34.4711     33.5562   5.9574076465e+01   6.7776624402e+01    0.1298124    0.1133688 -25.82 0.0001626809    1.028    0.027
       222 -11.0993     18.1565     31.4112   6.7897636402e+01   6.9868237511e+01    0.4533888    0.2377584   3.47  0.002003426    2.388    0.581
       223 -10.9564    156.8895     28.1850   1.7814870489e+01   4.1904694641e+01    0.2352006    0.2172424  86.33  0.000321477    1.042    0.041
       224 -11.0488    160.0530     25.0218   1.6269025597e+01   4.1440597259e+01    0.2283108    0.2070626 -37.69 0.0003628906    1.142    0.125
       225 -10.5115    101.2286     28.3396   2.9863705496e+01   5.6203323635e+01    0.2612749    0.2241302 -50.09 0.0005307908    1.317    0.241
       226 -10.2227     50.0711     27.8968   4.9011600950e+01   6.6668183153e+01    0.3940746    0.2002462 -16.60  0.001393901    3.752    0.733
       227  -9.7535     11.8592     29.2313   7.0864500266e+01   7.0807476422e+01    0.1639191    0.1124442 -34.93 0.0003213873    1.256    0.204
       228 -11.1148    118.6085     27.5329   2.5029198158e+01   5.2011158862e+01    0.3197451    0.2574785  82.04  0.001568295    1.388    0.280
       229 -11.5087    112.5541     26.5984   2.6113328073e+01   5.3659342307e+01     0.435448     0.295563  -3.71  0.002018666    1.801    0.445
       230  -9.9230    197.9966     28.0000   1.2257649702e+01   3.1320137129e+01     0.226873   0.07631412  69.73 0.0008060099    2.967    0.663
       231  -9.8746    144.6825     27.2822   1.9575400433e+01   4.5245682176e+01    0.1496095    0.1090822 -69.10 0.0004019427    1.582    0.368
       232 -10.0030     61.2806     26.9551   4.3401897448e+01   6.4919712081e+01    0.2029725    0.1641343 -20.59  0.001154914    1.170    0.146
       233 -10.6262    216.4486     25.3472   9.6687461466e+00   2.7175341331e+01    0.2251215    0.1909035  74.37 0.0005575989    1.218    0.179
       234  -9.8200    176.7853     26.6315   1.4422391534e+01   3.6865356327e+01    0.1921388    0.1294507  85.46 0.0001444285    1.546    0.353
       235 -10.7149    224.3321    248.8162   5.5990038403e+01  -4.5222396032e+00    0.1799754    0.0920448 -38.98  0.001094455    2.692    0.629
       236 -12.3192    133.0133     18.8941   1.8633157000e+01   4.9296961276e+01    0.3034038    0.2637998  45.58 0.0003611724    1.121    0.108
       237  -9.9189    123.1552     26.2170   2.3470061648e+01   5.1012934547e+01    0.1962034    0.1672821 -61.88 0.0004126802    1.309    0.236
       238 -10.2225     80.0470     26.2827   3.5681817883e+01   6.1304506355e+01    0.2255267    0.1821462  13.67 0.0005995238    1.250    0.200
       239 -10.3627     82.7289     22.1791   3.2810378037e+01   6.1300884274e+01    0.3077266    0.2074617  28.42  0.001050091    1.548    0.354
       240 -11.4454    240.7285     34.7098   9.8167089074e+00   2.0672200730e+01    0.2997167    0.1835432  53.85  0.001549081    1.896    0.473
       241 -10.3441     54.4277     23.7201   4.4884883746e+01   6.6655127765e+01     0.304912    0.1941926 -57.85  0.001400089    2.511    0.602
       242 -10.1852     10.8636     24.5126   6.9729179403e+01   7.1856690306e+01    0.2591438    0.1079953 -43.50 0.0007338243    1.942    0.485
       243 -10.1143     91.0167    249.2979   8.0404579057e+01   1.3500268354e+01    0.1640657    0.1131306  44.66 0.0004581695    1.073    0.068
       244 -10.2057     83.5085    248.4803   8.1764531592e+01   1.4595210731e+01    0.2088495   0.06728937  43.64 0.0007456068    2.195    0.544
       245 -10.8106     22.4747     24.0215   6.2284929714e+01   7.0965874027e+01    0.2184367    0.1756092   7.96 0.0003732666    1.269    0.212
       246 -10.5822     59.0861     21.0820   4.1428397910e+01   6.6245914456e+01    0.2214153     0.181332  29.62 0.0004415761    1.175    0.149
       247 -10.7593     63.4800     22.4717   4.0240532095e+01   6.5216480729e+01    0.2533714    0.1981985   6.56 0.0006440721    1.283    0.221
       248 -11.3395     64.5245     19.4689   3.8273907919e+01   6.5460123046e+01    0.2449202     0.225588  31.18 0.0007761428    1.155    0.134
       249 -10.4529     34.6700     22.1220   5.4231865752e+01   6.9918973042e+01    0.2802806    0.2085702   5.88  0.001159017    1.353    0.261
       250 -10.3325    249.0708     20.9870   5.9952875334e+00   2.0464849554e+01    0.1836239      0.15139 -51.80 0.0003175327    1.005    0.005
       251  -9.4196    193.3056     21.2816   1.0877734387e+01   3.3249253214e+01    0.1340707    0.1018715  39.18 0.0001810222    1.557    0.358
       252  -9.4788    155.7298     21.6757   1.5805653948e+01   4.2965953220e+01    0.1448114    0.1061584  32.22 0.0003218631    1.573    0.364
       253 -10.4073     32.6000     15.2524   5.1841055382e+01   7.1386834846e+01     0.422581    0.1841638  21.92   0.00174092    3.113    0.679
       254 -10.7986     72.8587    244.8466   8.3519307278e+01   1.6518265972e+01    0.2233953    0.1707855  50.84  0.001177352    1.036    0.034
       255 -11.9669     75.5115    238.7603   8.2553164563e+01   1.7187492380e+01    0.4125463    0.3820427  80.25  0.003268632    1.295    0.228
       256 -10.3838     24.3192     20.2880   5.9422883430e+01   7.1487684393e+01     0.195008    0.1510276 -22.03  0.000402723    1.120    0.107
       257 -10.9227    161.8034     19.9086   1.4328645828e+01   4.1551174150e+01     0.408915    0.2086158  18.36  0.001369176    3.890    0.743
       258  -9.7434    165.2959     17.2928   1.3001338909e+01   4.0908827971e+01    0.1424416    0.1027486  38.80 0.0001966475    1.559    0.359
       259 -10.8499     97.0598     18.3769   2.6628919936e+01   5.8481467039e+01    0.4313433    0.2852003  86.53  0.001738996    2.261    0.558
       260 -10.6780     87.0415     20.0190   3.0371252393e+01   6.0620497795e+01    0.2108118    0.1866876  24.84 0.0002990933    1.043    0.041
       261 -10.1460     41.2451     18.9020   4.8968180898e+01   6.9558082581e+01    0.2233224    0.1464895 -39.29  0.001208231    1.474    0.321
       262 -11.7640    238.3095     17.7361   6.0033210759e+00   2.3085776124e+01    0.2213206    0.1950085 -60.63 0.0002235724    1.060    0.057
       263 -10.1376    169.2363     17.0286   1.2407438516e+01   3.9899873281e+01    0.1842119    0.1190919 -24.76 0.0008856255    1.640    0.390
       264 -10.8081    142.6509     16.9435   1.6222172603e+01   4.6955405581e+01    0.3605464    0.1633853  55.93 0.0005075028    1.972    0.493
       265 -10.1377    195.2529    238.6111   5.9558317798e+01   4.3183435881e-01    0.1686395     0.140821 -37.19  0.000958643    1.660    0.398
       266  -9.5753     50.6387     17.3373   4.3354383649e+01   6.8308743293e+01    0.1239839    0.1079719 -80.09 0.0007036512    1.821    0.451
       267 -10.3741    193.4977     16.2303   9.4259537404e+00   3.3743523557e+01    0.2557207    0.1749454  79.93 0.0008312935    1.414    0.293
       268  -9.7175     17.4628    236.4144   9.3459551082e+01   2.4119071765e+01    0.2224064   0.05991307  78.01 0.0008093335    5.745    0.826
       269 -10.3252    160.0546    235.4759   6.5647700871e+01   5.8635750337e+00    0.1848254   0.09323382  34.94 0.0006545966    1.545    0.353
       270  -9.8635     76.5196     15.5844   3.1706037784e+01   6.3519198540e+01    0.1371481    0.1232374  23.72 9.074717e-05    1.022    0.021
       271  -9.8763    249.4603     15.2538   4.6769394292e+00   2.0993603644e+01    0.1699668   0.09076985 -41.95 0.0004935884    1.510    0.338
       272 -10.2501    233.1901     15.1364   5.7555486240e+00   2.4477477309e+01    0.1757391     0.172859 -36.68 0.0006271086    1.222    0.181
       273 -10.3496     99.5463     14.0059   2.3968345256e+01   5.8380884735e+01    0.2028493    0.1389212 -19.80 0.0003807508    1.548    0.354
       274  -9.9226     28.3174    244.3274   9.1802576644e+01   2.1680277844e+01   0.08531088   0.08138212 -19.64 0.0007045795    1.678    0.404
       275 -10.9221     72.5316     15.9852   3.3345537621e+01   6.4317909792e+01    0.3379727    0.2474938  48.89  0.001218948    1.349    0.259
       276 -11.1399     60.1389     13.8192   3.7117975694e+01   6.7095581155e+01    0.1884468    0.1770302  -9.52 0.0006135966    1.174    0.148
       277 -10.7953     54.0116     14.0043   3.9938140197e+01   6.8209039726e+01    0.1976108    0.1719003   9.43   0.00046393    1.028    0.027
       278 -11.0272     30.7488    234.4529   9.0905898173e+01   2.3122769842e+01    0.1928225    0.1066943  78.29 0.0009513489    1.700    0.412
       279 -10.8542    182.9022    234.1454   6.1177061433e+01   2.7242261382e+00    0.1785351    0.1386581  37.06  0.001159918    1.283    0.220
       280 -10.2584     15.1954     13.2128   6.1828458362e+01   7.3713004981e+01    0.2333771    0.1601391  11.35 0.0004213918    1.492    0.330
       281 -10.4814     11.7968     12.9954   6.4071824473e+01   7.4051846338e+01    0.1929012    0.1167947 -40.69 0.0002362061    1.354    0.261
       282  -9.4545     24.2889    232.3108   9.2024913389e+01   2.4162793854e+01   0.08603531   0.08236052 -52.02 0.0003293112    1.581    0.367
       283 -11.2295    185.1035    228.0618   5.9906727400e+01   3.1873876240e+00     0.324813     0.192143 -10.22  0.001764484    2.293    0.564
       284 -10.1861    175.6576     10.7071   9.6803646737e+00   3.8863577589e+01    0.1432564   0.09757191  42.88 0.0007028533    1.657    0.396
       285 -10.2005     39.1993    229.0094   8.9003863755e+01   2.3185093697e+01    0.1783427   0.08189741  50.40 0.0008853398    1.630    0.386
       286  -9.5044    151.5243    228.5160   6.6396388741e+01   8.1120841592e+00    0.1227846   0.09665897  33.99  0.000107289    1.043    0.041
       287 -10.4342    191.9115    226.8039   5.8466077620e+01   2.3575971036e+00    0.1852896    0.1635635 -89.56   0.00123995    2.095    0.523
       288  -9.8605      3.6017    226.1777   9.5656536946e+01   2.7216967714e+01    0.1309961   0.08346839 -78.32 0.0009128989    1.660    0.397
       289  -9.9247    211.6395    218.7736   5.3679752047e+01   5.1608386429e-01    0.1426409    0.1056178 -34.41 0.0009410105    1.653    0.395
       290 -11.0260     48.5232    218.8183   8.6513111286e+01   2.4003501507e+01    0.2990194    0.1759458  14.54  0.001559917    2.790    0.642
       291  -9.6914    135.6935    216.6578   6.8033321089e+01   1.2351622213e+01    0.1228332   0.09117809   4.88 0.0007042442    1.687    0.407
       292 -10.3932     23.9816    216.0105   9.1328225635e+01   2.7175326891e+01    0.1358959    0.1016554  67.33 0.0004027219    1.069    0.064
       293 -10.3111     29.9075    215.4902   9.0108273069e+01   2.6670658184e+01    0.1687635   0.09263295  36.85  0.001032806    1.590    0.371
       294 -10.9639     14.3007    215.4136   9.3223836175e+01   2.8225261123e+01     0.239456    0.1102494  40.82 0.0008112357    1.700    0.412
       295 -12.0564     12.1596    210.8027   9.3456769970e+01   2.9300772129e+01    0.4073216    0.1706404  69.82  0.001780345    2.116    0.527
       296  -9.7699    110.3205    212.3005   7.2829612158e+01   1.6956663922e+01    0.1188805   0.09403267   6.46 0.0004557263    1.625    0.384
       297 -11.6407      5.5019    210.4734   9.4765974208e+01   2.9960533068e+01    0.2136183     0.169734 -62.28  0.001616564    1.652    0.395
       298 -11.8226      5.7583    206.7464   9.4577328034e+01   3.0654887258e+01     0.403596    0.1426423  51.49  0.002201108    2.055    0.513
       299 -10.6117    217.4037    210.6999   5.1360738258e+01   6.8056186597e-01    0.2041278    0.1075548 -36.40  0.001134252    2.125    0.529
       300  -9.7093    147.3456    206.3161   6.4174763843e+01   1.2207981980e+01    0.1309926   0.09278768   8.24 0.0007048173    1.719    0.418
       301 -10.9876    175.3541    202.3941   5.7855041327e+01   8.2929790289e+00    0.2247132    0.1874749  29.94 0.0005129253    1.097    0.088
       302 -10.3696     66.9927    202.5563   8.1274677154e+01   2.4879751850e+01    0.1846215    0.1515404  85.88 0.0006312515    1.222    0.181
       303 -11.0902     20.1638    200.3320   9.1322180561e+01   3.0602105910e+01    0.3713683    0.1292009 -61.81  0.001769782    3.177    0.685
       304  -9.5886    238.3070    200.6713   4.6108963567e+01  -1.0782502426e+00     0.097396   0.09410885 -11.12  0.000362047    1.657    0.396
