#   1 NUMBER                 Running object number                                     
#   2 MAG_AUTO               Kron-like elliptical aperture magnitude                    [mag]
#   3 X_IMAGE                Object position along x                                    [pixel]
#   4 Y_IMAGE                Object position along y                                    [pixel]
#   5 X_WORLD                Barycenter position along world x axis                     [deg]
#   6 Y_WORLD                Barycenter position along world y axis                     [deg]
#   7 A_WORLD                Profile RMS along major axis (world units)                 [deg]
#   8 B_WORLD                Profile RMS along minor axis (world units)                 [deg]
#   9 THETA_WORLD            Position angle (CCW/world-x)                               [deg]
#  10 FWHM_WORLD             FWHM assuming a gaussian core                              [deg]
#  11 ELONGATION             A_IMAGE/B_IMAGE                                           
#  12 ELLIPTICITY            1 - B_IMAGE/A_IMAGE                                       
         1 -19.0093    228.2221     62.5440   6.9744987870e+01   2.0281234606e+01       6.6947     4.805186 -31.45    0.0297955    1.561    0.359
         2 -16.5665    146.8248     49.9385   8.0048613723e+01   4.1573196546e+01     7.346694     5.070993 -30.30   0.03740662    1.591    0.371
         3 -12.1278    191.1873     18.6013   6.4303926143e+01   3.4710403395e+01    0.4944038    0.2747839  28.15  0.002065307    3.447    0.710
         4 -12.2646    213.5290     13.2624   6.0558864869e+01   3.0054125526e+01    0.4837956    0.1592189  53.67  0.001938098    3.201    0.688
         5 -11.0061    203.7631      1.3782   5.8939072909e+01   3.3516649243e+01    0.1573581     0.094992  65.71 0.0003892817    1.435    0.303
         6 -14.3275     74.0401    138.3280   1.2297347311e+02   3.8483162251e+01     1.275877    0.9870283  11.64  0.001816335    1.648    0.393
         7 -13.0207    181.0454    185.2494   1.0628217901e+02   8.0160859462e+00     0.746509    0.2008492 -45.41  0.002256955    3.916    0.745
         8 -11.5300    160.4930    142.9982   1.0176663719e+02   2.1082141441e+01    0.3788363     0.241365 -73.86  0.001013657    2.650    0.623
         9 -12.5153    161.0199    139.3333   1.0078899319e+02   2.1749160770e+01    0.5184666     0.384924 -85.68  0.001328996    1.916    0.478
        10 -12.3729    187.3090    138.0039   9.4661007011e+01   1.6187185354e+01    0.5087569    0.3500482  49.40  0.001136404    1.469    0.319
        11 -12.9692    176.8501    191.2553   1.0836603730e+02   7.6726294283e+00    0.5248662    0.2948631 -57.90  0.002164418    2.375    0.579
        12 -11.6866    174.5361    138.4032   9.7509251385e+01   1.8947459570e+01    0.2882773     0.251517  59.46   0.00083264    1.188    0.158
        13 -12.5726    160.5392    128.7140   9.8358504987e+01   2.4105343630e+01     0.582612    0.4655067  32.11  0.002794902    1.339    0.253
        14 -12.3957    153.0327    130.0340   1.0044526483e+02   2.5499368175e+01    0.5416213    0.3497251  40.52  0.001439552    1.575    0.365
        15 -12.5859    153.2327    125.2270   9.9220066857e+01   2.6476770952e+01    0.5279144    0.3953658 -72.58  0.001656984    1.711    0.415
        16 -11.8813    166.3058    193.0132   1.1098769444e+02   9.3962029530e+00    0.2772769    0.2029436  63.69    0.0013351    1.643    0.391
        17 -11.3443    236.7797    126.0369   8.2659409159e+01   7.8322923217e+00    0.2802212    0.1921149  48.44 0.0005905636    1.575    0.365
        18 -11.1499    160.8412    189.8228   1.1158201253e+02   1.1112782878e+01    0.2064039    0.1745976  71.63 0.0005990918    1.351    0.260
        19 -12.4603    151.2003    149.5598   1.0544930871e+02   2.1667874854e+01    0.5492085    0.3698253 -77.36  0.002185698    2.304    0.566
        20 -10.9347    163.7516    212.0151   1.1498654839e+02   6.1969757781e+00    0.2341484    0.1859839  39.87 0.0003830322    1.139    0.122
        21 -11.3064    205.1510    122.8206   8.7517734615e+01   1.5179898523e+01    0.3713158    0.2891543  45.90  0.001316915    1.325    0.245
        22 -13.6671     38.1157    154.2130   1.3499493437e+02   3.9244742064e+01     0.827852    0.7225361 -72.68  0.003749625    1.060    0.057
        23 -12.0256    169.7784    188.6175   1.0938426706e+02   9.5889378608e+00    0.2993484    0.2386847  57.12 0.0008376082    1.338    0.252
        24 -11.0000    175.4369    115.3113   9.1706196184e+01   2.3437144148e+01    0.4698486    0.3226928 -79.09  0.001514316    2.234    0.552
        25 -12.6721    162.0575    119.5590   9.5745053248e+01   2.5664750546e+01    0.8525931    0.5638629 -84.12  0.001463868    2.724    0.633
        26 -12.3561    168.2176    114.0033   9.2955445597e+01   2.5373006766e+01    0.6124974    0.5140545  23.10  0.001989815    1.355    0.262
        27 -12.3890    147.2332    157.2321   1.0808535114e+02   2.0819507800e+01    0.4483595    0.3971552  -2.66  0.001587702    1.306    0.234
        28 -10.5148    206.8162    109.9874   8.4169699779e+01   1.7206670243e+01    0.3588387    0.2382197  53.80  0.001076517    1.541    0.351
        29 -11.5477    211.8744    114.3155   8.4276699298e+01   1.5269886951e+01    0.5264183    0.3601975 -64.60    0.0023991    1.786    0.440
        30 -10.9253    215.8690    112.0338   8.3034818786e+01   1.4798378822e+01     0.258739    0.2067227  66.35 0.0004778318    1.344    0.256
        31  -9.8104     40.0866    115.6632   1.2821961074e+02   4.7905882310e+01    0.2220102    0.1558244 -68.49 0.0006779671    1.352    0.261
        32 -11.8934    166.4970    186.5395   1.0969876982e+02   1.0658797887e+01    0.2869001    0.2130024  43.52 0.0008593089    1.279    0.218
        33 -11.8810    241.7067    108.6199   7.8056436900e+01   9.8654789284e+00    0.5885172    0.2216353  58.67  0.002179977    3.182    0.686
        34 -10.8083    241.0190    104.0574   7.7159732109e+01   1.0787129941e+01    0.3324193    0.2445701  47.68  0.001358297    1.514    0.339
        35  -9.5837     90.4645    155.9816   1.2199106849e+02   3.1800330345e+01    0.2148374    0.1363757 -61.82  0.001004552    1.545    0.353
        36 -11.5422    247.4975    103.7935   7.6154618057e+01   9.5016889859e+00    0.2048681    0.1795912  60.04 0.0003137559    1.247    0.198
        37  -9.2547    111.4901    155.4509   1.1652087156e+02   2.8275002800e+01    0.1475932     0.142083  85.79 8.252363e-05    1.005    0.005
        38 -12.3972    150.5861    102.2838   9.3960692654e+01   3.1781557146e+01    0.5752547     0.348984  34.48  0.001750135    1.906    0.475
        39 -13.2489     60.3685    144.4391   1.2777062502e+02   3.8921046675e+01    0.6084874    0.5043442 -68.61   0.00110494    1.089    0.081
        40 -11.1793    199.0139     99.0541   8.2957556727e+01   2.1003491145e+01    0.3016181    0.2874011 -14.96 0.0005366591    1.153    0.133
        41 -10.5432    188.5546     98.1257   8.4702029750e+01   2.3635049474e+01    0.3019962     0.247406 -65.47 0.0007168269    1.309    0.236
        42 -12.0655    163.5341     96.5122   8.9463850827e+01   2.9876213251e+01    0.5886892    0.4013042  45.22  0.001742646    1.458    0.314
        43 -11.4902    167.4936     97.5643   8.8876349433e+01   2.8741154926e+01    0.3401493    0.3313971  34.22 0.0006722648    1.056    0.053
        44 -11.2856    168.4122     94.4878   8.7869786748e+01   2.9098515058e+01    0.3263453    0.2805041  84.44  9.46732e-05    1.279    0.218
        45 -10.7588    209.6070     96.8588   8.0541970946e+01   1.8937137599e+01    0.3200627    0.2173634  69.85  0.000419317    1.650    0.394
        46 -11.6830    144.9874    182.3635   1.1373164451e+02   1.5798777269e+01    0.3718922    0.2422246  75.04  0.001502408    2.418    0.586
        47 -12.2687    158.4933    193.1031   1.1272095184e+02   1.0906719760e+01    0.3588915    0.2621289 -86.50  0.001486452    2.024    0.506
        48 -11.7565     91.1599     43.5849   9.2007879884e+01   5.4446784762e+01    0.5164212    0.1877577 -29.16  0.001974839    3.173    0.685
        49 -10.2287    182.6470     29.8263   6.8228779979e+01   3.5492117155e+01    0.3398694    0.2531251  38.68   0.00150028    1.566    0.361
        50  -9.8662    196.0774     28.3216   6.6018689691e+01   3.2439857850e+01    0.2023673    0.1323686  53.17 0.0007026108    1.529    0.346
        51 -11.7058    145.2876    168.3346   1.1088407042e+02   1.8780318442e+01    0.2777633    0.2212613 -49.77 0.0006322297    1.293    0.227
        52 -11.7597    250.2548    233.1716   1.0182360110e+02  -1.1875645492e+01    0.1861598     0.149345 -15.33 0.0004338171    1.184    0.155
        53 -11.3178    142.3336    165.6721   1.1103483545e+02   1.9963748449e+01    0.3179633    0.2424077  79.11 0.0008124544    1.671    0.402
        54 -14.1647     67.9239    141.1095   1.2515704277e+02   3.8695458384e+01     1.660753    0.9111118 -52.20  0.004660191    1.673    0.402
        55 -14.0418    158.1333    159.8094   1.0608555646e+02   1.7976125887e+01    0.8290697    0.7185732   5.14  0.003784962    1.332    0.249
        56 -12.3565    165.8513    151.8994   1.0256676351e+02   1.8020709372e+01     0.446875    0.3267094 -73.87 0.0007315427    1.850    0.460
