#   1 NUMBER                 Running object number                                     
#   2 MAG_AUTO               Kron-like elliptical aperture magnitude                    [mag]
#   3 X_IMAGE                Object position along x                                    [pixel]
#   4 Y_IMAGE                Object position along y                                    [pixel]
#   5 X_WORLD                Barycenter position along world x axis                     [deg]
#   6 Y_WORLD                Barycenter position along world y axis                     [deg]
#   7 A_WORLD                Profile RMS along major axis (world units)                 [deg]
#   8 B_WORLD                Profile RMS along minor axis (world units)                 [deg]
#   9 THETA_WORLD            Position angle (CCW/world-x)                               [deg]
#  10 FWHM_WORLD             FWHM assuming a gaussian core                              [deg]
#  11 ELONGATION             A_IMAGE/B_IMAGE                                           
#  12 ELLIPTICITY            1 - B_IMAGE/A_IMAGE                                       
         1 -14.1689     86.0276    165.8205   1.1727890050e+02   3.0224828842e+01     1.764971     1.002557 -43.50  0.005771715    2.302    0.566
         2 -14.6264      3.3304     76.7130   1.2679920145e+02   5.9015851497e+01     8.001374          nan -63.31   0.02091997    7.233    0.862
         3 -13.9550      2.0339     27.0275   1.1648251522e+02   6.9501399140e+01     4.034854    0.3265303 -59.51   0.01231634    5.990    0.833
         4 -13.8243      7.7656    132.6329   1.3207015077e+02   4.6248406959e+01     2.303486    0.9898382 -59.49   0.01244235    2.039    0.510
         5 -14.7504    199.2813     24.6117   5.6146033262e+01   3.2152997602e+01     3.490112     1.922747  21.83   0.01285255    3.192    0.687
         6 -13.5741      9.6667    110.7800   1.2937661472e+02   5.1009487774e+01     1.187646    0.5198887 -75.08  0.005406225    1.828    0.453
         7 -11.2099    140.5866    249.8184   1.1680100609e+02   6.7627495259e+00    0.3277285    0.1299963  38.18  0.001662714    2.084    0.520
         8  -9.8136     69.3507    249.1787   1.2896872745e+02   1.6829328454e+01    0.1930483    0.1215684  57.55  0.001385157    1.179    0.152
         9  -9.4360     72.9799    248.2279   1.2829599025e+02   1.6519908966e+01    0.1973285   0.09542184  45.70 0.0007629052    1.578    0.366
        10 -10.8801     30.6325    210.6142   1.3309485491e+02   2.8048169007e+01     1.310481    0.5263448 -71.51  0.007451442    2.303    0.566
        11 -15.6917      5.8461    240.9456   1.3868110156e+02   2.5171177038e+01     1.669766     1.042411  84.41   0.01366306    1.286    0.222
        12 -13.4325      2.6609    214.6613   1.3814922935e+02   3.0005333884e+01    0.8357127    0.2495227 -85.28  0.004084744    3.005    0.667
        13 -15.6607     47.6403    242.1715   1.3210525395e+02   2.0592799927e+01     1.978089     1.072494  51.29   0.01370629    1.383    0.277
        14 -13.4939     35.5213    242.5928   1.3410277990e+02   2.1886416811e+01    0.3594027    0.2454376  41.13 0.0007742769    1.538    0.350
        15 -13.6412     11.2912    206.8239   1.3631325168e+02   3.0664863972e+01    0.4455622    0.3179083 -81.47  0.002186442    1.334    0.250
        16 -15.3986      6.8081    192.9843   1.3640350788e+02   3.3702247321e+01     1.478893    0.6806293  82.96  0.008929376    1.840    0.457
        17 -11.9223     48.1507    213.7942   1.3013157344e+02   2.5514679875e+01    0.3864073    0.2473753 -55.94 0.0007693492    2.023    0.506
        18 -14.2466    116.2561    195.9476   1.1487170184e+02   1.9393475544e+01      2.04853     1.713009  82.82   0.01299577    1.228    0.186
        19 -14.0098    102.0162    176.6497   1.1521888920e+02   2.5485821737e+01      2.17571      1.24985 -65.63   0.01094524    1.862    0.463
        20 -12.7004     58.0018    202.5667   1.2737522989e+02   2.6462335610e+01    0.8885056    0.7044987 -83.32  0.006333769    1.227    0.185
        21 -14.1951     91.0157    207.1748   1.2135095002e+02   2.1156801954e+01     2.641497      1.02368  58.19   0.01080715    3.193    0.687
        22 -13.0760     71.6804    224.9730   1.2671610896e+02   2.0580989644e+01    0.6243126    0.3650813  47.66  0.002414198    1.393    0.282
        23 -13.0799     79.6205    218.5502   1.2468613011e+02   2.0668543304e+01    0.6186159    0.4998725  80.01  0.002641511    1.142    0.125
        24 -13.2429     70.0015    215.5488   1.2621974642e+02   2.2493204323e+01    0.7869895    0.3998674  44.05  0.003126201    1.667    0.400
        25 -10.1026    161.4941    249.5069   1.1311240287e+02   3.6314479689e+00    0.1158352   0.08827092  39.18 0.0008106093    1.010    0.010
        26 -13.7749     91.6026    192.7714   1.1958474110e+02   2.3832453056e+01     1.513313    0.8928338  51.21  0.008366994    1.501    0.334
        27 -10.5551     93.0588    222.4130   1.2253865608e+02   1.8114174644e+01    0.3624415     0.213398 -86.66  0.002073777    2.075    0.518
        28 -11.8181     91.5622    144.0642   1.1252068993e+02   3.4177627722e+01    0.4088461     0.273128  48.25 0.0004783758    1.487    0.327
        29 -14.5594     74.0404    162.0289   1.1953017123e+02   3.2760853376e+01     1.423429     1.202838   1.58  0.008589193    1.720    0.418
        30  -9.9492     37.4251    213.4134   1.3205282045e+02   2.6797935112e+01      0.19571    0.1571491  76.70  0.001516781    1.126    0.112
        31 -14.6479     68.8568    181.9420   1.2312912786e+02   2.9212831241e+01     1.693929     1.484899  57.88   0.01040616    1.166    0.142
        32 -11.1929    198.2355    198.7374   9.8960199836e+01   4.6737930346e+00    0.4400419    0.2303417  37.81  0.002200432    1.669    0.401
        33  -9.6066    208.6694    186.6664   9.4832243227e+01   4.6036696744e+00    0.1392479   0.09305668  10.31 0.0007052127    1.726    0.421
        34 -12.4339     47.9553    176.1334   1.2699197537e+02   3.3007021860e+01     1.053205    0.4314296 -67.10  0.005252508    2.207    0.547
        35  -9.8307      1.4657    166.8211   1.3596785730e+02   3.9383174686e+01    0.3239945     0.076951 -75.23  0.001424864    3.182    0.686
        36  -9.8656    138.9075    168.1494   1.0563725808e+02   2.0839593089e+01    0.2104752    0.1786967  70.11 0.0002758566    1.248    0.199
        37 -12.2113    122.7563    163.7422   1.0849030527e+02   2.4663110634e+01    0.7820302    0.5917293 -62.88  0.004241493    1.399    0.285
        38  -9.8953      7.5854    157.4787   1.3408359889e+02   4.0866907998e+01    0.3557622    0.0994701 -74.30  0.001619603    2.768    0.639
        39 -13.3071    144.3106    130.4394   9.6699860750e+01   2.7468077451e+01     1.222242    0.7718505 -26.21  0.005117748    2.128    0.530
        40 -13.2193    159.0374    125.3661   9.2073037371e+01   2.5376840825e+01     1.324831    0.9976823  35.03  0.006413098    1.367    0.269
        41 -13.5209    130.8579    134.8041   1.0091829366e+02   2.9259736025e+01     1.193975    0.8644325 -55.06  0.005874692    1.425    0.298
        42 -13.5740    138.0392    146.9879   1.0177636664e+02   2.5290806064e+01     1.229605     1.075427  16.57  0.006710791    1.290    0.225
        43 -13.5722    152.7286    138.6475   9.6592050685e+01   2.4045778136e+01     1.567299     1.120186 -16.15   0.00711706    1.911    0.477
        44  -9.4074     87.2271    240.2249   1.2522863937e+02   1.5927660744e+01    0.1533254   0.09995616  65.85 0.0006221837    1.354    0.261
        45 -10.8709    193.1327    236.7247   1.0587607859e+02   3.5899423054e-01     0.218354    0.1708082 -58.80  0.001446944    1.981    0.495
        46  -9.5772     33.4577    156.5104   1.2826876565e+02   3.8784799884e+01    0.2491027    0.1001562 -73.14  0.001202323    2.151    0.535
        47 -14.9203     55.7306    133.2205   1.1995083743e+02   4.1614125319e+01     3.193677     2.193333  42.76   0.01702791    1.537    0.349
        48  -9.9573    108.5164    121.0108   1.0354984148e+02   3.6505937333e+01    0.3390688    0.2370453 -33.15 0.0007019158    1.696    0.410
        49 -12.3031     89.4271    129.5225   1.1040123256e+02   3.7810406387e+01     1.080724    0.7679062   7.89  0.005130094    2.205    0.546
        50 -11.0028    105.4899    130.0172   1.0628700618e+02   3.5026906130e+01    0.6590907    0.3662597 -50.22  0.002944298    1.767    0.434
        51 -11.1023     99.9813    129.3406   1.0758382268e+02   3.6126926939e+01    0.3658054     0.342423  25.84  0.001147899    1.194    0.162
        52  -9.2967    112.4148    132.7350   1.0507371284e+02   3.3189356921e+01    0.2375844    0.1800106  16.01 0.0005301807    1.753    0.430
        53 -11.4891    119.5983    124.2225   1.0138395525e+02   3.3732255618e+01    0.5606297    0.3522915 -17.09  0.002070853    3.112    0.679
        54 -11.8361     42.1702    112.2383   1.2039416671e+02   4.7971694733e+01    0.6637541    0.4796151 -87.20  0.003016362    1.366    0.268
        55 -10.2311    167.3274    112.2062   8.6924216416e+01   2.6124003274e+01    0.3371471     0.258601 -67.01  0.001055491    1.643    0.391
        56 -12.1042     84.4163    103.2879   1.0619989869e+02   4.4602572614e+01     1.378935    0.7036277 -72.97   0.00478328    3.483    0.713
        57 -12.2631     84.5956     91.6080   1.0325550346e+02   4.7202168627e+01      1.20836    0.8281658  50.86  0.006023665    1.662    0.398
        58 -12.5419     52.5707    104.1702   1.1590156647e+02   4.8720789615e+01    0.7164915    0.5700384  79.23  0.003293841    1.381    0.276
        59 -12.7455     58.1515     96.1656   1.1255258023e+02   4.9907449118e+01     1.167772    0.4796266 -55.32   0.00502498    2.065    0.516
        60 -11.9339    151.3453    101.6892   8.7808915412e+01   3.1818227656e+01    0.4832102    0.3750948   8.67  0.002229111    1.639    0.390
        61 -11.5844     51.6277     89.0671   1.1306863401e+02   5.2300785662e+01    0.3975446     0.231384  38.82  0.002048996    1.941    0.485
        62 -12.5620     23.6427     72.0387   1.1889596509e+02   5.8778877534e+01     1.206831    0.2831881 -60.90  0.004634192    3.043    0.671
        63 -11.0198    184.9558     77.0221   7.3624475676e+01   2.8318129796e+01    0.2412065    0.2374115   7.02 0.0007673468    1.017    0.017
        64 -12.5482     50.2527     70.2649   1.0893066178e+02   5.6646370389e+01    0.4818588    0.3936535 -11.35  0.002941464    1.367    0.268
        65 -10.4787     33.7708     68.0954   1.1433558201e+02   5.8807890371e+01     0.313468    0.1334654 -53.09  0.001500242    1.844    0.458
        66 -11.5771     40.6133     75.1919   1.1359152699e+02   5.6596129780e+01    0.3295499     0.222657 -45.84  0.001902649    1.292    0.226
        67 -13.0344     55.7418    224.8703   1.2957185227e+02   2.2601681533e+01    0.9092253    0.4777107  51.27   0.00575423    1.499    0.333
        68 -13.3577      1.9032    109.1051   1.3132315379e+02   5.1864711504e+01     2.138945    0.1245123 -72.74  0.005442085    7.925    0.874
