#   1 NUMBER                 Running object number                                     
#   2 MAG_AUTO               Kron-like elliptical aperture magnitude                    [mag]
#   3 X_IMAGE                Object position along x                                    [pixel]
#   4 Y_IMAGE                Object position along y                                    [pixel]
#   5 X_WORLD                Barycenter position along world x axis                     [deg]
#   6 Y_WORLD                Barycenter position along world y axis                     [deg]
#   7 A_WORLD                Profile RMS along major axis (world units)                 [deg]
#   8 B_WORLD                Profile RMS along minor axis (world units)                 [deg]
#   9 THETA_WORLD            Position angle (CCW/world-x)                               [deg]
#  10 FWHM_WORLD             FWHM assuming a gaussian core                              [deg]
#  11 ELONGATION             A_IMAGE/B_IMAGE                                           
#  12 ELLIPTICITY            1 - B_IMAGE/A_IMAGE                                       
         1 -10.4075    141.8460     19.2699   7.1780473110e+01   4.6911955543e+01    0.5584335    0.3276569 -13.26  0.002649599    2.234    0.552
         2 -10.2397    228.5090     10.1475   5.8115790552e+01   2.7076628692e+01    0.3570621    0.2659948  27.35  0.001971539    2.298    0.565
         3  -9.1852    218.9663     11.0135   5.9190021858e+01   2.9167962471e+01     0.199981    0.1588635 -85.51 0.0007867998    1.018    0.018
         4  -8.9776    160.9344      9.3971   6.5747461052e+01   4.3276253744e+01    0.2886121    0.1723179  -4.11  0.001408156    2.540    0.606
         5 -10.1277    212.1862      8.7382   5.9360623905e+01   3.0996084545e+01    0.2673865    0.2074499 -87.90 0.0007384463    1.056    0.053
         6  -9.5029    199.9055      6.2532   6.0064614451e+01   3.4157976653e+01    0.2765631     0.148288  38.99  0.001264122    2.853    0.650
         7  -8.0772     97.6641      7.7071   7.7461398740e+01   5.7847096763e+01     0.133535   0.07636578  32.10 0.0007025676    1.642    0.391
         8  -9.5703    223.4908      5.3270   5.7564484702e+01   2.8745909360e+01    0.2759883    0.1659791 -36.56  0.001101439    1.822    0.451
         9  -8.7112    171.8105      5.8551   6.3286254064e+01   4.0968125755e+01    0.1743554    0.1350086 -78.65 0.0005393065    1.297    0.229
        10  -9.5272    138.7520      7.2323   6.8678077632e+01   4.8775322351e+01    0.3977856    0.2087766  23.80  0.001437483    2.791    0.642
        11  -8.3139    133.5985      3.8034   6.8531226062e+01   5.0265324710e+01    0.1560853    0.1169439 -40.02 0.0005359622    1.595    0.373
        12  -9.0003    109.0233      2.8165   7.3044821809e+01   5.5856537543e+01    0.1922476    0.1741779  18.60 0.0007801431    1.174    0.149
        13  -8.6899    173.7831      1.5698   6.1930653658e+01   4.0879452508e+01    0.1767792    0.1057483  81.83 0.0005170525    1.525    0.344
        14  -8.3773    189.5676    237.1170   1.1438772460e+02  -3.5274554246e+00    0.1740358    0.1302254 -40.22  0.000674113    1.542    0.352
        15 -11.0672    248.3148    214.8369   9.9124825326e+01  -9.8732469475e+00    0.8490719    0.3525818 -40.37  0.003851127    2.500    0.600
        16  -9.7389    247.0902    225.7587   1.0136690906e+02  -1.1255757458e+01    0.3915726     0.298995   7.25  0.002496501    1.129    0.114
        17 -10.4923    233.4876    246.7148   1.0754655388e+02  -1.2069440614e+01    0.4144305    0.3548358 -39.76  0.002104647    1.582    0.368
        18 -11.6702    248.7689    242.2388   1.0399444603e+02  -1.3720793310e+01     1.176639    0.3280484 -38.41   0.00476619    3.833    0.739
        19 -11.6906    242.9369    246.3667   1.0575780261e+02  -1.3414672663e+01    0.6119078    0.4117281 -19.09  0.002666275    1.451    0.311
        20 -10.7453    241.1536    239.3374   1.0487027855e+02  -1.2231605017e+01    0.4225135    0.2685776 -20.42   0.00218731    1.570    0.363
        21  -8.6051    158.5816    250.0892   1.2254138403e+02  -2.3567788809e-01    0.1612864    0.1109981 -87.54 0.0008040875    2.464    0.594
        22  -8.6464     77.4117    235.7321   1.3679841698e+02   1.5855190989e+01    0.1526735    0.1116316 -65.78 0.0004436921    1.494    0.331
        23  -9.6641    215.7001    233.3847   1.0861961356e+02  -7.3930627646e+00    0.4045131    0.3005545 -68.43  0.002115885    2.540    0.606
        24  -8.4549     49.6537    235.7057   1.4203345141e+02   1.9737508115e+01    0.1003825   0.09402958 -46.10 0.0007031285    1.669    0.401
        25  -8.8349    204.1308    236.0034   1.1132139664e+02  -5.8537243219e+00    0.2737164    0.1778247 -65.72  0.001244669    3.174    0.685
        26  -8.7087    186.1515    230.5010   1.1397655300e+02  -1.8492363735e+00    0.2206187    0.1636868 -75.55 0.0009836317    2.227    0.551
        27  -8.8549    157.4314    230.2235   1.1982311625e+02   3.3844576610e+00    0.2132563    0.2014673  13.30 0.0009604986    1.166    0.143
        28  -9.7605    230.3774    227.8166   1.0483162680e+02  -8.9563424731e+00    0.2827704    0.1828146  19.48  0.001562279    1.498    0.332
        29  -8.9432    222.9687    226.7640   1.0605076528e+02  -7.5979419821e+00     0.218891    0.1776194 -19.92 0.0008676113    1.236    0.191
        30  -9.1529    199.7519    224.4083   1.1018601728e+02  -3.2580628088e+00    0.2585118    0.2041252  -7.22  0.001376198    1.366    0.268
        31  -9.8598    236.5074    229.3809   1.0396544126e+02  -1.0149138606e+01    0.2499011    0.2269536 -36.14  0.001271481    1.440    0.305
        32  -9.0658    216.7270    223.6483   1.0669540310e+02  -6.0777661196e+00    0.2873941    0.1804718 -47.27  0.001488092    1.969    0.492
        33  -9.9849    239.5038    220.8874   1.0186370707e+02  -9.3878764514e+00    0.3958277     0.286704 -34.39  0.001839736    1.449    0.310
        34  -9.2112    240.3483    214.2013   1.0046174734e+02  -8.5258584977e+00    0.3207569    0.2369561 -32.90  0.001907738    1.376    0.273
        35 -10.2736    227.1142    219.7535   1.0398290525e+02  -7.2154684534e+00    0.3398766    0.3187423  29.19  0.001297812    1.275    0.216
        36  -8.6838    192.0459    220.6163   1.1107485520e+02  -1.2429824915e+00    0.2208987    0.1964048 -54.70  0.001317332    1.373    0.272
        37  -9.2472    232.7699    213.4514   1.0173546367e+02  -7.1784883448e+00    0.2581059    0.2222135  -1.72  0.001181901    1.044    0.043
        38  -9.0375    185.5632    212.6795   1.1099147382e+02   1.3450418627e+00    0.2495799     0.214143  24.48 0.0009128057    1.087    0.080
        39 -10.1625    215.0387    209.4306   1.0439714095e+02  -3.4906616335e+00    0.4484318    0.3286585   8.66  0.002310824    1.461    0.316
        40  -9.7207    236.5139    207.0800   9.9820808419e+01  -6.8034394068e+00    0.7589499     0.231609 -36.54  0.002800344    3.311    0.698
        41  -9.6220    247.0189    205.2791   9.7541985588e+01  -8.2348739860e+00    0.4271005    0.2293483  38.42   0.00216288    1.860    0.462
        42  -9.4613    243.8834    201.6975   9.7419087687e+01  -7.1723246809e+00     0.271539    0.2009226  -0.75 0.0008595649    1.346    0.257
        43  -9.5340    249.9942    183.2275   9.2655966170e+01  -5.2211768546e+00    0.3174769    0.2247307 -21.92  0.001009123    1.339    0.253
        44  -8.9749    249.6459    178.0423   9.1664741050e+01  -4.3061503250e+00    0.3501061    0.1707633 -36.79  0.001170961    1.889    0.471
        45 -11.5009    247.0452    192.5476   9.5047879809e+01  -6.2403496474e+00    0.9096358    0.4874157 -44.52  0.004362401    2.021    0.505
        46 -10.9592    236.6755    196.6446   9.7758341988e+01  -5.1567729520e+00    0.6714125    0.4659042  52.68  0.003532267    1.839    0.456
        47 -10.7714    237.7860    189.4463   9.6117667456e+01  -4.1594247198e+00    0.5977725    0.2396821 -39.39    0.0024598    2.409    0.585
        48  -9.2918    227.1689    204.8109   1.0115229932e+02  -4.8555115985e+00    0.3001764    0.1912571 -22.75 0.0009783267    1.665    0.399
        49  -9.5249    228.5704    201.2224   1.0018720652e+02  -4.5096477477e+00    0.4106389    0.2297708 -14.56  0.001729436    2.596    0.615
        50  -8.7657    196.9478    204.9950   1.0720543232e+02   5.8755378210e-01    0.2119431    0.1753523  75.68 0.0007886337    1.675    0.403
        51  -8.7520    210.9181    200.9005   1.0357858526e+02  -1.2905117491e+00    0.2185362    0.1791864   5.93 0.0009399427    1.220    0.180
        52  -9.0528    224.4919    195.0121   9.9747227169e+01  -2.7461482624e+00    0.2573149    0.2321819 -10.59  0.001287082    1.060    0.057
        53  -9.2868    223.8869    191.1420   9.9090406970e+01  -1.9711220809e+00    0.2917862    0.2775766  51.14   0.00176674    1.264    0.209
        54  -8.8415    216.8659    194.4239   1.0112017565e+02  -1.2550898528e+00    0.3325351    0.2313507  12.18  0.001644512    1.676    0.403
        55  -8.3507    191.7866    209.0052   1.0902445712e+02   8.3798515991e-01    0.1829359    0.1140443 -41.73 0.0008777481    1.732    0.423
        56  -9.9960    246.4193    185.5551   9.3761401407e+01  -4.9989448463e+00    0.3413052    0.2265756 -50.03  0.001755564    1.821    0.451
        57  -9.2570    204.5137    207.4634   1.0612803459e+02  -1.2544765607e+00    0.2484327    0.1262617 -29.11 0.0009128493    2.427    0.588
        58  -8.8047    139.9736    180.4817   1.1508751027e+02   1.6822032287e+01    0.2217695    0.1221237  61.93 0.0008096774    2.490    0.598
        59  -8.1226      9.5099    166.5726   1.4393545153e+02   3.9090112935e+01    0.1185327   0.09251513 -80.46 0.0001242112    1.057    0.054
        60  -8.6475    107.0013    162.7524   1.1974312255e+02   2.7255376602e+01    0.2070209    0.1955744  68.10 0.0006643109    1.047    0.045
        61  -8.7956    132.2110    157.0122   1.1223641647e+02   2.3741507748e+01     0.201869    0.1247025 -51.08 0.0003480864    1.636    0.389
        62  -8.6198     18.5191    155.4922   1.4074481896e+02   4.0852565210e+01    0.1236698   0.09807853 -77.28 8.626695e-05    1.031    0.030
        63  -7.8718    229.3527    153.2881   9.0082140167e+01   3.8088275715e+00    0.1468344    0.1103459   6.12 0.0007024627    1.670    0.401
        64  -7.9744    118.3097    152.3399   1.1476898043e+02   2.7606640190e+01    0.1546296    0.1231757 -15.56 0.0007044481    1.690    0.408
        65  -8.9571    240.9996    149.2099   8.7113839285e+01   2.2722068969e+00    0.2378039     0.198016  78.60 0.0008724577    1.574    0.364
        66  -8.9136    248.6036    142.7197   8.4426140958e+01   1.9766091805e+00    0.1983212    0.1190643 -46.14 0.0007082007    1.588    0.370
        67  -8.3602     83.5368    141.4512   1.2176353909e+02   3.6371623941e+01     0.145081    0.1335191 -78.87 0.0008072478    1.034    0.033
        68  -8.5488     73.3019    140.6602   1.2440522255e+02   3.8113082752e+01    0.1462263    0.1055556  80.43   0.00070378    1.671    0.401
        69  -9.2976    188.5692    135.3114   9.4040381661e+01   1.6118989342e+01    0.3163233    0.1475911 -46.71  0.001148848    2.176    0.540
        70  -8.8092    212.6673    133.4963   8.8749972057e+01   1.1070534608e+01    0.2646398    0.1358273 -40.50 0.0009835721    1.877    0.467
        71  -8.5569    121.6272    134.1529   1.0985988366e+02   3.1226292028e+01    0.2169656    0.1420254 -39.63 0.0003647948    1.632    0.387
        72  -8.4684    113.6864    134.6910   1.1210611594e+02   3.2672776545e+01    0.1534684    0.1230021 -12.11 0.0007028223    1.628    0.386
        73  -8.2947    235.9202    130.2190   8.3812036061e+01   6.7356532520e+00    0.1808113    0.1192623  53.01 0.0008633562    1.657    0.396
        74  -7.8633    200.3248    125.3263   8.9227948544e+01   1.5449965764e+01    0.1567831    0.1234337   6.79  0.000704917    1.693    0.409
        75  -8.6502    232.2961    121.0501   8.2362574600e+01   9.1749917854e+00    0.2099647    0.1742868 -43.97 0.0007051384    1.116    0.104
        76  -8.5983    192.2206    118.2677   8.9144577808e+01   1.8738025460e+01    0.2118525    0.1805219 -82.17 0.0006551063    1.313    0.239
        77  -9.1283    154.0358    115.0069   9.6814413889e+01   2.8421880125e+01    0.2532022    0.1969152  88.71 0.0008465059    1.654    0.395
        78  -8.6925    220.2773    114.0284   8.2808755132e+01   1.3097649623e+01    0.2143287    0.1823996 -51.94 0.0006948753    1.120    0.107
        79  -7.9948    241.5239    112.5078   7.8946870680e+01   8.7744916934e+00    0.1431148    0.1275607 -55.06 0.0008098313    1.040    0.038
        80  -9.0340     25.5484    111.3879   1.3269426020e+02   5.0426047343e+01    0.1987722    0.1806665 -34.53 0.0007217498    1.197    0.165
        81  -8.3217    236.7863    107.4363   7.8551409459e+01   1.0679754790e+01    0.1902707    0.1346664  43.25 0.0009433769    1.627    0.385
        82  -8.0857    197.4972    106.5608   8.5199015025e+01   1.9782522657e+01    0.1512103    0.1481683 -82.61 9.972062e-05    1.032    0.031
        83  -7.9877    108.5583    106.4859   1.0655846017e+02   4.0105858151e+01    0.1497032    0.1448186 -30.07 0.0001389882    1.010    0.010
        84  -8.1706    214.2524    105.0396   8.1738605861e+01   1.6139078889e+01    0.1921746    0.1242271 -39.69 0.0004398589    1.503    0.335
        85  -8.5903    206.0397    104.9760   8.3199282183e+01   1.8063481922e+01    0.2448688    0.1912022  14.78  0.001136736    1.775    0.437
        86  -9.1997    130.6540    104.1759   9.9847756431e+01   3.6020768648e+01    0.3416442    0.1992414 -20.12  0.001164743    3.006    0.667
        87  -8.9847    228.9697    104.4655   7.9119938578e+01   1.2914917323e+01    0.2012146    0.1258755  86.92 0.0004755001    2.490    0.598
        88  -8.1100    195.6862    102.3183   8.4490303930e+01   2.1024625996e+01    0.1593057    0.1182358 -76.57 0.0007037358    1.649    0.393
        89  -8.2095    172.2952     96.6688   8.7797872806e+01   2.7780885810e+01     0.160547    0.1215796 -77.01 0.0004069435    1.637    0.389
        90  -9.1359    150.7567     92.9491   9.1675657999e+01   3.3699334093e+01    0.2616544    0.2166913  50.42 0.0005302044    1.179    0.152
        91  -8.1848    174.5315     89.4636   8.5404886936e+01   2.8596538055e+01    0.1560873     0.145962 -89.33 0.0008078946    1.064    0.060
        92  -9.4581     48.1945     84.7972   1.1977517396e+02   5.4095710164e+01    0.2106346    0.1419596  75.14 0.0009646697    2.910    0.656
        93  -8.7548    172.0694     84.0593   8.4464663422e+01   3.0193817005e+01    0.2528274    0.1849063 -76.24  0.001123934    1.725    0.420
        94  -8.2209    232.4674     82.3626   7.3512906678e+01   1.5979108174e+01    0.1394513    0.1244991 -76.88 -1.12463e-05    1.042    0.040
        95  -8.5327    196.2748     82.4641   7.9365867161e+01   2.4509372664e+01     0.201293    0.1422697  73.71  0.000859206    1.520    0.342
        96  -8.3221    244.3893     80.7321   7.1495196171e+01   1.3618014494e+01    0.1442087   0.09623622 -75.40 0.0006985586    1.710    0.415
        97  -8.0788    175.7620     79.0156   8.2348682575e+01   3.0178779238e+01     0.195918    0.1282104 -39.18 0.0008694522    1.575    0.365
        98  -8.4641    239.9682     77.0398   7.1273127234e+01   1.5186916746e+01    0.1921008    0.1699469  15.47 0.0006238334    1.559    0.359
        99  -8.7401    158.1110     76.8818   8.5471573889e+01   3.4906795053e+01    0.2379338    0.2060553 -81.47 0.0008841538    1.275    0.216
       100  -9.7743     62.5854     75.2514   1.1223599165e+02   5.4260050746e+01    0.3086758    0.1563864 -52.52  0.001412175    2.027    0.507
       101  -9.0124    139.6477     74.8454   8.9178415705e+01   3.9691841851e+01    0.2195678    0.1358394 -48.35 0.0009456191    1.779    0.438
       102  -7.8274    208.3127     74.3257   7.5290224255e+01   2.2968640224e+01    0.1422889    0.1160491  22.85 0.0003926427    1.663    0.399
       103  -8.3975    196.3977     73.2123   7.6992460460e+01   2.6059567295e+01    0.2151418    0.1297033 -49.61 0.0009476523    1.685    0.407
       104  -8.4941    230.9564     72.0533   7.1380508043e+01   1.8016702112e+01    0.1711049    0.1506867 -72.03 0.0005057622    1.006    0.006
       105  -8.2702    107.2006     72.3811   9.7110162780e+01   4.7239850944e+01    0.2051226    0.1345768  53.49 0.0009486596    1.691    0.409
       106  -9.0538     77.4495     70.5043   1.0578518308e+02   5.2975292059e+01    0.1988573    0.1777697  79.84 6.229558e-05    1.560    0.359
       107  -8.8663    215.7195     69.9564   7.3083953109e+01   2.1908834644e+01    0.2018694    0.1779601 -66.65 0.0004979965    1.054    0.052
       108  -8.6460    188.4169     69.6606   7.7473954527e+01   2.8621000526e+01    0.2717339    0.1358287 -42.34  0.001042527    2.008    0.502
       109 -10.1175     43.7494     68.6710   1.1697542601e+02   5.7838647068e+01    0.3064054    0.2232204 -13.94  0.001309629    1.380    0.276
       110  -8.4970    239.4926     68.0388   6.9347392156e+01   1.6733232603e+01    0.2011208    0.1249873 -41.52 0.0005275222    1.521    0.342
       111  -8.2244    245.4697     65.5027   6.8049457735e+01   1.5812938110e+01    0.1346416    0.1171409 -68.66 8.396407e-05    1.033    0.032
       112  -7.8883    221.2631     64.3446   7.0954636053e+01   2.1489214934e+01    0.1295095    0.1125309  14.72 0.0002943854    1.601    0.375
       113  -8.0320    180.3010     63.6914   7.7358331388e+01   3.1606323056e+01    0.1512557    0.1103487 -75.40 0.0005931687    1.600    0.375
       114  -8.2607    202.2271     62.0174   7.3217466293e+01   2.6431808822e+01    0.1818338    0.1175886 -38.37 0.0004743719    1.594    0.372
       115  -8.9478    223.7550     59.4376   6.9474948925e+01   2.1662469264e+01    0.1936654    0.1217091  54.44 0.0009477717    1.673    0.402
       116  -8.6490    174.5156     59.5087   7.7291824733e+01   3.3705315894e+01    0.1478564    0.1360937  77.41 3.956533e-05    1.014    0.014
       117  -8.9541     72.4882     57.4407   1.0324237976e+02   5.6093220317e+01    0.1317801     0.116369  -5.02  0.000160824    1.028    0.027
       118  -8.7484     20.5032     57.0112   1.2239953191e+02   6.2192457214e+01    0.1788969   0.09568638 -50.79 0.0005693604    1.560    0.359
       119  -9.1079    155.6162     54.3317   7.9527429109e+01   3.9180449071e+01    0.4830914    0.2866149  84.16  0.001867158    2.671    0.626
       120  -7.9031     90.7097     55.6289   9.6659540902e+01   5.3287651437e+01    0.1436403    0.0996997   1.21 0.0007023457    1.719    0.418
       121  -8.9752    234.4692     52.4897   6.6549866319e+01   2.0228773137e+01    0.1349021     0.117164 -76.75 0.0008095859    1.032    0.031
       122  -8.8848    190.8356     52.2206   7.2542463168e+01   3.0725047797e+01     0.198723    0.1658796  41.11 0.0009123366    1.368    0.269
       123  -8.7268    149.8740     52.3450   8.0143827975e+01   4.0876750664e+01    0.2110464    0.1713611  54.15 0.0006804605    1.130    0.115
       124  -8.2728    105.5261     52.5125   9.1178593909e+01   5.0895891511e+01    0.1376104    0.1280991  22.63 0.0002369682    1.057    0.054
       125  -9.3701    194.5100     47.4671   7.0758133243e+01   3.0496572164e+01    0.2563396    0.1299166 -40.25 0.0008597777    2.001    0.500
       126  -9.7134    190.3382     44.9177   7.0745619031e+01   3.1886821899e+01    0.4981617    0.2451192 -65.00  0.001813653    3.150    0.683
       127  -8.6903     35.3098     50.6389   1.1469405614e+02   6.2044813703e+01    0.1063844    0.0963743 -84.57 0.0007040891    1.743    0.426
       128  -8.8533    220.6705     44.9244   6.6544204525e+01   2.4514237630e+01    0.1915441    0.1744307 -21.32 0.0007576389    1.413    0.292
       129  -8.5376    155.8096     42.8214   7.6136586026e+01   4.0755542563e+01    0.2005777    0.1656253 -80.84  0.001082945    1.351    0.260
       130  -9.6372    106.2687     42.3251   8.7522700511e+01   5.2217766273e+01    0.3709026    0.2307465 -54.91  0.001692953    2.456    0.593
       131  -9.5932      5.4475     40.0972   1.2362693332e+02   6.6250305530e+01    0.4332319   0.08865688 -52.65  0.001809185    3.433    0.709
       132  -8.4184    174.8357     40.5963   7.2087376588e+01   3.6331865114e+01    0.2084472    0.1259564  76.12  0.000949289    1.731    0.422
       133  -8.5167     68.2936     40.3445   9.8710616585e+01   5.9460812535e+01    0.1329013    0.0877385  -0.33  0.000702998    1.663    0.399
       134  -8.6024    248.2427     38.3805   6.2047444005e+01   1.9160417005e+01    0.1700976    0.1066067  87.05 0.0003114976    1.539    0.350
       135  -8.4521    242.9564     37.7641   6.2455211735e+01   2.0402836698e+01    0.1809009    0.1426193 -81.67 0.0004631271    1.078    0.073
       136  -9.0565     95.2369     37.6487   8.9036209566e+01   5.5072509233e+01    0.2406717    0.2150474 -58.81  0.001466097    1.503    0.335
       137  -8.8727    229.5743     37.3462   6.3798610509e+01   2.3479701062e+01    0.2413615    0.1440667  66.96 0.0005989974    1.574    0.365
       138  -9.6689    111.7988     34.8849   8.3497638571e+01   5.2020436593e+01    0.2832716    0.2221847  89.89  0.001512492    1.863    0.463
       139  -9.2266    105.2589     34.8831   8.5228352063e+01   5.3405049102e+01    0.2847287     0.175076  44.24  0.001466249    1.446    0.308
       140  -8.4981    218.4146     34.2840   6.4395751105e+01   2.6490145069e+01    0.1782538    0.1121161 -51.22 0.0004965839    1.524    0.344
       141  -8.8177    160.4895     34.4561   7.2854654790e+01   4.0676628562e+01    0.2420757    0.1802304  57.35 0.0006238525    1.192    0.161
       142  -9.1586    164.4717     32.8151   7.1695498322e+01   3.9894069961e+01     0.279799    0.2377992 -67.75 0.0006326063    1.259    0.206
       143  -9.0522    139.7926     32.5976   7.6272793678e+01   4.5927414956e+01    0.2803291    0.1675833  73.51  0.001280335    1.949    0.487
       144  -8.6964    170.7100     29.6198   6.9781225453e+01   3.8733952430e+01    0.2242689    0.1497654 -56.45 0.0006685254    1.679    0.404
       145  -8.3362    174.5584     29.4771   6.9136833888e+01   3.7797595227e+01    0.1381934    0.1204665  78.87 0.0001192201    1.029    0.028
       146  -9.3539     91.1151     24.3085   8.5389683604e+01   5.7511040024e+01    0.2830231    0.1978749 -10.84  0.001635761    1.503    0.335
       147  -8.3436    242.6523     25.6712   5.9998729004e+01   2.2055765312e+01    0.1178732   0.09408277  44.68 0.0005043511    1.758    0.431
       148 -10.4456    222.8189     23.2552   6.1454382181e+01   2.6850510251e+01    0.3309144    0.2821867 -89.51  0.002131006    1.078    0.072
       149  -8.7957     28.1691     24.6301   1.0841346669e+02   6.6911048938e+01    0.1567859   0.09021036  11.55 0.0009469147    1.723    0.420
       150  -8.5132    105.0422     23.2108   8.1182077154e+01   5.4813790318e+01    0.1825505   0.09254084  51.69 0.0005706948    1.731    0.422
       151  -8.3583    249.3180     22.3504   5.8731995546e+01   2.1020857383e+01    0.1118756   0.09418186  43.48 0.0003294189    1.737    0.424
       152  -8.5874    218.6918    248.1454   1.1055000141e+02  -9.9915436735e+00    0.2110247    0.1095792 -45.09  0.001066656    2.493    0.599
       153  -9.2121    206.4778     20.5426   6.2636449622e+01   3.1033000769e+01    0.2301687    0.1864945  84.04  0.000571788    1.043    0.041
       154 -10.0542    241.1689     18.2950   5.8643772815e+01   2.3295290551e+01    0.2791776    0.2099465  80.05 0.0009746999    1.205    0.170
       155  -8.3340    127.4958     19.4784   7.4682049286e+01   5.0250334299e+01    0.1337081    0.1143439  49.38 0.0001905575    1.006    0.005
       156  -9.0616    120.8276     17.8135   7.5565461553e+01   5.1932029738e+01    0.3049949   0.08759499 -29.05  0.001140321    3.684    0.729
       157  -8.8153     75.2826     17.2361   8.7494294574e+01   6.1221983174e+01    0.2528328    0.1633583  11.49   0.00145392    1.574    0.365
       158  -8.3717    113.4751     16.0366   7.6618243846e+01   5.3736385906e+01    0.1782725    0.1272574 -15.12  0.001024425    1.580    0.367
       159  -8.9573    107.2077     15.7641   7.8006952346e+01   5.5116631323e+01      0.33744    0.1078702  48.34  0.001228431    2.472    0.596
       160  -9.1719     87.0257     15.6896   8.3326303774e+01   5.9218012202e+01    0.1804442    0.1398581  32.30 0.0007660479    1.072    0.067
       161  -9.1383     63.6266     15.6227   9.0733671191e+01   6.3365608436e+01    0.2147778    0.1455714 -17.42  0.001119197    1.425    0.298
       162  -8.9574    200.9690    249.1825   1.1410369280e+02  -7.2886304045e+00    0.2489836    0.1528246  23.61   0.00134722    1.592    0.372
       163  -9.6788    175.8423     13.0407   6.4614809891e+01   3.9290991137e+01    0.2327902    0.1686659  71.14 0.0005594613    1.162    0.139
       164  -8.5922    165.3295    249.6713   1.2114968479e+02  -1.3323094121e+00    0.1292897   0.09298704  64.67 0.0007051339    1.711    0.415
       165 -10.0093    224.1142    245.0704   1.0901554875e+02  -1.0416814529e+01    0.3722816     0.308289 -53.37  0.002377884    1.811    0.448
       166  -8.4074    219.6883    244.3024   1.0972177315e+02  -9.6161711728e+00    0.1828033    0.1284914  13.16 0.0005515577    1.353    0.261
       167  -9.3071    210.6394    245.7540   1.1168785738e+02  -8.3730421751e+00     0.286916    0.2333089 -33.51  0.001853505    1.430    0.301
       168  -8.8417    201.7707    241.3405   1.1267559424e+02  -6.2656431054e+00    0.2432129    0.1692639 -20.76  0.001382826    1.648    0.393
       169  -8.2105     54.9916      8.0000   9.0606986799e+01   6.5522935265e+01    0.1862136   0.05711801  44.01 0.0008089899    2.988    0.665
       170  -8.8446    146.3495    242.2120   1.2386741049e+02   3.2295854525e+00    0.1687693    0.1241602 -69.53 0.0008315223    1.713    0.416
       171  -8.6405    214.2816    241.0299   1.1020216352e+02  -8.2847066564e+00    0.1732912    0.1516422  -4.95  0.001142715    1.164    0.141
       172  -9.0150    219.3949    239.6504   1.0899029589e+02  -8.9114148755e+00    0.2053734    0.1191541 -41.17  0.001090731    1.999    0.500
       173 -10.4295    231.7023    236.4959   1.0612159615e+02  -1.0407936452e+01    0.5126511     0.254838 -41.72  0.002579252    2.337    0.572
       174  -8.9410    195.3146    238.5030   1.1347512933e+02  -4.7377038786e+00    0.2076398    0.1203774 -41.00 0.0007788287    1.978    0.494
