#   1 NUMBER                 Running object number                                     
#   2 MAG_AUTO               Kron-like elliptical aperture magnitude                    [mag]
#   3 X_IMAGE                Object position along x                                    [pixel]
#   4 Y_IMAGE                Object position along y                                    [pixel]
#   5 X_WORLD                Barycenter position along world x axis                     [deg]
#   6 Y_WORLD                Barycenter position along world y axis                     [deg]
#   7 A_WORLD                Profile RMS along major axis (world units)                 [deg]
#   8 B_WORLD                Profile RMS along minor axis (world units)                 [deg]
#   9 THETA_WORLD            Position angle (CCW/world-x)                               [deg]
#  10 FWHM_WORLD             FWHM assuming a gaussian core                              [deg]
#  11 ELONGATION             A_IMAGE/B_IMAGE                                           
#  12 ELLIPTICITY            1 - B_IMAGE/A_IMAGE                                       
         1 -14.0827    170.8258     42.9346   7.3820252736e+01   3.7292136038e+01     1.258534    0.7827072  33.11  0.004503345    2.118    0.528
         2 -13.9274    182.9078     31.1804   6.8679434235e+01   3.5775244217e+01    0.8981134    0.7656029 -58.61  0.003482117    1.225    0.184
         3 -14.4764    188.2028     22.9925   6.5820225689e+01   3.5430534139e+01    0.9120288    0.7429844  -6.90   0.00151069    1.671    0.402
         4 -12.3600     57.5932      6.3971   8.9952331315e+01   6.5663631328e+01    0.3046043    0.2081748  44.94  0.001162941    1.597    0.374
         5 -10.3111     77.6663    232.2772   1.3700272317e+02   1.6662891634e+01    0.3319094    0.1595819  33.08  0.001528132    2.508    0.601
         6 -15.4838     69.5782    204.7756   1.3565694891e+02   2.3690309114e+01     6.526908     2.437497 -50.28   0.02501778    3.521    0.716
         7 -16.3476    115.6749    245.5471   1.3095741886e+02   8.0593920629e+00      6.05226     2.603242  37.58   0.02708554    2.207    0.547
         8 -10.4073     93.0815    206.9718   1.3080980904e+02   1.9610251720e+01    0.2313505    0.1953634 -64.27 0.0009532432    1.282    0.220
         9 -19.2836     26.8302    137.5585   1.3735324008e+02   4.4386347430e+01     19.51856     2.460322 -68.50   0.04471866    8.315    0.880
        10 -13.0574    196.0127    196.2004   1.0613931804e+02   2.5212293747e+00    0.9858853    0.7367277  78.86  0.004602304    2.169    0.539
        11 -10.4341     93.7733    198.9114   1.2955174523e+02   2.1288103534e+01    0.2379168    0.1457023  80.95  0.001072576    2.045    0.511
        12 -13.2724     11.7922    206.4033   1.4748646424e+02   3.0234378197e+01    0.3996726    0.3399237  36.22  0.002997062    1.585    0.369
        13 -10.0500     90.7559    193.8057   1.2951602384e+02   2.2935480962e+01    0.2002711    0.1467447  74.01 0.0007942006    1.366    0.268
        14 -10.2145    180.3041    193.6370   1.0900365301e+02   6.1028653055e+00    0.1471602    0.1174199  83.63 0.0007037452    1.733    0.423
        15 -10.1046    157.7538    192.8125   1.1386389832e+02   1.0783340872e+01    0.1987086    0.1694168  75.35 0.0003617141    1.320    0.242
        16 -11.4890    207.8126    185.5668   1.0156046308e+02   2.1990254546e+00    0.3632285    0.2904582   5.05  0.001209914    1.353    0.261
        17 -11.7960    212.4812    181.6532   9.9805695252e+01   2.0130173771e+00    0.3637562    0.2650603  14.36  0.001192432    1.573    0.364
        18 -10.9381     99.9879    186.5075   1.2626282770e+02   2.3079238895e+01    0.2189214    0.1347172  42.04 0.0007132597    1.573    0.364
        19 -10.3627     89.5885    183.3589   1.2824828828e+02   2.5538482967e+01    0.3973073    0.1915224  64.38   0.00127491    3.126    0.680
        20 -12.2712     84.8282    179.8831   1.2886013616e+02   2.7113013894e+01    0.4307134    0.2608821 -49.19   0.00171525    1.818    0.450
        21 -12.4583     88.1522    174.6743   1.2724099471e+02   2.7817595178e+01    0.4334108    0.2894984 -54.10  0.001469392    1.518    0.341
        22 -11.5536     98.5261    180.6477   1.2567615041e+02   2.4691679612e+01    0.4593568    0.2059095  41.24  0.001855894    2.148    0.534
        23 -10.6390    198.0813    176.7674   1.0176429745e+02   5.8142293703e+00    0.2677074    0.2155767 -69.12  0.001103551    1.612    0.380
        24  -9.9439    165.4539    208.4732   1.1499558504e+02   6.1214306029e+00    0.1443211    0.1301066  42.46 -3.466869e-05    1.020    0.020
        25 -12.4278    126.6066    173.0132   1.1746825660e+02   2.1342051778e+01    0.5875782    0.3007722  46.28   0.00236389    1.883    0.469
        26 -12.5272    107.7850    205.4016   1.2732608354e+02   1.7489147346e+01    0.4894505    0.3314415  12.93  0.002143044    2.637    0.621
        27 -10.8100    137.4909    170.4974   1.1431732592e+02   1.9758234041e+01    0.1536354    0.1465494  61.09 -5.335516e-05    1.012    0.011
        28  -9.3198    120.2850    163.6700   1.1723076904e+02   2.4747222158e+01    0.1560518    0.1168541  81.52 0.0005513995    1.613    0.380
        29 -12.2510     69.7521    160.6663   1.2961698885e+02   3.3955541976e+01    0.4277305    0.3110563  77.16  0.002245337    1.469    0.319
        30 -12.4789     99.5127    157.4765   1.2136315549e+02   3.0040364015e+01    0.6346914    0.3890025 -37.84   0.00265418    2.061    0.515
        31 -10.5752    175.1359    149.1700   1.0073986767e+02   1.6422601092e+01    0.2202541    0.1914176  87.17 0.0005349073    1.331    0.248
        32 -11.6950    133.7599    144.5666   1.0974148194e+02   2.6522006111e+01     1.029405    0.2767518 -54.37  0.002520341    4.990    0.800
        33 -11.7508    145.4215    146.0116   1.0711547993e+02   2.3703787124e+01    0.3640981    0.2955342  69.39 0.0004533863    1.372    0.271
        34 -12.4749     98.5489    141.9918   1.1854362920e+02   3.3940863307e+01    0.2818735    0.2682461 -13.10 0.0004222167    1.183    0.155
        35  -9.6124    168.3193    134.6589   9.8890048439e+01   2.1101894557e+01    0.1658215    0.1276557 -86.82 0.0007049663    1.716    0.417
        36 -11.3074    116.3345    131.4662   1.1134179289e+02   3.3134780908e+01    0.3158089    0.2570777 -18.68 0.0006883325    1.504    0.335
        37 -11.7670    105.1027    129.0924   1.1389630980e+02   3.5838899021e+01    0.5426151    0.3503756 -69.35  0.002305296    1.901    0.474
        38 -10.7356     72.7359    231.8166   1.3792512408e+02   1.7481216737e+01    0.2929402    0.1655114  79.42            0    1.924    0.480
        39 -12.0460    109.7475    141.2893   1.1535115481e+02   3.2078130311e+01    0.5465354    0.3387434 -34.12  0.002250367    2.047    0.512
        40 -10.9856    160.4251    127.6863   9.9049394584e+01   2.4436244244e+01    0.3095634    0.1548882 -48.46  0.001131762    2.070    0.517
        41 -10.0943    125.6629    127.3372   1.0782622551e+02   3.2204336567e+01    0.1645601    0.1247717  84.63 0.0007051502    1.752    0.429
        42 -10.3225    111.4116    120.0265   1.0995513400e+02   3.6755008782e+01    0.2219407    0.2050699  41.93 0.0002714202    1.101    0.092
        43 -11.0403    168.5921    113.4455   9.3521040749e+01   2.5543810308e+01    0.3658501    0.2726798 -72.10 0.0008693856    1.685    0.407
        44 -11.1992    110.2304    211.1701   1.2761325733e+02   1.5821848840e+01    0.2562738    0.1822509  86.65  0.001196696    1.589    0.371
        45 -10.3398    205.4018    110.1127   8.4976987896e+01   1.7413969202e+01    0.2592124    0.2099836  44.20 0.0006771246    1.301    0.232
        46 -10.4692     86.5331    204.3365   1.3190575183e+02   2.1238209665e+01     0.281013    0.2089204  -7.83   0.00133982    2.613    0.617
        47 -10.4026    178.2829    238.3186   1.1728215688e+02  -1.5914660532e+00    0.1295751   0.09659748   9.11 0.0002747065    1.585    0.369
        48 -10.5491      4.6596    236.5428   1.5056675436e+02   2.4847503847e+01    0.1074668   0.08624736  74.54 0.0004196821    1.242    0.195
