#   1 NUMBER                 Running object number                                     
#   2 MAG_AUTO               Kron-like elliptical aperture magnitude                    [mag]
#   3 X_IMAGE                Object position along x                                    [pixel]
#   4 Y_IMAGE                Object position along y                                    [pixel]
#   5 X_WORLD                Barycenter position along world x axis                     [deg]
#   6 Y_WORLD                Barycenter position along world y axis                     [deg]
#   7 A_WORLD                Profile RMS along major axis (world units)                 [deg]
#   8 B_WORLD                Profile RMS along minor axis (world units)                 [deg]
#   9 THETA_WORLD            Position angle (CCW/world-x)                               [deg]
#  10 FWHM_WORLD             FWHM assuming a gaussian core                              [deg]
#  11 ELONGATION             A_IMAGE/B_IMAGE                                           
#  12 ELLIPTICITY            1 - B_IMAGE/A_IMAGE                                       
         1 -12.0743    186.3436     44.3432   5.4158670212e+01   3.3052091027e+01      1.11349    0.7581532  -4.51  0.003751514    2.031    0.508
         2 -12.2568    196.2353     36.6334   5.0447719177e+01   3.1570811141e+01     1.044405    0.9839575  68.17  0.003511477    1.090    0.083
         3 -12.4621    206.3264     25.4291   4.6041130273e+01   3.0437326004e+01    0.9276962    0.7805554  34.03  0.002261505    1.437    0.304
         4 -10.7624     32.9052      4.4789   8.1432644738e+01   7.0897526251e+01    0.5594079    0.1456468 -29.89  0.001955881    4.618    0.783
         5 -10.3491    229.9245      2.0614   3.7831463328e+01   2.7318011808e+01    0.6745782     0.224058  76.29  0.002694185    2.911    0.656
         6  -7.5192    114.3103    200.3308   1.0732209718e+02   1.7727373837e+01    0.1231088    0.1058081  -6.48 0.0005978736    1.669    0.401
         7 -16.2509     52.7117    200.1096   1.2007311102e+02   2.6763542151e+01     18.23328     7.368375 -83.94   0.02848371    2.907    0.656
         8 -14.7818     62.8544    247.7956   1.2198616391e+02   1.6428498655e+01     6.554686     2.034669  32.89   0.01806736    5.431    0.816
         9  -8.2914     99.1781    180.8091   1.0787126619e+02   2.4282138145e+01    0.1682512    0.1649112  12.17  0.000678391    1.282    0.220
        10 -12.1639     68.5855    144.4150   1.0974379001e+02   3.7261502271e+01    0.9221841    0.6339044  83.24  0.002976224    1.570    0.363
        11  -8.9023    133.4348    142.1627   9.2724397608e+01   2.6711707525e+01    0.3592031    0.1446784 -58.03  0.001140369    3.220    0.689
        12 -12.1183     58.9894    132.7343   1.1040667754e+02   4.1323540056e+01     1.441562    0.4799273 -72.18  0.004506944    4.110    0.757
        13 -10.8434     71.7949    177.1263   1.1356464680e+02   2.9223293404e+01    0.4127267    0.2942354 -41.86  0.002202124    1.910    0.476
        14  -8.5478     86.6740    145.5751   1.0526341159e+02   3.4335784507e+01    0.1860566    0.1274679  52.55 0.0007288017    1.485    0.326
        15  -9.7830    103.9818    140.4602   9.9821159826e+01   3.2671936301e+01    0.4933423    0.3029817 -33.29  0.002057221    2.297    0.565
        16 -10.7096     91.5650    140.5726   1.0308168382e+02   3.4745475471e+01    0.2720485    0.2433508 -50.88  0.001535701    1.181    0.153
        17 -10.4906     90.4928    156.1482   1.0610429333e+02   3.1245292717e+01     0.512463    0.4013964 -11.54  0.001725284    1.990    0.497
        18  -8.9363    112.6672    130.8152   9.5521142083e+01   3.3356632821e+01    0.2587017    0.2077814  28.66 0.0007798253    1.418    0.295
        19  -8.6897    105.9022    130.6699   9.7283235912e+01   3.4635613249e+01     0.299597    0.2160062 -63.46  0.001442115    1.387    0.279
        20 -11.1987     43.1642    126.7995   1.1379996352e+02   4.4579121993e+01    0.3785845    0.3132692 -73.37  0.002011562    1.026    0.025
        21  -9.2577    118.5510    125.2074   9.2693451017e+01   3.3532708001e+01    0.3102895     0.147177 -55.16  0.001154535    2.185    0.542
        22  -8.7952    135.0000    120.4607   8.7275404180e+01   3.1255880521e+01    0.3496006   0.08769779 -46.50  0.000934349    3.932    0.746
        23  -8.2315    108.6937    119.5025   9.4002766407e+01   3.6744766453e+01    0.1856036    0.1492945  24.46 0.0009067408    1.457    0.314
        24  -8.1336    114.4920    118.4666   9.2175388203e+01   3.5881383937e+01    0.1519068    0.1456496 -70.42 0.0001149843    1.009    0.009
        25  -9.4419     99.7048    127.1683   9.8196124017e+01   3.6563797908e+01    0.3518817    0.2625933 -16.84  0.001090492    1.950    0.487
        26  -8.1944    167.6015    111.8672   7.7213156344e+01   2.5788624884e+01    0.2331679    0.1441824 -51.48 0.0009459151    1.737    0.424
        27 -10.6296     32.9232    109.4077   1.1401070400e+02   4.9748424299e+01    0.4885261    0.1565023 -69.38  0.001871655    2.823    0.646
        28 -11.4636     83.9807    162.7842   1.0874560515e+02   3.0715365378e+01     1.051406    0.4270443  56.12 0.0005268686    3.195    0.687
        29  -8.5173    205.5387    110.1674   6.8964285259e+01   1.7269431318e+01    0.2481337     0.209849  21.13 0.0006617529    1.311    0.238
        30  -9.9356    118.8230    107.1574   8.8135474388e+01   3.7608231574e+01    0.3515266    0.2743095 -23.23  0.001655404    1.518    0.341
        31 -12.0216     72.4211    158.1827   1.1086793186e+02   3.3472794874e+01    0.5337574    0.4521391 -43.86  0.001055385    1.429    0.300
        32  -8.4463    134.6188    105.7877   8.3560184785e+01   3.4579042625e+01    0.2299229     0.144676 -54.30 0.0009480918    1.692    0.409
        33 -14.4782      5.5527    249.5688   1.3129908815e+02   2.2616267085e+01     1.101656    0.5120139  34.76   0.00325876    2.493    0.599
        34  -9.4785     41.9348     92.0201   1.0795444706e+02   5.2998607940e+01    0.2045843    0.1723305 -58.97 0.0005827151    1.006    0.006
        35  -8.2091    157.2894     80.6710   7.0772655184e+01   3.4431802296e+01    0.1604372    0.1230783 -71.12 0.0003943178    1.619    0.383
        36  -8.3906     61.1818     68.6813   9.5301183543e+01   5.6011737875e+01    0.2005033    0.1699688  59.50  0.001047175    1.509    0.337
        37 -15.8528      1.9957    233.8787   1.3124401042e+02   2.5695344971e+01     15.39851          nan -76.26   0.02794538   24.036    0.958
        38  -9.4969    183.2639    215.4068   9.5584917755e+01   3.0696476283e+00    0.2073207     0.166827 -73.14  0.001193839    1.851    0.460
        39  -9.0080    151.8629     55.1434   6.3992578789e+01   4.0261960635e+01    0.3254367    0.2506996 -83.99 0.0005001946    1.638    0.390
        40  -9.6385    133.7632    245.2038   1.0911021803e+02   6.6277661335e+00    0.2782387    0.1610096 -55.27   0.00163662    2.151    0.535
        41  -7.4537    130.6528    212.7519   1.0564719065e+02   1.2615625137e+01    0.1229961   0.09663082  19.97 0.0003786286    1.580    0.367
        42 -10.3977     76.0572    172.1356   1.1194703504e+02   2.9743974653e+01    0.3073084    0.2714489 -45.79 0.0007526464    1.412    0.292
        43  -8.9531    153.8467     48.9004   6.1528708822e+01   4.0739316357e+01    0.2658567    0.2197265  84.56 0.0007427363    1.354    0.261
        44 -11.1766     32.6290     27.6428   9.2485928565e+01   6.7362770166e+01    0.4713667    0.1667763 -46.61  0.002127876    2.450    0.592
        45  -8.4271    193.3911    195.1811   9.0124597996e+01   4.5014579077e+00    0.1782137    0.1280727 -51.43  0.000944712    1.727    0.421
        46  -7.6804    197.6887    223.2905   9.4118531674e+01  -5.4303764048e-01    0.1151566   0.09426808  59.28 0.0006999133    1.585    0.369
