#   1 NUMBER                 Running object number                                     
#   2 MAG_AUTO               Kron-like elliptical aperture magnitude                    [mag]
#   3 X_IMAGE                Object position along x                                    [pixel]
#   4 Y_IMAGE                Object position along y                                    [pixel]
#   5 X_WORLD                Barycenter position along world x axis                     [deg]
#   6 Y_WORLD                Barycenter position along world y axis                     [deg]
#   7 A_WORLD                Profile RMS along major axis (world units)                 [deg]
#   8 B_WORLD                Profile RMS along minor axis (world units)                 [deg]
#   9 THETA_WORLD            Position angle (CCW/world-x)                               [deg]
#  10 FWHM_WORLD             FWHM assuming a gaussian core                              [deg]
#  11 ELONGATION             A_IMAGE/B_IMAGE                                           
#  12 ELLIPTICITY            1 - B_IMAGE/A_IMAGE                                       
         1 -11.5612    211.0965     29.2093   4.5449437844e+01   2.8757482149e+01    0.4944317    0.3803822   5.39  0.001149806    1.791    0.442
         2 -12.0072    224.8338     16.2179   4.0710825934e+01   2.6988215952e+01     0.845664    0.5739542 -65.79  0.002420737    1.385    0.278
         3 -13.4901    236.5402      4.9992   3.7070501311e+01   2.5509343069e+01      1.55827     1.043034  74.49  0.009145472    1.438    0.305
         4  -9.7148    189.4451     15.7625   4.4364110904e+01   3.5755230322e+01     0.398261    0.2680559  16.69  0.001909359    2.155    0.536
         5  -9.4423    134.2627     14.3202   5.2368173788e+01   4.9913432390e+01    0.3830766     0.206497 -36.56 0.0005102028    1.990    0.498
         6  -8.3205    179.6767      8.7146   4.3531920432e+01   3.8968257408e+01    0.1388624   0.09485704  43.27 0.0003399976    1.599    0.375
         7  -8.9495    240.7939    234.8320   8.7303554253e+01  -8.9091704200e+00    0.1471075    0.1287544  21.70  0.001072531    1.365    0.267
         8  -9.8233    247.8817    249.2868   8.8435578999e+01  -1.1480743153e+01    0.3876759    0.2354867  15.28  0.002553746    1.380    0.275
         9  -7.9910    117.8034    231.9062   1.0977915313e+02   1.1032054711e+01    0.2328349    0.1271543  59.25 0.0007433526    1.905    0.475
        10 -12.9221     32.4458    211.8323   1.2421992096e+02   2.6515725103e+01    0.8246896    0.6675572 -89.26  0.001822496    1.213    0.176
        11  -8.4810    227.4864    222.5548   8.7564852410e+01  -5.4299702721e+00    0.2060759    0.1641918  14.95 0.0003077862    1.010    0.010
        12 -12.5029     51.1780    192.3240   1.1893199724e+02   2.8401573420e+01       1.3808     1.141118 -77.18   0.00557231    1.228    0.186
        13  -8.5452    226.0473    204.9621   8.4705732211e+01  -2.8153785903e+00     0.262484    0.2118325 -51.90  0.001574796    1.799    0.444
        14  -8.4489    213.9569    199.5646   8.5943567584e+01   2.0946782146e-03    0.2048905    0.1767232 -25.91  0.001275006    1.246    0.197
        15  -9.2774    192.5698    194.7242   8.9179320993e+01   4.5575417244e+00     0.774991    0.4031719 -61.62  0.002529484    5.151    0.806
        16  -8.6754    215.0820    195.0052   8.4876314194e+01   5.0337445937e-01    0.1961865    0.1661679   8.97            0    1.035    0.034
        17  -7.9693    215.7310    190.1168   8.3817906027e+01   1.1476564097e+00    0.1810843    0.1700557   2.33 0.0006627725    1.170    0.145
        18 -10.2181    183.2704    186.0739   8.9432516387e+01   7.7693592263e+00    0.2655045    0.2428404  33.28  0.000360133    1.066    0.062
        19  -7.4073    241.9068    185.7888   7.8214342562e+01  -2.6730192537e+00    0.1555575    0.1463119 -15.29 0.0004206435    1.309    0.236
        20  -8.3352    135.8824    186.1033   9.9573583105e+01   1.6645928555e+01    0.2026426    0.1827688  45.87 0.0003380096    1.047    0.045
        21  -9.0687     68.4983    181.9865   1.1408268510e+02   2.8433747204e+01    0.2101531     0.175722  49.33   0.00034051    1.236    0.191
        22  -8.8005    204.0725    169.9955   8.2021787057e+01   6.6304515064e+00    0.2058429    0.1890941   7.56            0    1.019    0.019
        23 -10.2531    245.3130    197.5784   7.9907383616e+01  -4.8770712848e+00    0.2193731    0.1862034  -0.91 0.0003200503    1.100    0.091
        24  -8.8674     68.9988    166.4306   1.1198631751e+02   3.1905902648e+01     0.233046    0.1749076 -73.23 0.0001788193    1.217    0.178
        25  -7.4062    132.1843    163.3324   9.6319665378e+01   2.2149991419e+01    0.1997418    0.1278833  50.82 0.0009061362    1.558    0.358
        26 -10.8293     87.1234    156.1315   1.0601089627e+02   3.1669754759e+01    0.4904115     0.336639 -46.30  0.002471855    1.613    0.380
        27  -9.8285     94.9064    154.3813   1.0376286803e+02   3.0839746628e+01    0.2970316    0.2003972 -53.21  0.001468709    1.475    0.322
        28  -9.6162    133.4973    144.7543   9.2208672404e+01   2.6023010630e+01     1.070781    0.2511106 -54.14  0.002438302    6.187    0.838
        29 -10.6568     95.4191    147.1998   1.0233811366e+02   3.2451707802e+01    0.4426961    0.3816139 -11.02  0.001453121    1.526    0.345
        30 -10.7403     90.6564    145.4594   1.0324954036e+02   3.3643304343e+01     0.480407    0.3980508   6.93  0.002450196    1.623    0.384
        31  -7.3556    161.7123    142.3377   8.4951595197e+01   2.0686831073e+01    0.1540492    0.1231552 -84.45 0.0004314052    1.635    0.388
        32  -7.9296    190.0226    138.6714   7.7905595347e+01   1.5306705877e+01    0.2470298    0.1280076  66.92 0.0004775026    4.457    0.776
        33  -9.4953    136.1549    131.3681   8.8515173321e+01   2.8495025629e+01     1.034665    0.2098125 -50.91  0.002288902    6.114    0.836
        34  -7.9331     69.6741    135.3276   1.0700623056e+02   3.9227933075e+01    0.1463175    0.1005198  76.28 0.0007050043    1.699    0.411
        35  -7.9948    161.3818    128.6928   8.1775990532e+01   2.3639817031e+01    0.1631935    0.1255359  88.16 0.0007023409    1.792    0.442
        36  -8.7968    150.0813    118.8486   8.1976464242e+01   2.8257778856e+01    0.2439459    0.2395042 -46.22 0.0002903563    1.007    0.007
        37  -9.5612    206.3171    115.8939   6.9105428293e+01   1.6021616823e+01    0.2568535    0.2456931  -4.43 0.0002018554    1.046    0.044
        38  -9.7250    135.0000    113.0249   8.4234408449e+01   3.2842577332e+01    0.4350406     0.200378 -41.27  0.001564902    2.198    0.545
        39 -10.0859    134.8470    106.8600   8.2627571465e+01   3.4231972452e+01    0.7169111    0.3166349 -42.68  0.002011833    2.231    0.552
        40  -8.6533    112.7053    114.0442   9.0459466812e+01   3.7190480984e+01    0.2114391    0.1893315 -48.73 0.0002683247    1.075    0.070
        41  -8.5006    211.3046    112.0883   6.7229470325e+01   1.5596612883e+01    0.2846657    0.2464496  15.90  0.001037208    1.267    0.211
        42  -8.9413    118.3203    110.9835   8.8132297346e+01   3.6783821817e+01    0.4526601    0.2145951  60.25  0.001361453    3.824    0.738
        43  -8.3581    189.2223    107.8013   7.0357112938e+01   2.1470475060e+01    0.2527826    0.1253203 -27.28 0.0008738557    2.505    0.601
        44  -7.3850    186.3092    105.7015   7.0393281031e+01   2.2558125384e+01    0.1564119    0.1231949 -74.58  0.000180943    1.597    0.374
        45  -8.2221    112.7521    105.2782   8.8173965470e+01   3.9190915913e+01    0.2496571    0.1791145 -10.51  0.001052505    2.048    0.512
        46  -9.4567    140.0000    102.0379   7.9976736479e+01   3.4131003538e+01    0.4484588    0.2757192 -48.57  0.001489089    1.639    0.390
        47  -9.2741    142.4914     99.5340   7.8644264540e+01   3.4097816686e+01    0.3814411    0.2692668 -37.18 0.0005925626    1.418    0.295
        48  -9.1794    145.3472     96.3385   7.7023009324e+01   3.4109289300e+01    0.3850947    0.3054856  12.71   0.00107801    1.567    0.362
        49  -7.2845    234.2919    100.6739   6.0532117826e+01   1.2519498971e+01    0.1469811    0.1056328 -60.43 0.0007017423    1.619    0.382
        50 -10.1177    246.9909     97.4964   5.7880563216e+01   1.0363002172e+01    0.4747726    0.1826881 -31.75  0.001789883    2.468    0.595
        51  -8.0885     95.0324     94.4684   9.0413609654e+01   4.4978687166e+01    0.2118364    0.1885121 -43.37 0.0003076653    1.051    0.048
        52  -9.6240    151.7038     89.6606   7.3542529312e+01   3.3972141825e+01    0.5254692     0.280935 -33.46  0.001629077    1.983    0.496
        53  -9.8343    154.3798     86.7905   7.2066906037e+01   3.3896799394e+01    0.9448827    0.3688013 -34.27  0.003042459    2.795    0.642
        54  -8.4249    137.0679     89.1499   7.7013887048e+01   3.7490969170e+01    0.2613079    0.2234697 -43.82  0.001242705    1.152    0.132
        55  -7.9226    243.3313     81.3438   5.4529356380e+01   1.3704910415e+01    0.1408805    0.1084085   9.54 0.0007050668    1.754    0.430
        56  -9.9331    173.5159     72.2988   6.3608660230e+01   3.1850494107e+01    0.4566246    0.4219085  -5.39  0.002242912    1.165    0.142
        57  -9.2371    162.8398     78.0644   6.7558188635e+01   3.3482936030e+01    0.3107301    0.2811877 -20.38 0.0003848519    1.145    0.127
        58 -10.8442    167.3397     73.8863   6.5345647722e+01   3.3118163558e+01    0.8569936    0.6014548 -30.91 0.0008266584    1.459    0.315
        59  -7.7632    185.0368     77.6976   6.2929088257e+01   2.8029508173e+01     0.212753    0.2014869  56.35 0.0005647426    1.079    0.074
        60 -10.0015    146.8543     76.4160   7.0709587010e+01   3.7692894258e+01    0.3894364    0.2724713 -42.05 0.0008744996    1.420    0.296
        61 -10.2908    110.8908     73.9055   7.9453632426e+01   4.6306270373e+01    0.2524904    0.2353526 -26.18            0    1.026    0.025
        62  -9.0271    207.1843     67.8139   5.6342751851e+01   2.4206623096e+01    0.3523917    0.2622246 -18.26  0.001702054    1.540    0.351
        63 -11.7873    181.6446     58.9222   5.8113057579e+01   3.2010210688e+01    0.8992305    0.8460774  -0.65  0.001820615    1.161    0.139
        64 -10.7491    162.8544     62.9486   6.2947352173e+01   3.6126463374e+01    0.4187835    0.3180158 -17.78  0.001010071    1.486    0.327
        65  -9.5549    189.4233     51.0812   5.4503784264e+01   3.1228092918e+01    0.2781283    0.2646357 -30.09 0.0004095329    1.105    0.095
        66  -8.1151    132.9578     51.1236   6.5790438312e+01   4.5439392572e+01    0.2109827    0.1943308 -76.85            0    1.233    0.189
        67  -9.1181    193.3785     46.2579   5.2501525990e+01   3.0923231180e+01    0.3344651    0.1912564 -70.69  0.001070731    2.473    0.596
        68  -7.4104    156.1285     46.7592   5.9181398992e+01   4.0374916533e+01    0.1942694     0.167655  15.54 0.0004385534    1.285    0.222
        69  -8.6741    246.7625     46.4452   4.5777432697e+01   1.8114477953e+01    0.1776631    0.1209236  55.22 0.0009467564    1.666    0.400
        70 -10.9135    183.0074     39.6677   5.2190521700e+01   3.4487130325e+01    0.2926477    0.2629378  61.96 0.0004601441    1.098    0.089
        71 -11.6781    184.7816     35.3475   5.0646156233e+01   3.4607179524e+01    0.4119763    0.3348444  56.25 0.0005128385    1.220    0.180
        72 -11.4323    202.5663     37.5541   4.8758422630e+01   2.9802341436e+01    0.3822101    0.3410289 -40.46 0.0005752695    1.138    0.121
        73  -8.7838    104.3986     37.7700   6.8462490847e+01   5.3986854181e+01    0.2533294    0.1809667  61.57  0.001099757    1.660    0.397
        74  -9.0567    228.5227    248.1945   9.1543478291e+01  -8.6926283619e+00     0.216642    0.1692068  88.60   0.00109622    4.311    0.768
        75 -10.0585    115.3842    246.4381   1.1183830911e+02   8.9602786182e+00    0.2112144    0.1828087  59.30 0.0002807753    1.115    0.103
        76  -9.1360    216.8363    242.1605   9.2653161236e+01  -6.2795566496e+00    0.1733681    0.1458626  30.50   0.00123296    1.253    0.202
        77  -8.3665    193.6353    241.1890   9.6680619865e+01  -2.5951496746e+00     0.150128    0.1070915 -19.20 0.0005187595    1.637    0.389
        78  -7.9100    174.9942     17.0457   4.6612839079e+01   3.9304897607e+01    0.1624327    0.1539417 -49.22 0.0004530996    1.116    0.104
        79  -8.2272    166.9786     16.5606   4.7608018781e+01   4.1412644565e+01    0.2111073    0.1873419   1.11 0.0005299925    1.289    0.224
        80 -11.9418     16.7582    228.1628   1.2797586925e+02   2.5016141660e+01     1.333225    0.7253008  54.77   0.00910515    1.429    0.300
