#   1 NUMBER                 Running object number                                     
#   2 MAG_AUTO               Kron-like elliptical aperture magnitude                    [mag]
#   3 X_IMAGE                Object position along x                                    [pixel]
#   4 Y_IMAGE                Object position along y                                    [pixel]
#   5 X_WORLD                Barycenter position along world x axis                     [deg]
#   6 Y_WORLD                Barycenter position along world y axis                     [deg]
#   7 A_WORLD                Profile RMS along major axis (world units)                 [deg]
#   8 B_WORLD                Profile RMS along minor axis (world units)                 [deg]
#   9 THETA_WORLD            Position angle (CCW/world-x)                               [deg]
#  10 FWHM_WORLD             FWHM assuming a gaussian core                              [deg]
#  11 ELONGATION             A_IMAGE/B_IMAGE                                           
#  12 ELLIPTICITY            1 - B_IMAGE/A_IMAGE                                       
         1 -13.0614    242.4968     27.5029   1.8673475988e+01   2.5744864378e+01     1.284843    0.5528025 -61.24   0.00824362    1.873    0.466
         2 -12.0983    247.1501     11.5212   1.5948764816e+01   2.6756356721e+01    0.7280284    0.3878872 -65.00  0.005547738    1.357    0.263
         3 -10.9934    247.8923      3.3204   1.4681441603e+01   2.7480744628e+01    0.4394039     0.220478 -75.74  0.003301649    1.578    0.366
         4 -12.3988    226.5601     13.4753   1.7358181204e+01   2.9865041145e+01    0.6266488    0.2961883 -61.86  0.004200434    1.653    0.395
         5 -12.6847    231.4773      7.5029   1.6118065902e+01   2.9668402196e+01    0.8319832    0.4538691 -59.14  0.006244937    1.341    0.254
         6 -11.5527    193.0331     15.0785   1.9891392240e+01   3.5690385101e+01    0.3983166    0.3137183  14.97  0.002667849    2.636    0.621
         7 -10.9213    201.5411     12.8810   1.8855238563e+01   3.4329099601e+01    0.2826466    0.1487983 -81.78  0.001805388    1.674    0.403
         8  -8.7304     42.1876      8.6745   4.6072807130e+01   6.8376496230e+01    0.1580492    0.1365003  38.87 0.0005816261    1.153    0.133
         9 -11.9042    217.2082      5.4894   1.6566141024e+01   3.2282496711e+01    0.4880056    0.2694589  83.99  0.003513715    1.558    0.358
        10  -9.5218    111.4221      8.2149   2.7404002505e+01   5.3566305356e+01    0.1527538    0.1048045 -51.51 0.0006939556    1.646    0.393
        11  -8.9686     23.9565      7.9554   5.4659081603e+01   7.1649521617e+01    0.1777229     0.140977  22.22 0.0004331713    1.062    0.059
        12  -9.2761     31.0000      7.0026   5.0450849074e+01   7.0579183208e+01    0.1618137   0.06806275 -31.29 0.0004395664    2.873    0.652
        13 -10.5996    178.4765      3.7055   1.8796817804e+01   3.9649885579e+01    0.2317492    0.1735944 -48.22  0.001743672    1.422    0.297
        14  -9.3931    102.4776      4.5229   2.7801256103e+01   5.5889472048e+01    0.1905563   0.09675309 -44.59  0.001027834    2.308    0.567
        15 -11.0635    199.3599      3.3393   1.7265471723e+01   3.5692331460e+01    0.3416827    0.1361126  65.16  0.001989468    2.437    0.590
        16  -9.1210     33.0261      2.0105   4.7003066459e+01   7.0724443877e+01    0.1510573    0.1089068  38.05 0.0006048906    1.050    0.048
        17  -9.9350    150.2394      4.4060   2.1435125697e+01   4.5382094890e+01    0.1677542   0.08742591  86.37 0.0009528908    1.670    0.401
        18 -10.1242    178.6803    237.5173   6.4007655229e+01   7.9276596860e-01    0.3553087    0.1750377   5.04  0.001616616    2.494    0.599
        19  -8.7305    172.4804    250.4611   6.7208181281e+01  -7.8808808531e-01    0.1263585   0.09890264  -6.24 0.0003355092    1.014    0.014
        20 -10.6495     76.1065    248.4441   8.9740168281e+01   1.0535031365e+01     0.491818    0.2880548  32.55  0.002472365    1.464    0.317
        21 -10.2949     66.2338    248.4976   9.2262270634e+01   1.1632609636e+01     0.551795     0.308439  47.74   0.00264946    1.849    0.459
        22  -9.8014     50.6370    249.7442   9.6338458366e+01   1.3047323962e+01    0.4486151    0.1878342  28.67  0.001974052    1.944    0.486
        23  -9.6734    239.9423    235.3397   5.2579009076e+01  -4.6501680941e+00    0.2178283    0.1510107  -4.09 0.0006620322    1.288    0.223
        24  -9.1367    191.5325    236.5049   6.1282177461e+01  -3.7878773318e-01    0.1263449     0.095245 -14.33 0.0001290705    1.046    0.044
        25  -9.2638    215.8265    235.2122   5.6581719459e+01  -2.5326083408e+00    0.1673059    0.1049689 -19.54 0.0006074068    1.318    0.241
        26  -9.7182     60.9332    236.7979   9.2482813243e+01   1.4818903749e+01    0.3325917    0.1769303  24.25  0.001287377    1.659    0.397
        27  -9.6749    245.0549    231.4532   5.1210238204e+01  -4.4961607534e+00    0.2504039    0.1432758  -6.20  0.001425979    1.774    0.436
        28 -10.3021    217.7303    230.0418   5.5463687715e+01  -1.8909089405e+00     0.347976    0.2111901 -53.68  0.001685773    2.242    0.554
        29  -9.5313     54.1574    231.6229   9.3774642263e+01   1.6762190524e+01    0.3508328    0.1876792  44.66  0.001594713    1.807    0.447
        30  -9.5916    226.8625    230.1541   5.3926808600e+01  -2.7467303939e+00    0.2930305    0.1407483  23.50  0.001700797    2.234    0.552
        31  -8.7188    161.2248    230.4613   6.6635120800e+01   4.0290049260e+00    0.1666585    0.1140534  31.65  0.000343374    1.542    0.352
        32  -8.3943    104.6423    230.6756   8.0260545737e+01   1.0960504391e+01    0.1528207   0.09919757 -15.36 0.0007044654    1.773    0.436
        33  -8.4108    137.8613    228.8443   7.1737122365e+01   7.1719167952e+00    0.1792077    0.1549162  35.31 0.0005743959    1.335    0.251
        34 -10.3390     72.3749    226.6379   8.8317690769e+01   1.5844363873e+01    0.5938615    0.3290383  51.65  0.002571494    2.110    0.526
        35  -9.1461    197.6061    227.2157   5.8681053895e+01   5.6813598222e-01    0.1770355   0.09163637 -33.92 0.0009432652    1.652    0.395
        36  -9.3421    236.0698    225.1533   5.1672931432e+01  -2.7957436364e+00    0.2058072    0.1352431 -23.88 0.0008631776    1.156    0.135
        37 -10.0606     26.5976    225.0005   1.0060600064e+02   2.1148591708e+01    0.3979566    0.1755744  66.38  0.001512696    3.010    0.668
        38 -10.8444     61.9265    229.2402   9.1439162487e+01   1.6452184998e+01    0.5828617    0.3291057  49.10  0.002499941    1.876    0.467
        39 -10.4324    228.6571    220.7112   5.2190280132e+01  -1.4365708964e+00    0.2306119    0.1992198  11.22 0.0007394087    1.414    0.293
        40  -8.2772     85.4828    222.4533   8.4244704957e+01   1.5217893314e+01    0.1455016    0.1301942  15.71 0.0002017385    1.005    0.005
        41  -9.6635     53.6255    221.7909   9.2930844528e+01   1.9158522120e+01    0.4467073    0.1731935  36.17    0.0017416    2.223    0.550
        42  -9.4597    239.5938    220.7658   5.0456419572e+01  -2.4370653478e+00    0.1940216   0.09268513 -49.80  0.001052066    2.331    0.571
        43  -8.8830    237.2234    217.7485   5.0366588088e+01  -1.7623186509e+00    0.1564572    0.1166334 -17.28 0.0005540509    1.104    0.094
        44  -8.2868    109.3503    221.7416   7.7795099678e+01   1.2322519297e+01    0.1433329    0.1025835  46.87 0.0006968192    1.604    0.377
        45  -9.6628     62.3599    220.4501   9.0362450114e+01   1.8491163727e+01    0.4644016     0.202906  36.42  0.001881131    2.030    0.507
        46  -9.5378    221.9819    222.9493   5.3645560861e+01  -1.1622637330e+00    0.2564534    0.1382247 -52.40  0.001383375    2.333    0.571
        47  -9.8659    248.4056    218.2509   4.8741561413e+01  -2.8222558816e+00    0.1830395    0.1506444 -26.84 0.0008669957    1.260    0.207
        48  -9.7639    243.8215    219.0429   4.9547557375e+01  -2.5461121917e+00    0.1975186    0.1290498 -13.61 0.0007691005    1.377    0.274
        49 -10.2250    180.1624    216.7205   6.0442475679e+01   4.3628481477e+00    0.3104767    0.2353316 -25.47 0.0009262047    1.124    0.110
        50  -7.8971     95.2925    222.2948   8.1581664648e+01   1.4012915246e+01    0.1460415    0.1035883 -17.20 0.0002459238    1.557    0.358
        51  -9.5683     15.6326    216.2982   1.0293290794e+02   2.4253344745e+01    0.2584846    0.1579925  62.94  0.001272164    1.679    0.404
        52 -10.7033     12.1311    215.8335   1.0385139271e+02   2.4660882120e+01    0.4313701     0.222462 -85.41  0.001976656    2.050    0.512
        53 -10.9674    230.9142    210.8141   5.0291419953e+01  -8.2707737731e-02    0.5722541    0.4241923 -56.97  0.003764408    1.899    0.473
        54  -9.8884    213.1784    215.2774   5.3959590839e+01   9.6420836034e-01    0.3007595    0.1592814  11.77  0.001600452    2.256    0.557
        55 -10.0588    209.2451    211.8399   5.4104433353e+01   1.9567090354e+00    0.2842124     0.199714 -43.33 0.0009380734    1.379    0.275
        56  -8.3450    126.7082    214.6489   7.2286821820e+01   1.1584848354e+01    0.1518535   0.09986665 -19.41 0.0007029037    1.674    0.403
        57 -10.9102      7.7627    208.8435   1.0458505651e+02   2.6749928132e+01    0.3962432    0.2294259  77.10  0.001898954    1.828    0.453
        58  -9.4999    244.6756    199.0077   4.6352182832e+01   4.5261057122e-01    0.3802298     0.172153 -52.28  0.001941755    2.634    0.620
        59  -8.9125     79.8729    201.0855   8.2924219768e+01   2.1083231977e+01     0.211473     0.197004  58.59 0.0003910747    1.174    0.148
        60  -8.9619    242.9016    214.5167   4.9000928847e+01  -1.7773551408e+00    0.1398421   0.09972787  12.15 0.0006982349    1.527    0.345
        61  -8.1403    134.2971    200.3144   6.8058345725e+01   1.3669023798e+01     0.150318    0.1030217 -17.14 0.0007013687    1.605    0.377
        62  -9.1683    123.8045    197.7166   7.0279392434e+01   1.5750952560e+01    0.3023065    0.1644237 -52.35  0.001302195    1.883    0.469
        63 -10.2214      5.0687    198.4167   1.0465128105e+02   2.9600967480e+01    0.3315201    0.2906758  39.29  0.001977013    1.106    0.096
        64  -9.1612    182.8878    198.0804   5.6789211975e+01   7.5168369666e+00    0.1995692    0.1605915 -25.75 0.0006246538    1.059    0.056
        65  -9.0787    157.9407    197.5230   6.1985127680e+01   1.0944586672e+01    0.2348754    0.1927905 -61.20 0.0006563551    1.506    0.336
        66  -9.0194     17.7914    193.8574   1.0059471016e+02   2.9788235611e+01    0.1999573    0.1515576  55.97  0.000461951    1.311    0.237
        67  -8.6995    128.1352    192.8092   6.8327133174e+01   1.6232426549e+01      0.20712     0.161637 -13.35 0.0004050628    1.314    0.239
        68  -8.1943    142.5116    190.5135   6.4350813207e+01   1.4626146774e+01    0.1429464    0.1323125  -8.77  1.88397e-06    1.050    0.047
        69  -9.8719      3.4405    191.7292   1.0466721856e+02   3.1446192213e+01    0.3301838    0.1217255 -73.92  0.001279652    2.533    0.605
        70  -9.8138    249.4931    183.4531   4.3244113695e+01   2.4056706276e+00    0.1995494    0.1373072 -38.41 0.0006220066    1.099    0.090
        71  -9.6835    240.2102    182.5792   4.4406499311e+01   3.5036959695e+00    0.3467523    0.1498297 -38.48  0.001831617    1.814    0.449
        72  -8.7581    199.3165    180.3247   5.0601669807e+01   8.7128999315e+00    0.1318953    0.0868049 -18.66  0.000704387    1.670    0.401
        73  -8.5796    194.0125    176.2683   5.0849752287e+01   1.0166038862e+01    0.1459932    0.1115008  27.11 0.0004467834    1.451    0.311
        74  -8.9202    233.6324    190.8232   4.6700012301e+01   2.8665422968e+00    0.1648331    0.0895871 -48.36  0.000947246    1.708    0.415
        75  -8.4565    177.3127    159.6685   5.0974365815e+01   1.5773381358e+01    0.1302962    0.1064059 -82.03 0.0003813271    1.676    0.404
        76  -8.1957     51.3501    159.2866   8.5643522855e+01   3.5702318303e+01    0.1636678    0.1124509 -24.23 0.0007022152    1.660    0.398
        77  -9.5290    236.2498    145.5842   3.8881250518e+01   9.9660011675e+00    0.3450812    0.1633652 -60.37  0.001539675    3.321    0.699
        78  -8.3678    151.4569    142.4823   5.2989186292e+01   2.3567133931e+01    0.1413229    0.1345039 -62.94 0.0001738931    1.095    0.087
        79  -8.2793    215.6597    141.7117   4.1081601209e+01   1.3377403312e+01    0.1168361    0.0879166 -16.12 0.0004620344    1.642    0.391
        80  -9.9828    243.3740    137.2548   3.6592171732e+01   1.0398214617e+01    0.3536464    0.1066659 -51.97  0.001403672    3.671    0.728
        81  -9.1390     97.5354    134.9268   6.5622396568e+01   3.5030903928e+01    0.3610434    0.1380764 -46.98  0.001210961    2.639    0.621
        82  -9.2645    215.9647    135.0632   3.9849440082e+01   1.4471841286e+01    0.1772058    0.1376743 -14.98  0.000712527    1.625    0.384
        83  -9.6877    247.9054    131.1255   3.5047484478e+01   1.0784214826e+01    0.3973845    0.1756645 -58.06  0.001939804    2.840    0.648
        84  -9.3157    209.1717    130.5023   4.0014624632e+01   1.6262387602e+01    0.3618425    0.2090963 -82.06  0.001262621    5.562    0.820
        85  -8.9192      4.7451    125.9612   9.8134115745e+01   4.9004646068e+01    0.2029147    0.1730455 -63.13  0.000521471    1.110    0.099
        86  -9.3198    227.1549    124.5943   3.6474747442e+01   1.4602390979e+01    0.2117402    0.1509901 -62.30 0.0007197892    1.407    0.289
        87  -8.8611    235.2645    123.6063   3.5291992517e+01   1.3625352769e+01    0.1258471    0.1096407  33.41 0.0005692498    1.533    0.347
        88 -10.3167    240.7752    125.6688   3.4979847998e+01   1.2555766052e+01     0.226094    0.2082715 -43.31  0.001803856    1.212    0.175
        89  -9.1266    245.9726    119.6006   3.3377205958e+01   1.2805193323e+01    0.1874565    0.1244309 -32.69  0.001246457    1.577    0.366
        90  -9.2402    239.9446    118.6323   3.3898310366e+01   1.3763263487e+01    0.1927886    0.1255597 -61.00 0.0006777654    1.499    0.333
        91  -8.5494    108.2832    117.3624   5.8363438163e+01   3.7107598992e+01    0.1550045    0.1184168 -13.14 0.0007017962    1.681    0.405
        92  -8.8343    247.5055    113.0069   3.2126965094e+01   1.3600495512e+01    0.2528706    0.1173872 -65.49  0.001106428    3.916    0.745
        93  -8.5464    129.3309    115.6701   5.2317501764e+01   3.3348393480e+01    0.1507239     0.115722  86.30 0.0007051798    1.717    0.418
        94  -9.1760    235.8615    112.5796   3.3344885925e+01   1.5268165364e+01    0.2296309    0.1424755 -61.18   0.00111154    1.582    0.368
        95  -8.7975    147.2968    110.6732   4.7010637157e+01   3.0803247049e+01    0.1421355    0.1084351 -83.30 0.0003350349    1.630    0.387
        96  -9.8999    239.4772    103.4045   3.1390677753e+01   1.6152154269e+01    0.2181401    0.1753934 -44.49 0.0009916956    1.188    0.159
        97  -9.6038    230.0426    103.7188   3.2488265588e+01   1.7480946595e+01    0.1997949    0.1340179  26.70  0.001124525    2.939    0.660
        98 -11.3910    246.5948     98.4072   2.9825517264e+01   1.5886794657e+01    0.4069612    0.2326579 -60.22  0.002627684    1.610    0.379
        99  -8.6959    185.5048    100.0198   3.7716875171e+01   2.5454957484e+01    0.1745915     0.109586 -22.89 0.0008101339    2.595    0.615
       100  -9.7161    237.6119     96.2321   3.0377799254e+01   1.7490664444e+01    0.1500883   0.08715369 -40.42 0.0009354794    1.549    0.355
       101  -9.7448    230.5790     96.1535   3.1115573022e+01   1.8550145934e+01    0.1614328    0.1317131  61.49  0.001075175    1.491    0.329
       102  -8.6377      2.9827     95.0000   9.4442015760e+01   5.7097211816e+01    0.2207914   0.07551342  11.17 0.0008022396    2.941    0.660
       103  -9.0416    197.5022     93.4808   3.4670699726e+01   2.4383850116e+01    0.1223139    0.1044947 -62.65 0.0001108125    1.009    0.009
       104  -8.7507    131.2167    103.1925   4.8904340133e+01   3.5489030849e+01    0.2397195    0.1634979   2.34 0.0009572228    2.839    0.648
       105  -9.3196    144.2146     87.7510   4.2334773357e+01   3.5670418404e+01    0.2832823    0.1935538 -34.75  0.001441351    1.670    0.401
       106  -8.9058     44.0030     76.9708   7.0855905019e+01   5.7252659976e+01    0.2244258    0.1763123  62.05  0.001142789    1.744    0.427
       107  -9.0339    220.3420     72.3090   2.7999257811e+01   2.3659929129e+01   0.09631865   0.08923403  -0.48 0.0007044265    1.693    0.409
       108  -8.9467     65.7480     71.6229   6.0119901947e+01   5.4759677598e+01    0.2317536    0.1852352 -77.22  0.001183292    1.787    0.440
       109 -10.5067    247.4486     70.4358   2.5187046016e+01   1.9679586705e+01    0.2489313    0.1410234 -78.87  0.001604652    2.022    0.505
       110 -10.1076    228.3061     69.8539   2.6785699780e+01   2.2702310665e+01    0.1856702     0.107531 -57.98  0.001193505    1.425    0.298
       111 -11.2397    246.0525     60.0618   2.3624986265e+01   2.1251614931e+01    0.3092685    0.1952286 -44.40  0.002249231    1.419    0.295
       112  -8.9094    127.4885     59.9654   3.8805081276e+01   4.3798761689e+01    0.1909911    0.1039504 -62.73  0.000809946    2.551    0.608
       113  -8.7926    123.5253     55.4897   3.8435163881e+01   4.5334138267e+01    0.1338433    0.1180609  71.77 0.0001841909    1.002    0.002
       114  -8.3785     29.5033     55.4797   7.1214672838e+01   6.3553872500e+01    0.1359527    0.1161802   9.34  0.000198157    1.046    0.044
       115  -8.4967    134.3562     52.6729   3.5562018972e+01   4.3343135358e+01    0.1389407   0.09285922 -81.06 0.0007045206    1.777    0.437
       116 -10.2485    243.7021     47.6881   2.1808976052e+01   2.3172173549e+01    0.2396968   0.09383935 -61.56  0.001315347    2.455    0.593
       117 -10.6458    240.5632     44.1753   2.1466184423e+01   2.4090197537e+01    0.3828266    0.1924735 -35.89   0.00236603    2.270    0.559
       118  -8.9286    166.5348     48.5126   2.9514736027e+01   3.7018237217e+01    0.1241675    0.1012592 -81.86 1.521516e-05    1.049    0.047
       119  -9.8499    233.6449     41.3951   2.1508562942e+01   2.5528638122e+01    0.2410071    0.1925578  -5.54  0.001655505    2.724    0.633
       120  -8.7111     94.4930     41.4531   4.1130092058e+01   5.3727549947e+01    0.1342177    0.1143673  62.29 8.905282e-05    1.058    0.055
       121 -10.4338    220.9884     36.3414   2.1597115875e+01   2.8241255672e+01    0.2918143   0.09921456 -53.58  0.001523635    2.432    0.589
       122  -9.2507    151.8265    249.6100   7.1543863416e+01   1.5656603743e+00    0.1885414    0.1025379  30.98  0.000960402    1.775    0.437
       123  -8.6694    124.4758    249.5110   7.7853088891e+01   4.6879549449e+00    0.1366752     0.111712   2.68  0.000295255    1.034    0.032
       124  -8.5744    229.4175    247.4787   5.6067567527e+01  -5.5757187647e+00    0.1132843   0.07815693 -19.28 0.0001431385    1.035    0.034
       125  -9.2272     37.9633     34.7253   5.9269363319e+01   6.5852826389e+01    0.1902201    0.1434668  30.86 0.0003724856    1.120    0.107
       126  -8.6846     44.3625     32.1796   5.5219149781e+01   6.5137823686e+01    0.1597846    0.1221973 -48.34 0.0007790077    1.742    0.426
       127  -9.2201     57.6293    246.8954   9.4309357953e+01   1.2924539607e+01    0.2898825    0.1346986  38.81  0.001130507    1.873    0.466
       128  -9.1233     77.9869     31.0043   4.2270952217e+01   5.8644528386e+01     0.196013    0.1661396  55.04 0.0004952332    1.061    0.057
       129  -9.3953    238.4425    244.9805   5.4225989856e+01  -5.9335117088e+00    0.1645083   0.08234961 -38.71  0.001029866    1.603    0.376
       130 -10.3086    232.8562     28.5117   1.9438810559e+01   2.7172303707e+01    0.1653725    0.1520289 -62.81  0.001449192    1.505    0.335
       131  -9.2817     99.3063     25.0194   3.4790747706e+01   5.4638687581e+01    0.1712664    0.1556896  79.45 0.0007961832    1.130    0.115
       132  -9.3113     12.7981     22.6128   6.8403379042e+01   7.1258491572e+01    0.1796255   0.09468355  33.04  0.000961737    1.726    0.421
       133  -9.2024     47.3084     20.5369   4.9118236501e+01   6.6108970991e+01    0.1913128    0.1157467 -30.85  0.001065732    1.979    0.495
       134 -10.5625     72.9886    239.9927   8.9647221948e+01   1.2731425778e+01      0.54437    0.3299769  55.11  0.002349864    1.973    0.493
       135  -8.7381     31.3401     17.3259   5.5168124469e+01   6.9328401394e+01    0.1308336   0.08105232  15.77 0.0007051366    1.730    0.422
       136  -9.9831    201.4274    240.6876   6.0022887017e+01  -2.0511258794e+00    0.2286517    0.1608289 -12.35 0.0007014154    1.146    0.127
       137  -8.6583    187.4648    241.4913   6.2835697907e+01  -8.0409844024e-01     0.124477   0.09689327 -11.92 0.0001315686    1.014    0.014
       138  -8.7185    127.4718    241.3200   7.6027053784e+01   5.9407458849e+00    0.2398947    0.1110782  24.16 0.0006829084    1.919    0.479
       139  -9.0203    162.8669    239.6809   6.7672429735e+01   2.1381983079e+00    0.2091579     0.137766  -1.50 0.0007640133    1.426    0.299
       140 -10.2447     52.8957    238.9631   9.4805690133e+01   1.5207429504e+01    0.3348498    0.2612556  26.31  0.001515836    1.132    0.117
       141  -8.9852    249.4212    239.2215   5.1677133188e+01  -5.9596402651e+00    0.1405602    0.0825472 -43.18 0.0009458352    1.644    0.392
       142 -10.5394    232.9357    235.9352   5.3791464616e+01  -4.1561597321e+00    0.4659875    0.2073215 -16.28  0.002279998    2.867    0.651
       143  -9.0048    235.6190    230.1582   5.2497057394e+01  -3.5158606966e+00     0.205893   0.09777321 -30.14 0.0009206133    1.693    0.409
       144  -8.9198    220.2159    237.9657   5.6230298574e+01  -3.3607524531e+00    0.2247614    0.1112745 -15.60  0.001189457    2.191    0.544
       145  -8.5158    224.1536    236.8202   5.5384576022e+01  -3.5330965875e+00    0.1659487    0.1018539 -18.71  0.001070541    1.343    0.256
