#   1 NUMBER                 Running object number                                     
#   2 MAG_AUTO               Kron-like elliptical aperture magnitude                    [mag]
#   3 X_IMAGE                Object position along x                                    [pixel]
#   4 Y_IMAGE                Object position along y                                    [pixel]
#   5 X_WORLD                Barycenter position along world x axis                     [deg]
#   6 Y_WORLD                Barycenter position along world y axis                     [deg]
#   7 A_WORLD                Profile RMS along major axis (world units)                 [deg]
#   8 B_WORLD                Profile RMS along minor axis (world units)                 [deg]
#   9 THETA_WORLD            Position angle (CCW/world-x)                               [deg]
#  10 FWHM_WORLD             FWHM assuming a gaussian core                              [deg]
#  11 ELONGATION             A_IMAGE/B_IMAGE                                           
#  12 ELLIPTICITY            1 - B_IMAGE/A_IMAGE                                       
         1  99.0000    232.7045      4.0216   3.9844390849e+01   2.5900763183e+01      2.81521    0.7423303  50.45  0.008693206    5.294    0.811
         2 -14.3470    176.7375     74.1018   6.7291475984e+01   3.0663648272e+01      9.45515     4.882083 -68.61  0.004634129    7.847    0.873
         3 -13.6351    191.3421     45.8239   5.6121219451e+01   3.1305538630e+01      7.28049     1.986236  56.41   0.02294953    3.254    0.693
         4 -11.6407    231.9555     13.6869   4.2292304830e+01   2.5066081487e+01    0.8772265    0.3037739 -28.80  0.001591908    2.706    0.631
         5 -14.5552    213.5329     66.5162   5.8598647569e+01   2.2670429250e+01     12.08093     4.323142 -48.59   0.03451419    3.562    0.719
         6 -14.7255    242.2867     31.4784   4.5728351852e+01   2.0572836430e+01      5.13465     1.006703  56.83   0.01253352    4.566    0.781
         7 -13.3977    240.6190     45.3278   4.9368487041e+01   1.9189219838e+01     2.420963     1.106962 -46.90  0.004312132    2.090    0.522
         8 -12.8646    216.0784     32.8346   4.8964093456e+01   2.6715825353e+01     1.086422    0.6154527 -25.52   0.00194773    1.818    0.450
         9 -11.5900    228.8604     20.0851   4.4199307185e+01   2.5096355327e+01    0.7593421    0.4376833  82.19  0.001958956    1.827    0.453
        10 -12.3955    249.2842      3.5958   3.8481415254e+01   2.2125893792e+01     1.735849    0.7392156 -14.77  0.005538005    3.726    0.732
        11 -10.1488    202.3222     17.7646   4.6419815393e+01   3.1942614458e+01    0.5886554     0.344658 -75.97  0.002360404    2.068    0.516
        12 -10.4566    141.6045     15.5993   5.4701314923e+01   4.7789683341e+01    0.5386563    0.3297337  -2.57   0.00200328    1.941    0.485
        13 -10.0452    143.3764      8.4516   5.1793869631e+01   4.8031639086e+01     0.561855    0.3144676  12.98  0.001972515    2.331    0.571
        14  -9.7049    144.0000      2.9062   4.9699028298e+01   4.8354668187e+01    0.8067425    0.2045256 -25.37  0.002757692    3.674    0.728
        15  -9.1257    178.9884     13.9924   4.8226299588e+01   3.8348523604e+01    0.2944962     0.185723 -33.86 0.0007040351    1.617    0.382
        16 -11.9104    119.0756      9.8300   5.7028970196e+01   5.3840335125e+01    0.8053238    0.4943256  43.37  0.002566067    1.465    0.317
        17  -9.0931    208.9799      5.9906   4.2460348453e+01   3.1477258317e+01    0.2045582    0.1725504  79.76 0.0003807909    1.110    0.099
        18  -8.9776    171.6191      4.4816   4.6229909604e+01   4.1158341880e+01    0.4662876    0.2041475 -17.82  0.001908046    2.589    0.614
        19  -9.9811    137.2039      4.3819   5.1379021535e+01   4.9930900310e+01    0.3452228    0.2703637  21.23  0.001035967    1.297    0.229
        20  -8.5782     79.9781      2.0231   6.3570002952e+01   6.3043061448e+01    0.2806716    0.1474784 -19.24   0.00140245    1.834    0.455
        21  -8.3406    195.8293     11.2783   4.5325042809e+01   3.4279119612e+01    0.2292274     0.166645 -41.98 0.0006359333    1.376    0.273
        22 -10.0136    125.5652     14.4444   5.7462265016e+01   5.1845765322e+01    0.3178101    0.2873224  -6.65  0.001076501    1.130    0.115
        23  -7.8561    184.7007    168.3292   8.9681100129e+01   1.1336391119e+01    0.1369637    0.1156234 -89.98 0.0003537698    1.641    0.391
        24  -9.1370    236.8586    249.8086   9.4532705318e+01  -8.8439178576e+00    0.1420941    0.1158036  28.94 0.0006905716    1.308    0.236
        25  -9.9651    230.2663    166.6164   8.0562862613e+01   2.7320611061e+00    0.2692054    0.2170968 -11.51  0.001547967    1.141    0.124
        26 -10.2352    235.5058    161.4805   7.8527020757e+01   2.5274304706e+00    0.2817653    0.2352812   1.02  0.001151556    1.059    0.055
        27  -9.6917    232.6609    160.2745   7.8768774005e+01   3.2449774655e+00    0.2351034    0.2049507  15.58 0.0006604209    1.079    0.073
        28 -11.5702     45.5282    161.0051   1.1946558699e+02   3.6243499227e+01    0.7100049    0.4168147  64.03  0.002964895    1.720    0.419
        29  -8.0777    203.6921    160.6004   8.4246763712e+01   8.8652338024e+00     0.187804    0.1342445  51.67 0.0005699164    1.534    0.348
        30  -8.4169     79.9228    160.1082   1.1150851700e+02   3.2041271454e+01    0.1893094    0.1523527  78.27  0.001114745    1.179    0.152
        31  -8.1105    250.3188    249.6755   9.2319953989e+01  -1.0725609043e+01    0.0934832   0.08218587  36.57  0.000704524    1.674    0.403
        32  -8.0189    184.5267    246.5146   1.0293709017e+02  -5.2670457402e-01    0.1185803   0.09082279  31.66 0.0002521948    1.053    0.050
        33 -10.1800    128.2560    237.9817   1.1182413621e+02   9.6020242204e+00     0.204126    0.1790344  60.13 0.0003262115    1.116    0.104
        34  -8.2584    238.8938    211.2698   8.7801405934e+01  -4.8704322132e+00    0.1727899    0.1271432  21.79 0.0004801096    1.112    0.101
        35 -13.1752    226.4771     56.5867   5.4037296523e+01   2.0984905156e+01     1.471998     1.224018  53.22  0.004571043    1.282    0.220
        36  -9.0898    236.9617    193.4137   8.4810290186e+01  -2.2739549201e+00    0.2673327    0.2322363  82.45  0.001159482    2.071    0.517
        37  -9.1782    134.1066    146.6720   9.6255008504e+01   2.5766482896e+01    0.5732661    0.1540022 -54.33  0.001472227    5.213    0.808
        38  -8.2798    192.2140    144.1559   8.2842788240e+01   1.4147849483e+01    0.1971901    0.1767165 -64.12 0.0004472563    1.339    0.253
        39 -11.7781    204.1933     65.3388   5.9748937346e+01   2.5167801203e+01    0.8943415    0.4533528 -48.16  0.002994758    2.140    0.533
        40 -10.2171    190.3067    138.8513   8.1986883565e+01   1.5534467109e+01    0.3942229     0.201184  46.43   0.00158862    1.955    0.488
        41  -8.8252    230.2453    193.9436   8.6098182474e+01  -1.2007001615e+00    0.4009914    0.1798025  54.63  0.001469252    4.058    0.754
        42 -10.0344    180.2167    135.5175   8.3298240389e+01   1.8367807965e+01    0.4091314    0.2390037  28.63  0.001617376    2.156    0.536
        43 -10.1295    189.1818    131.5357   8.0453461587e+01   1.7142668530e+01    0.3822266    0.2028116 -41.15  0.001315425    1.878    0.468
        44  -7.6187    170.9975    132.2355   8.4497018497e+01   2.1036072998e+01    0.1987305    0.1274956  45.95 0.0004922119    1.557    0.358
        45 -10.1043    135.7635    125.9230   9.1163880228e+01   2.9922372977e+01    0.7852678    0.3021802 -53.95  0.002489613    3.180    0.686
        46  -9.5454    161.0805    127.9628   8.5667212601e+01   2.4078330870e+01    0.3293319     0.232432 -49.55  0.001500041    1.476    0.322
        47  -7.6108      8.3616    129.2578   1.2465489753e+02   4.6781479690e+01    0.1100852   0.07431595 -49.33 0.0003072305    1.626    0.385
        48 -11.5311    185.4948    121.5076   7.8709541087e+01   1.9859788960e+01    0.8949894    0.4769336 -32.64  0.003538759    1.933    0.483
        49  -9.8624    186.9859    110.9879   7.5661244222e+01   2.1495383771e+01    0.3380148    0.2871653 -76.29  0.001246188    1.461    0.316
        50 -11.1444    188.3525    104.6231   7.3676171662e+01   2.2354692024e+01    0.8685072    0.5902696  62.59  0.003791465    1.724    0.420
        51 -11.4857    186.3883     94.8626   7.1384551626e+01   2.4610756661e+01     1.228541    0.4783086 -45.42  0.003992707    2.800    0.643
        52  -9.3035    205.1664    122.2840   7.4968652715e+01   1.5261827387e+01    0.2978971    0.1954225 -58.87  0.001243189    2.109    0.526
        53 -10.0644    216.0467    121.5676   7.2750338315e+01   1.2969966245e+01    0.3924699    0.2843441  71.45  0.001280746    1.926    0.481
        54 -10.3325    159.8951    116.5539   8.3038554144e+01   2.6666366866e+01    0.3861694    0.3007759 -63.10 0.0006948049    1.518    0.341
        55  -9.1935    129.3689    115.8462   9.0263252862e+01   3.3433635688e+01    0.3085306     0.237363 -73.17 0.0006224906    1.597    0.374
        56  -8.1026    175.5161    115.5280   7.9280480021e+01   2.3298186265e+01    0.2901923    0.1388129 -48.74  0.001027907    2.361    0.576
        57  -9.8072    167.5331    114.2090   8.0688883541e+01   2.5396921169e+01     0.449694    0.4033256  23.56  0.001171091    1.150    0.130
        58  -7.3428     90.6805    115.3182   1.0044605711e+02   4.0708431766e+01    0.1460488    0.1104088  84.64 0.0003001648    1.661    0.398
        59 -11.3787    216.1024    103.7461   6.8200027463e+01   1.6003557672e+01    0.6615229    0.4135428  31.70 0.0008426466    1.918    0.479
        60 -11.8573    205.9574    109.6750   7.1589583427e+01   1.7315554625e+01    0.7639226    0.5509878  36.46  0.003599522    1.466    0.318
        61 -11.2549    201.5085    101.3974   7.0236460998e+01   1.9815016258e+01    0.6988131    0.5493751 -89.94  0.002604531    1.719    0.418
        62  -8.8746    196.2690    111.4036   7.3904305787e+01   1.9252120915e+01    0.2076579    0.1518619  62.29 0.0004768688    1.589    0.371
        63  -9.1577    134.7651    107.9247   8.6816343438e+01   3.4014639682e+01    0.5202106    0.1697855 -44.39  0.001618126    2.977    0.664
        64  -8.7500    158.6245    108.9605   8.1309857717e+01   2.8494288429e+01    0.2625371    0.2246418  56.72 0.0003603646    1.239    0.193
        65 -10.0587    120.9046    105.1641   8.9671401037e+01   3.7492129403e+01    0.4056417    0.2167989 -50.86 0.0007988181    1.879    0.468
        66  -9.1989    124.1050    102.5092   8.8101314067e+01   3.7416480978e+01    0.3071263    0.2450953 -11.87  0.001463781    1.510    0.338
        67  -8.2966    170.3519    104.4678   7.7432258329e+01   2.6652827575e+01    0.2766263    0.1797552 -54.79 0.0007908391    1.816    0.449
        68  -9.3186    148.7112    101.0018   8.1453055863e+01   3.2375850393e+01    0.3383708    0.2787773 -29.76 0.0005685335    1.219    0.179
        69  -8.6944    114.4190    105.1419   9.1406636789e+01   3.8780800685e+01    0.2504508    0.1836223  49.02 0.0005926663    1.460    0.315
        70 -10.5229    225.5347     97.4986   6.4973525294e+01   1.4887735168e+01    0.3644041    0.2921856 -28.98  0.001168198    1.158    0.136
        71 -11.6403     66.6831    146.0523   1.1253544210e+02   3.7063064334e+01     1.001061    0.7399724 -68.94  0.003886511    1.201    0.167
        72  -8.8870    134.9800     97.4511   8.3853480119e+01   3.6177203340e+01    0.3031814    0.2503665  86.40 0.0007856288    1.547    0.354
        73  -8.7965    120.5029     97.0917   8.7552363611e+01   3.9320810377e+01     0.242496    0.1460262 -43.43  0.001031114    1.585    0.369
        74 -10.4491    159.2156     95.2396   7.7334288508e+01   3.1081990088e+01    0.6307224    0.3692658  34.74  0.002374816    2.004    0.501
        75  -9.4678    162.1338     90.1612   7.5193182411e+01   3.1363133930e+01    0.3462955     0.222336 -48.05 0.0009156408    1.642    0.391
        76 -10.9939    157.5747     85.3633   7.4803731929e+01   3.3367962612e+01    0.4615742    0.3909434  -1.81 0.0009079258    1.303    0.233
        77  -9.6639    142.4639     90.9964   8.0089759540e+01   3.5820968725e+01    0.3461882    0.3039456 -68.71  0.001235244    1.300    0.231
        78  -8.1534    198.1510    153.1195   8.3690258125e+01   1.1289813523e+01    0.2319194    0.1916414   7.30  0.001072508    1.245    0.197
        79  -9.5582    208.7849     85.4818   6.4600581945e+01   2.0802018223e+01    0.4218525    0.2906093 -60.62  0.001861222    1.797    0.443
        80  -8.3718    103.0137     87.0183   8.9540455071e+01   4.4909250435e+01    0.2089567    0.1992744 -49.91            0    1.077    0.072
        81  -8.0101    155.5548    153.5387   9.2795272604e+01   2.0047148241e+01    0.1451021    0.1410979  38.62 4.939546e-05    1.007    0.007
        82  -9.8722      3.3895     80.7667   1.1983762390e+02   5.8011083707e+01    0.3835794    0.1723243  78.04  0.001482437    4.566    0.781
        83  -8.1942    132.6394     80.8564   7.9491109109e+01   4.0053299407e+01    0.2316705    0.1377294 -47.91 0.0009452319    1.760    0.432
        84 -10.3381    192.2299     75.8186   6.4829167120e+01   2.6485043289e+01    0.3916126    0.2681846  39.92  0.001749859    1.575    0.365
        85 -10.5556    197.7550     72.9541   6.3012425995e+01   2.5573761857e+01    0.4580594    0.3355159  33.77  0.001332659    1.539    0.350
        86  -8.6184    138.1502     74.2197   7.5987185728e+01   4.0063528584e+01    0.3608707    0.1890481 -53.39  0.001291392    2.523    0.604
        87  -8.3935    192.8460     68.5982   6.2617788843e+01   2.7509498436e+01    0.3004021    0.1760263 -47.94  0.000559807    1.817    0.450
        88  -8.9716    192.0499    192.7310   9.2976805350e+01   5.8229067836e+00    0.3028631    0.1728771 -57.56  0.001295299    2.963    0.662
        89 -11.0312    118.2835     65.6564   7.8371820786e+01   4.6110603974e+01    0.4328019    0.3340594  33.25 0.0009198193    1.343    0.255
        90 -12.7246      6.5146    183.4635   1.2934869118e+02   3.5283025853e+01    0.7885638    0.5203981 -89.87  0.004048571    1.136    0.120
        91  -8.8768      2.4963     64.4927   1.1725336805e+02   6.1627084641e+01    0.1185614    0.0869496 -58.83 -7.149203e-05    1.001    0.001
        92  -8.4017    189.9910    148.7765   8.4358906256e+01   1.3776045856e+01    0.2289043    0.1760288  78.41   0.00106042    1.923    0.480
        93  -8.4911    183.5146     64.4809   6.3085363627e+01   3.0535488369e+01    0.2864812    0.1988674 -40.32 0.0006299411    1.420    0.296
        94  -7.3165     71.6959     54.3326   8.8911290799e+01   5.6918383540e+01    0.1290262    0.1088367 -72.31 0.0007037278    1.659    0.397
        95  -8.4960    214.3060    158.8824   8.1831665113e+01   7.0284274235e+00    0.1891893     0.162942  -8.71 0.0002984357    1.090    0.082
        96  -8.6376    249.7028    185.3962   8.1041869721e+01  -3.3484542935e+00    0.2528325    0.1871885   6.62  0.001105658    1.186    0.157
        97  -8.0298    161.5977     36.7412   5.8347473419e+01   4.0231956133e+01    0.2035785    0.1350779 -38.24 0.0006827821    1.541    0.351
        98  -8.1053     69.4034     34.1796   8.1907315933e+01   6.0834273215e+01    0.1820227    0.1145678 -41.96 0.0004586961    1.624    0.384
        99  -9.8378    180.4712     25.5265   5.1593692796e+01   3.6712182112e+01      0.52452    0.3396702 -32.50  0.002465233    1.557    0.358
       100  -9.5351    180.1144     21.3632   5.0353257627e+01   3.7275521176e+01    0.4938815    0.2935126 -66.77  0.002113165    2.172    0.540
       101  -9.2517    225.9266    183.6109   8.4853305962e+01   1.0107825227e+00    0.2223309    0.1802249 -25.21 0.0003886255    1.266    0.210
       102  -8.6074    154.8005     24.7884   5.5537404995e+01   4.3448559421e+01    0.3261835    0.1584129  58.02  0.001350646    1.885    0.470
       103  -8.7791    202.1744     23.2037   4.7978227213e+01   3.1374325284e+01     0.290663    0.2267893 -68.08 0.0009859592    1.315    0.239
       104  -9.4556    226.0017    178.6999   8.3850453481e+01   1.7145550061e+00    0.2592475    0.2173665  33.66  0.000696736    1.206    0.171
       105  -8.1873     53.3459     19.8158   8.1670489492e+01   6.5491136551e+01    0.1809363   0.09873018 -25.06  0.000935159    1.655    0.396
       106  -7.6477    159.7365     17.7025   5.2277436816e+01   4.2956053907e+01    0.1432035    0.1016773  31.43 0.0002501798    1.511    0.338
       107  -9.7371    222.5090    178.0220   8.4349933126e+01   2.4547444155e+00    0.4070942    0.2784573 -65.20   0.00178193    3.116    0.679
       108  -8.2290    146.7265    177.0123   9.9340358776e+01   1.7128622441e+01     0.177536    0.1722184 -78.83 0.0001753173    1.093    0.085
       109 -10.3211    194.2526    175.3591   8.9195947897e+01   8.2409936657e+00    0.2541956    0.2363936  -9.91 0.0002692082    1.102    0.093
       110  -7.4205    147.2612    149.7145   9.3850000673e+01   2.2509761187e+01    0.1404992    0.1156878  88.35 0.0002436475    1.486    0.327
       111  -8.8907     79.9124    175.4490   1.1366670794e+02   2.8679362087e+01    0.1946495     0.157778 -79.24 0.0002190005    1.141    0.123
       112  -8.8557    235.7364    174.3013   8.1203125952e+01   5.9457803971e-01    0.2617695    0.1178043  50.80  0.001075338    2.758    0.637
       113 -12.0363     21.4951    169.5282   1.2543229166e+02   3.6842066013e+01    0.7978153     0.352084  79.22   0.00394022    2.447    0.591
       114  -9.3345    224.9233    188.1525   8.5932363724e+01   5.3704004142e-01    0.2617582    0.1707405  38.01 0.0002946352    1.424    0.298
       115  -8.1269    220.6320    170.6915   8.3180927899e+01   3.9205764781e+00    0.1485307   0.09778787  11.62 0.0007036279    1.758    0.431
       116 -12.0313     39.1139    165.0336   1.2130984768e+02   3.6056083995e+01    0.5775543    0.4303436  66.38  0.001601225    1.231    0.188
       117 -12.0297     51.2923    157.3821   1.1773696428e+02   3.6393346163e+01    0.8140021    0.5888305 -88.14  0.002081744    1.218    0.179
