#   1 NUMBER                 Running object number                                     
#   2 MAG_AUTO               Kron-like elliptical aperture magnitude                    [mag]
#   3 X_IMAGE                Object position along x                                    [pixel]
#   4 Y_IMAGE                Object position along y                                    [pixel]
#   5 X_WORLD                Barycenter position along world x axis                     [deg]
#   6 Y_WORLD                Barycenter position along world y axis                     [deg]
#   7 A_WORLD                Profile RMS along major axis (world units)                 [deg]
#   8 B_WORLD                Profile RMS along minor axis (world units)                 [deg]
#   9 THETA_WORLD            Position angle (CCW/world-x)                               [deg]
#  10 FWHM_WORLD             FWHM assuming a gaussian core                              [deg]
#  11 ELONGATION             A_IMAGE/B_IMAGE                                           
#  12 ELLIPTICITY            1 - B_IMAGE/A_IMAGE                                       
         1 -11.2838     71.6048     44.1733   1.0363789860e+02   5.9007689194e+01    0.6139166    0.3539734  12.41  0.002617815    2.749    0.636
         2 -10.7087    198.3240     38.1323   7.1918872442e+01   3.0744950091e+01    0.9010515    0.4845668 -43.84   0.00374361    1.828    0.453
         3 -13.2747    168.9614     10.6351   6.7813607955e+01   4.1444141695e+01     1.737322      1.40552 -80.54  0.008750641    1.273    0.215
         4 -11.6791    199.9816      6.7116   6.2973633243e+01   3.3914820783e+01     1.031011    0.7542294 -79.09  0.004767602    1.330    0.248
         5 -11.0347    185.7221      2.3142   6.3258768006e+01   3.7937221356e+01    0.9320129    0.1955633  66.08  0.003039329    3.582    0.721
         6  -8.7639    188.0288     16.3962   6.7051781407e+01   3.5956677752e+01     0.276356    0.1977596   5.17 0.0009199469    1.841    0.457
         7  -8.2249    111.9239     10.7636   7.8038986610e+01   5.5517243543e+01    0.2151646     0.154098  32.81 0.0006308103    1.324    0.244
         8  -9.6468    127.4064      2.8098   7.1737273610e+01   5.2589559298e+01    0.3989888     0.328364  50.38  0.001957283    1.078    0.073
         9  -9.2995    125.6125      7.8590   7.3990165756e+01   5.2578782599e+01     0.566163    0.3190131 -34.19  0.002744751    1.907    0.476
        10 -10.4002    121.2819      4.5998   7.3594389567e+01   5.3904425203e+01    0.6678683    0.4693196  89.89  0.003459189    1.823    0.452
        11  -8.3276     71.9417      5.3633   8.6631996966e+01   6.4380085189e+01     0.175113    0.1363941  29.82 0.0004817441    1.148    0.129
        12  -7.4421     44.3212    176.3488   1.3966152311e+02   3.3577038250e+01     0.114314   0.08683385 -47.47 0.0007048866    1.741    0.426
        13  -9.0596    195.0997    135.8426   9.8529440918e+01   1.5359893306e+01    0.3845765    0.3075769 -47.74  0.001268574    1.325    0.245
        14  -8.6362    185.1434    132.6434   9.9782196422e+01   1.8129182725e+01    0.3122991    0.2460447  35.01 0.0009000119    1.292    0.226
        15  -8.3758    139.9407    127.4218   1.0862117239e+02   2.9030247317e+01    0.2939033    0.2423714  39.99  0.001484296    1.235    0.190
        16  -7.2979     13.7181    114.3001   1.4012296764e+02   5.0367684676e+01     0.116879   0.07717194  77.26 0.0002281247    1.547    0.354
        17  -9.9272     40.3165    110.3574   1.3201771022e+02   4.8966385614e+01    0.4169758    0.4064459 -88.13   0.00182255    1.182    0.154
        18 -11.9083    226.1887     95.1249   8.2967248964e+01   1.5449794748e+01     1.355495     1.076006  68.31  0.007119346    1.426    0.299
        19  -7.8842    245.4855     92.4781   7.9448038915e+01   1.1635754514e+01     0.139686     0.126245 -33.58  -2.8581e-05    1.002    0.002
        20  -7.3841    129.9569    107.0307   1.0600065933e+02   3.5486439935e+01    0.1743003    0.1647459  50.39 0.0009242758    1.076    0.070
        21  -8.2501    128.0179     90.9982   1.0207524980e+02   3.9244935010e+01    0.2218557     0.207917 -11.24  0.001178951    1.110    0.099
        22  -8.3863    148.7057     89.9868   9.6647752574e+01   3.4775818435e+01    0.2157485    0.1992092 -33.61 0.0002952608    1.079    0.073
        23  -7.6486     84.2833     89.3141   1.1401646795e+02   4.7987439056e+01    0.1416564     0.106507 -22.36 0.0003799231    1.577    0.366
        24  -9.8586    212.1890     92.6567   8.4623008415e+01   1.9072705336e+01    0.7334519    0.5364508 -60.20  0.003342155    1.577    0.366
        25  -7.4356    192.4436     88.4749   8.7012019809e+01   2.4502631228e+01    0.1508871     0.146927 -37.60 6.838884e-05    1.005    0.005
        26  -8.3926    188.8547     87.1236   8.7315244068e+01   2.5610970362e+01    0.2073912    0.1783553  19.93 0.0002854371    1.305    0.234
        27  -8.7171    176.4713     87.0812   8.9728420307e+01   2.8646447707e+01    0.3544499     0.220273  50.51   0.00123404    1.613    0.380
        28  -7.3067    122.3290     85.2973   1.0190556192e+02   4.1623485929e+01    0.1531318    0.1196727   4.84 0.0007027281    1.636    0.389
        29  -9.9184     73.5179     83.6139   1.1582335663e+02   5.0915838570e+01    0.3131099    0.2174816  60.40  0.001551794    1.922    0.480
        30  -8.6442    105.1323     82.7058   1.0591380436e+02   4.5660985287e+01    0.2277272    0.1865251  67.07 0.0007439783    1.464    0.317
        31  -7.7277      9.4978     82.5959   1.3677813645e+02   5.7776615589e+01    0.1614966   0.09592097 -77.39 -0.0003974482    1.521    0.343
        32  -7.5096      6.9890     80.5428   1.3725913500e+02   5.8379131577e+01    0.1457305    0.1073944 -15.56 0.0009712251    1.699    0.411
        33  -7.5776     41.7727     94.9711   1.2869749410e+02   5.2356749747e+01    0.1718525   0.09096488 -60.84 0.0004425108    1.579    0.367
        34  -8.4048    185.5043     93.7538   8.9775421205e+01   2.5254366650e+01    0.2875189    0.1431634 -41.07 0.0006985991    1.961    0.490
        35  -9.4347    174.8086     79.1362   8.7797145751e+01   3.0459309741e+01    0.2422685    0.2118201 -70.38 0.0004336591    1.248    0.199
        36  -8.9779     43.9987     78.1595   1.2419540692e+02   5.5892399631e+01    0.2121685    0.1359771 -21.83  0.001094319    2.009    0.502
        37  -8.1806     36.8552     77.7494   1.2655296578e+02   5.6708893942e+01    0.1901842    0.1437213 -42.47 0.0005838839    1.201    0.168
        38  -9.0823    239.2192     75.4094   7.6160557422e+01   1.5581446873e+01    0.3017398    0.2146849   0.43  0.001450105    1.928    0.481
        39  -9.6133    220.8139     75.7219   7.8850122062e+01   1.9767889437e+01    0.3502909    0.1929406  56.27  0.001440181    1.878    0.468
        40  -9.0224    179.9651     78.5058   8.6599520625e+01   2.9289673708e+01     0.238755    0.1510164  55.46 0.0008461037    1.591    0.371
        41 -10.5821    152.1456     67.4832   8.9076050814e+01   3.8073577045e+01    0.4751309    0.3305527 -50.97  0.002158925    1.564    0.361
        42 -10.8011    133.8171     74.2389   9.5535990033e+01   4.1221669750e+01    0.3898656    0.3544354 -11.82  0.001990091    1.138    0.121
        43  -9.1421    122.5335     74.7120   9.8607606783e+01   4.3657415007e+01    0.2385583    0.2200346  -2.32 0.0005942411    1.116    0.104
        44 -10.9864     65.9245     73.8402   1.1555552463e+02   5.4114577953e+01    0.5830855    0.2768586 -35.86  0.002422431    2.386    0.581
        45  -9.8086     72.5049     74.4871   1.1355232198e+02   5.3019393791e+01    0.2979803    0.1245583 -49.38  0.001211457    2.166    0.538
        46  -8.9208    235.7308     74.0486   7.6294474907e+01   1.6569771444e+01    0.2075758    0.1766075 -34.33  0.001161005    1.102    0.093
        47  -7.6715    109.4678     76.5075   1.0277727904e+02   4.6055167217e+01    0.1473663    0.1403733 -24.44 0.0003804918    1.006    0.006
        48 -11.3795     62.5487     70.1953   1.1563497009e+02   5.5349095165e+01    0.7312066    0.3729111 -26.76  0.002867501    3.047    0.672
        49 -11.0877     59.3452     67.2822   1.1587803932e+02   5.6386632783e+01    0.5652831    0.2695571 -31.32  0.001969571    2.782    0.641
        50 -11.2871    140.1414     63.5341   9.0573588604e+01   4.1652489501e+01    0.6051997    0.3233324 -44.60   0.00245099    1.959    0.489
        51  -9.7719    128.3002     72.7322   9.6466312400e+01   4.2754146597e+01    0.3408725    0.2595572  68.16   0.00161723    1.574    0.364
        52 -10.1535     16.4276     66.2190   1.3118476671e+02   6.0901244296e+01    0.5643457    0.2705767 -75.49  0.002696752    2.466    0.594
        53 -11.1256     79.4458     68.6473   1.0947941491e+02   5.3132488639e+01    0.4560493    0.3585667  70.07  0.002397685    1.782    0.439
        54  -8.8471     39.5819     71.0042   1.2393399294e+02   5.7907360234e+01    0.2029415    0.1829694   9.88 0.0004381441    1.281    0.219
        55  -9.4432      7.2872     66.9252   1.3467010940e+02   6.1323965523e+01     0.515489    0.2946131 -49.32  0.003170141    1.401    0.286
        56  -8.4486    243.0033     69.4023   7.4193668077e+01   1.5621835682e+01    0.2579257     0.180802 -42.39 0.0006416184    1.286    0.222
        57 -10.0127    232.4560     68.9878   7.5470714251e+01   1.8071374744e+01    0.3115901     0.235651 -47.44 0.0006434392    1.241    0.194
        58 -10.9815    233.2910     65.3400   7.4441428293e+01   1.8414842942e+01    0.5846786    0.3189272  66.09  0.001919068    2.009    0.502
        59  -9.0069    125.3497     62.2196   9.3808549607e+01   4.5319265965e+01    0.2829388     0.184131 -39.16 0.0005800473    1.523    0.344
        60 -10.8831    183.0015     66.8682   8.2668200997e+01   3.0463519932e+01    0.5049324    0.4527936  44.48  0.002608766    1.145    0.126
        61  -9.5202     88.5179     67.8263   1.0629827152e+02   5.1751866966e+01    0.2279285    0.2054663  74.81  0.001289733    1.367    0.269
        62 -10.4382    129.9686     66.9972   9.4196941405e+01   4.3423861427e+01    0.4109588    0.2912731 -89.34  0.001730592    2.255    0.557
        63  -7.1767     38.2786     67.2969   1.2343097197e+02   5.8831487676e+01    0.1274754   0.08175538 -34.38 0.0002151837    1.535    0.349
        64  -8.7528    221.6257     65.4818   7.6068973331e+01   2.1132801976e+01    0.2527132    0.1321017 -32.06  0.001075028    1.834    0.455
        65  -9.6012    100.5668     65.1698   1.0171739547e+02   5.0020083776e+01    0.3848199    0.3251306 -33.67  0.002100951    1.126    0.112
        66  -7.7008     46.6967     66.3718   1.2011913382e+02   5.8130102712e+01    0.1256305   0.09842307 -88.68 0.0007031768    1.754    0.430
        67  -9.8368    145.5283     63.5620   8.9327215904e+01   4.0352780070e+01    0.3516997    0.2311947 -72.52  0.001387426    2.431    0.589
        68  -8.8463    213.1445     63.1434   7.6676341507e+01   2.3528550018e+01    0.2090517    0.1967113  17.68 0.0005215444    1.183    0.155
        69 -10.7063    121.8979     68.4351   9.6766398887e+01   4.4973395071e+01    0.5845022    0.3219158 -26.45  0.002321502    2.173    0.540
        70 -10.5011    219.5440     60.1426   7.4964175231e+01   2.2419274192e+01    0.5364349    0.3350812   6.04  0.001881544    2.860    0.650
        71 -10.2519     75.5272     58.9916   1.0761428476e+02   5.5667816597e+01    0.3147939    0.1961268  20.14  0.001487302    2.046    0.511
        72  -7.8694    108.5239     60.9924   9.7977995141e+01   4.9188396467e+01    0.2236003    0.1878175  42.54 0.0005494697    1.218    0.179
        73  -7.6149      1.2492     61.3822   1.3578831008e+02   6.2824755005e+01    0.1239079   0.05891693 -48.04 0.0003614898    1.654    0.396
        74 -11.1432     90.4022     56.9666   1.0203515023e+02   5.3474070768e+01    0.6848191    0.3466898  48.85  0.002945679    2.224    0.550
        75 -11.7410     96.6176     53.0869   9.8724965966e+01   5.2986285278e+01    0.9368759    0.5184802  57.10  0.003980679    2.369    0.578
        76  -9.5745     31.7059     58.7382   1.2354872385e+02   6.1257170625e+01    0.4623948      0.21092 -17.57  0.001556515    5.506    0.818
        77 -10.8144    149.9467     57.8051   8.6484364906e+01   4.0221644843e+01     0.567133    0.4453489  75.87   0.00276654    1.456    0.313
        78 -10.0097    151.3473     50.7174   8.3878688683e+01   4.0980034212e+01    0.3341515    0.3001373  77.59  0.001592648    1.178    0.151
        79  -8.5431     38.4985     59.0058   1.2103102550e+02   6.0542768747e+01     0.173084    0.1066521 -77.27  0.000810649    2.610    0.617
        80  -9.5385     12.2857     70.0919   1.3350919600e+02   6.0341013352e+01    0.3721579    0.2634064 -28.73  0.001968526    1.526    0.345
        81  -8.7528    216.1330     56.1380   7.4379789253e+01   2.3826374027e+01     0.249107    0.2019455 -41.93 0.0006811105    1.170    0.146
        82  -7.5698    212.6049     56.1890   7.4888761621e+01   2.4682801477e+01    0.1992818    0.1735232  32.60 0.0004668763    1.310    0.237
        83  -9.1049     47.9551     56.2921   1.1661810410e+02   6.0050762170e+01    0.2249736     0.172775 -71.68  0.001211584    1.685    0.407
        84  -7.7707      6.4776     56.4863   1.3276242268e+02   6.3579565566e+01    0.1170026   0.08925357 -54.16 -8.993662e-06    1.007    0.007
        85  -8.2513    185.9730     55.0060   7.8681763774e+01   3.1544565832e+01    0.2235857    0.2168928  84.58 0.0003531631    1.014    0.014
        86  -8.6884     28.5267     55.0482   1.2373921175e+02   6.2301538183e+01     0.194611    0.1012339 -55.44 0.0007232114    1.603    0.376
        87  -8.6591    248.9482     53.9969   6.9763577505e+01   1.6472331577e+01    0.2264688     0.144182 -62.14  0.001131568    1.681    0.405
        88  -9.8854     71.8151     62.1387   1.0993128493e+02   5.5640834163e+01    0.2400234    0.1984793   3.03 0.0009999406    1.305    0.234
        89 -11.2715    143.6344     50.3121   8.5409436257e+01   4.2949797630e+01    0.5379344    0.4698474  32.52  0.002865164    1.156    0.135
        90 -11.2269     62.9660     52.2498   1.0969427706e+02   5.8868077020e+01    0.4739158    0.2582663  39.17  0.002338876    2.039    0.509
        91  -8.9030    172.0575     49.9805   7.9603143302e+01   3.5842181570e+01    0.2300459    0.2076299  85.95            0    1.138    0.121
        92  -9.8230    175.6399     48.2909   7.8449122345e+01   3.5168582426e+01    0.5473321    0.3266626  74.74  0.002310905    1.946    0.486
        93  -7.8724     26.3097     50.2935   1.2323682488e+02   6.3456641714e+01    0.1246556    0.0751428 -31.84 0.0005262834    1.588    0.370
        94 -10.7254     61.9595     42.5610   1.0652249176e+02   6.0780747068e+01    0.7032499    0.2522813 -52.71  0.002234865    4.781    0.791
        95 -11.0663     76.3910     46.5570   1.0287279676e+02   5.7803432054e+01    0.3981685    0.3019031 -25.07  0.001187941    1.231    0.187
        96  -9.0129    249.9091    241.5049   1.0899698332e+02  -9.5134470168e+00    0.3265721     0.169008 -14.47  0.001899931    2.187    0.543
        97  -8.9045    203.6730     45.3363   7.3187943637e+01   2.8431559586e+01    0.4229017    0.2841434  54.88  0.001674692    1.501    0.334
        98 -10.1082    206.5999     36.9838   7.0488974051e+01   2.8803533849e+01    0.5020939    0.4190442 -13.25  0.001753994    1.374    0.272
        99  -9.5698    199.6812     28.2659   6.8964054262e+01   3.1634978662e+01    0.4242408    0.3948058 -78.42  0.001961562    1.010    0.010
       100  -7.6029     11.9912    242.7850   1.5001463388e+02   2.4260243402e+01    0.1148909   0.06336386  46.77 0.0008315872    1.554    0.357
       101  -9.9621    193.9392     30.1511   7.0248693942e+01   3.2868985911e+01    0.5568619    0.4151303 -31.57  0.002520053    1.376    0.273
       102  -9.9377     44.3901     44.9851   1.1420770740e+02   6.2661721274e+01    0.3044647    0.1901934 -52.07   0.00168966    1.570    0.363
       103  -9.2478    181.8434     52.4065   7.8616000670e+01   3.2982587949e+01    0.3040296    0.1654532  46.99  0.001008231    1.909    0.476
       104  -8.4630    112.6311     45.1601   9.1213584608e+01   5.0973680244e+01    0.2074729    0.1328733 -20.35 0.0009504899    1.711    0.416
       105  -9.6739    207.1985     50.3923   7.4083459267e+01   2.6847807120e+01    0.5318928    0.3505974  59.89  0.002071449    1.514    0.340
       106  -8.6529    190.9559     42.8588   7.4340326469e+01   3.1996484546e+01    0.3336678    0.2880648  55.86  0.001813595    1.162    0.140
       107 -10.8049     58.0199     50.9715   1.1106409902e+02   5.9804186633e+01    0.4200153    0.2857926 -70.79  0.002043683    2.455    0.593
       108  -7.5908    116.2908     44.3088   8.9922978890e+01   5.0296104581e+01     0.146809    0.1077572  14.94 0.0005819495    1.581    0.367
       109 -10.2015    134.5351     39.8356   8.3848723216e+01   4.6702081648e+01    0.3657772     0.309137 -67.46  0.001934233    1.404    0.288
       110  -8.9844    237.9759     47.9819   6.9536293499e+01   1.9767572248e+01    0.1715954    0.1544432 -57.33  0.001023014    1.003    0.003
       111  -7.6971    153.5891     37.7745   7.9153808556e+01   4.2260840913e+01     0.223794    0.1833275 -51.33 0.0003278425    1.311    0.237
       112  -8.9679    150.3941     38.1901   7.9918397570e+01   4.3011478568e+01    0.2684207    0.2189506  80.31  0.001384839    1.341    0.254
       113  -7.6419    187.3138     48.3124   7.6499174790e+01   3.2173119422e+01    0.1507977    0.1121836  28.20 0.0007032045    1.636    0.389
       114  -8.5275     28.5424     38.4809   1.1848556806e+02   6.5549910889e+01    0.1867256    0.1044121  38.62 0.0008655835    2.308    0.567
       115  -7.5555      2.7157     43.6990   1.3121057843e+02   6.6397715490e+01    0.1177215   0.06201267 -40.83 0.0001985244    1.553    0.356
       116 -10.0547     96.6530     41.8036   9.4524392031e+01   5.4849048073e+01    0.3523069    0.2377087   7.06  0.001669309    1.888    0.470
       117  -8.3191    155.6833     42.1405   8.0187863543e+01   4.1135242975e+01     0.257107    0.2025563 -80.40 0.0007509459    1.512    0.339
       118 -10.2460    126.4624     45.9589   8.7923304298e+01   4.7724035237e+01    0.4257509    0.2847218  50.87   0.00160684    1.461    0.316
       119  -8.7357    153.2384     32.1390   7.7342124188e+01   4.3080838586e+01    0.3502891    0.1958755 -57.00  0.001408441    2.413    0.586
       120  -8.7656     77.8124     29.8970   9.5757868497e+01   6.0231926677e+01    0.2065113    0.1633207   0.45 0.0004801592    1.212    0.175
       121  -8.5604     91.7649     27.6542   9.0362151906e+01   5.7896900292e+01     0.178522    0.1254519  56.87  0.000287613    1.635    0.388
       122  -9.2277     69.5003     26.9050   9.7373048059e+01   6.2114306455e+01    0.2324253    0.1623556  20.72 0.0004908142    1.456    0.313
       123  -8.0173     55.9962    220.0256   1.4125019375e+02   2.3387454485e+01    0.2159887    0.1274786 -88.67            0    1.610    0.379
       124  -8.7613     55.9149    215.6273   1.4090868596e+02   2.4223799361e+01     0.210891    0.1389224 -81.45 0.0008166512    1.422    0.297
       125  -7.8344    100.9944    215.0295   1.3228025187e+02   1.8052341950e+01    0.1520452    0.1398565  24.94  0.001037389    1.424    0.298
       126  -7.7289     79.3572     21.3225   9.1557812561e+01   6.1135038160e+01    0.1415436    0.0905977  14.58 0.0007045069    1.767    0.434
       127  -7.3332     18.0245     21.0048   1.1667613854e+02   6.9614780658e+01    0.1315364     0.101955 -25.73            0    1.038    0.037
       128  -7.9791    151.0273     20.0281   7.3659649472e+01   4.5064750260e+01    0.2215669    0.1612494 -64.61 0.0005082403    1.636    0.389
       129  -7.6820     15.1087     18.1161   1.1691449366e+02   7.0347799044e+01    0.1317574      0.11287 -32.27            0    1.227    0.185
       130 -10.2427    123.9998    206.0010   1.2660088737e+02   1.6029996438e+01    0.1827684    0.1558025  57.28  0.001160206    1.009    0.009
       131  -8.6326     78.9730     13.4880   8.8173343321e+01   6.2170338301e+01    0.1918388    0.1182245  45.93  0.001027152    1.574    0.365
       132  -7.5106     60.0000     12.9429   9.4508936097e+01   6.5586300272e+01    0.1982221   0.06377198 -31.49 0.0007984824    2.915    0.657
       133  -8.1522    139.0008    199.0616   1.2256252107e+02   1.4727744317e+01    0.1863929    0.1631829  51.15            0    1.005    0.005
       134  -8.5561    133.0107    199.0060   1.2377694718e+02   1.5784445008e+01    0.1845464    0.1603699  53.39            0    1.007    0.007
       135  -8.5468    222.9971    187.9822   1.0429032871e+02   1.2822785022e+00    0.1862663    0.1579496  12.62            0    1.023    0.022
       136  -9.0751    101.0219    175.9883   1.2716894215e+02   2.5779721902e+01    0.1880094    0.1665517  72.36            0    1.003    0.003
