#   1 NUMBER                 Running object number                                     
#   2 MAG_AUTO               Kron-like elliptical aperture magnitude                    [mag]
#   3 X_IMAGE                Object position along x                                    [pixel]
#   4 Y_IMAGE                Object position along y                                    [pixel]
#   5 X_WORLD                Barycenter position along world x axis                     [deg]
#   6 Y_WORLD                Barycenter position along world y axis                     [deg]
#   7 A_WORLD                Profile RMS along major axis (world units)                 [deg]
#   8 B_WORLD                Profile RMS along minor axis (world units)                 [deg]
#   9 THETA_WORLD            Position angle (CCW/world-x)                               [deg]
#  10 FWHM_WORLD             FWHM assuming a gaussian core                              [deg]
#  11 ELONGATION             A_IMAGE/B_IMAGE                                           
#  12 ELLIPTICITY            1 - B_IMAGE/A_IMAGE                                       
         1  -9.2431    236.0618      2.4961   2.8902826109e+02   6.3879770244e+00   0.01434529   0.01281953  86.84 0.0008913147    1.202    0.168
         2  -7.2528    169.4575    246.5482   2.9126668121e+02   3.9423722670e+00  0.006599443  0.006353206 -29.68 6.434129e-05    1.037    0.035
         3  -9.1832     59.4725    248.8846   2.9255971595e+02   4.5507175404e+00   0.01227635   0.01099846 -35.96 0.0003879034    1.128    0.114
         4  -7.3165     84.7042    244.7071   2.9224129571e+02   4.4537207663e+00  0.006790817  0.004928289 -28.05 0.0002404944    1.559    0.359
         5  -7.5043    127.4072    236.4741   2.9169548357e+02   4.3027151043e+00   0.00653328  0.006352781 -48.89 5.667699e-05    1.017    0.017
         6  -7.0229     52.0019    233.2636   2.9255371678e+02   4.7754155056e+00  0.008129613  0.005751721  25.74 0.0002616283    1.425    0.298
         7  -7.5160    132.1731    231.4084   2.9160983237e+02   4.3340287608e+00   0.01090439  0.007767493 -68.67 0.0007529741    1.452    0.311
         8  -8.5418     37.4636    227.2402   2.9268710404e+02   4.9292389894e+00   0.01252875  0.009950555 -23.95  0.000425006    1.386    0.278
         9  -7.0057     34.5867    214.4798   2.9264467572e+02   5.0941948692e+00  0.006760402  0.006126038 -33.16 0.0002140072    1.119    0.106
        10  -6.9208    147.4524    208.4826   2.9129523041e+02   4.5120528507e+00  0.006601389  0.006373827 -33.82 0.0001077604    1.029    0.029
        11  -7.1732     56.5442    204.4084   2.9232902439e+02   5.0847353442e+00  0.006675557   0.00618634 -24.74 9.202493e-05    1.100    0.091
        12  -7.4158     48.2535    199.0321   2.9239354300e+02   5.1950561547e+00   0.00856656  0.005601006 -61.25 0.0005253471    1.506    0.336
        13  -9.8622    181.2771    197.4747   2.9083602813e+02   4.4440322664e+00   0.01167448   0.01116676 -70.28 0.0002353115    1.055    0.052
        14  -7.8359    181.8864    182.7865   2.9074106342e+02   4.6111288458e+00   0.01178774  0.008096123  46.19 0.0007861607    1.532    0.347
        15  -7.3621     56.6546    163.0317   2.9208101342e+02   5.5651608322e+00  0.008811293   0.00822412 -48.06 0.0004069615    1.058    0.054
        16  -8.6848      9.6084    153.8606   2.9257468280e+02   5.9428916991e+00   0.01113873    0.0089927   4.11 0.0005502097    1.348    0.258
        17  -7.9512     11.7945    147.8104   2.9251312935e+02   6.0006487634e+00  0.008975131  0.007599904  61.46 0.0003126642    1.282    0.220
        18  -7.6930    196.0744    146.6837   2.9035982422e+02   4.9481448225e+00  0.009097292  0.008450386  24.95 0.0001585877    1.083    0.076
        19  -7.1902    154.7315    145.6457   2.9083468859e+02   5.1999980155e+00  0.007018293  0.004787206 -33.79 0.0006992452    1.632    0.387
        20  -9.0496    126.7169    143.6426   2.9114889539e+02   5.3855546382e+00   0.01185152   0.01054283 -38.56 0.0004115596    1.131    0.115
        21  -8.3991    191.6291    134.0494   2.9033580218e+02   5.1206582326e+00   0.01123978  0.009323855  11.20 0.0003259413    1.268    0.211
        22  -8.7297    124.0403    128.6153   2.9109012429e+02   5.5756435402e+00   0.01145936  0.009223687 -59.50 0.0003391856    1.225    0.184
        23  -9.9923    237.6240    126.1009   2.8975326153e+02   4.9457240195e+00   0.01319862   0.01107808  31.65  0.001539077    1.193    0.162
        24  -7.1349    211.6906    122.3261   2.9003212732e+02   5.1402600291e+00  0.006940352  0.004999185  63.73 0.0007038841    1.656    0.396
        25  -7.2433    166.5142    118.4096   2.9053433077e+02   5.4480132809e+00  0.006487156  0.006410447  18.40 -2.037221e-05    1.020    0.019
        26  -7.0846     48.0202    114.3102   2.9189069217e+02   6.1812691718e+00  0.007915949  0.006053876  23.98 0.0007492754    1.324    0.245
        27  -8.4636    184.0203    111.8742   2.9029135890e+02   5.4223011335e+00  0.009866002  0.009426345 -24.45 0.0004247506    1.052    0.050
        28  -7.3506     26.8748    110.2952   2.9211335755e+02   6.3498466972e+00   0.01044279  0.007558444  45.59 0.0004628161    1.440    0.306
        29  -8.4116    241.0801    107.3766   2.8960067723e+02   5.1428986164e+00   0.01295679  0.008953478  89.67   0.00099396    1.822    0.451
        30  -7.7935    188.0852    106.8637   2.9021399004e+02   5.4568661420e+00  0.009790632  0.008766118  59.90 0.0004223436    1.181    0.154
        31  -7.2208    208.4982     85.5547   2.8984852589e+02   5.5855682114e+00  0.006676397  0.006285599 -26.70 0.0001378806    1.073    0.068
        32  -6.9365     15.3356     72.2726   2.9202076453e+02   6.8580564644e+00  0.006830766  0.004960988 -23.17 0.0003925154    1.600    0.375
        33  -7.4861     40.8390     68.8355   2.9170247832e+02   6.7509703182e+00  0.008947672  0.007391204  51.39 0.0002462217    1.277    0.217
        34  -7.5557    154.0595     67.7041   2.9037519311e+02   6.1089273883e+00   0.00902626  0.008325157  11.76 0.0002828781    1.103    0.094
        35  -7.0148    248.6815     66.6779   2.8926774854e+02   5.5707015691e+00  0.007051989  0.004902453 -28.24 0.0007043698    1.668    0.400
        36  -8.8086    191.8567     63.8589   2.8991187699e+02   5.9340216983e+00   0.01038271  0.009677538 -39.37 0.0003164626    1.069    0.064
        37  -9.8377    246.9493     50.5472   2.8919087040e+02   5.7677929000e+00   0.01378918   0.01240227 -11.02 0.0005807948    1.166    0.142
        38  -8.3754    250.5458     46.1624   2.8912267885e+02   5.7976620508e+00   0.01263027    0.0091435 -56.41 0.0005467352    1.349    0.259
        39  -8.5263    132.1436     52.7478   2.9054083646e+02   6.4096215817e+00   0.01131041  0.009082069 -53.29 0.0002587146    1.221    0.181
        40  -8.1690    247.0353     39.9452   2.8912608437e+02   5.8901705337e+00   0.01143449  0.007683135 -27.21  0.001137112    1.779    0.438
        41  -7.1853    241.4145     40.4550   2.8919451022e+02   5.9170114007e+00  0.006497563  0.006377867 -51.09 0.0001484605    1.012    0.011
        42  -7.7224    188.0690     37.3451   2.8979661750e+02   6.2635526378e+00   0.01083885  0.008452826 -48.12 0.0005106228    1.269    0.212
        43  -6.7706    105.6517     35.6906   2.9074740293e+02   6.7610657833e+00  0.007105465  0.004914713 -25.78 0.0007044602    1.709    0.415
        44  -8.1880    160.7766     29.4765   2.9006726999e+02   6.5134054883e+00   0.01711901  0.007778286 -35.46  0.001286284    3.096    0.677
        45 -10.3496    142.0252     28.9801   2.9028286900e+02   6.6280290108e+00   0.01176238    0.0106061 -58.24  0.001419705    1.098    0.089
        46  -7.4296    152.8305     24.2444   2.9012843500e+02   6.6202228750e+00   0.00923175  0.007492563 -26.94 0.0004056407    1.327    0.246
        47  -7.1890     14.7950     17.9805   2.9170206939e+02   7.4914116048e+00  0.008646302  0.005206448 -61.95            0    1.641    0.391
