#   1 NUMBER                 Running object number                                     
#   2 MAG_AUTO               Kron-like elliptical aperture magnitude                    [mag]
#   3 X_IMAGE                Object position along x                                    [pixel]
#   4 Y_IMAGE                Object position along y                                    [pixel]
#   5 X_WORLD                Barycenter position along world x axis                     [deg]
#   6 Y_WORLD                Barycenter position along world y axis                     [deg]
#   7 A_WORLD                Profile RMS along major axis (world units)                 [deg]
#   8 B_WORLD                Profile RMS along minor axis (world units)                 [deg]
#   9 THETA_WORLD            Position angle (CCW/world-x)                               [deg]
#  10 FWHM_WORLD             FWHM assuming a gaussian core                              [deg]
#  11 ELONGATION             A_IMAGE/B_IMAGE                                           
#  12 ELLIPTICITY            1 - B_IMAGE/A_IMAGE                                       
         1 -13.7045    245.2099    158.6356   9.0166251538e+01   9.6015555256e-02     2.419552    0.8457376 -46.95  0.008478082    3.175    0.685
         2 -14.1919    205.6069     14.8261   6.2680835887e+01   3.2276044279e+01     1.923402     1.257498  26.97   0.00952313    2.595    0.615
         3 -12.7262      2.4459      4.7910   1.1235866917e+02   7.1874005260e+01    0.5455362     0.513811   2.92  0.004767236    1.772    0.436
         4 -11.7448      2.2706     13.0661   1.1588196084e+02   7.0750596903e+01    0.5569047     0.105229 -44.47  0.002423336    3.730    0.732
         5 -11.3138    189.8559     15.4918   6.4676995411e+01   3.5987701129e+01    0.2728638    0.2185131  73.49 0.0007284519    1.091    0.084
         6 -10.1960    205.4723    250.3360   1.1486880290e+02  -7.7647081739e+00    0.2246252    0.0977938  39.36  0.001080036    1.942    0.485
         7 -10.1402    184.2048    250.5074   1.1888025336e+02  -4.2880490711e+00    0.2330032    0.1046909  37.02 0.0003920023    1.934    0.483
         8 -10.8279    169.7652    248.6282   1.2134612440e+02  -1.5548962621e+00    0.3278386    0.2254998  18.15 0.0007246958    1.797    0.443
         9 -11.4449    150.0896    248.6724   1.2511536706e+02   1.8052804058e+00    0.3947375    0.3142035  83.30  0.002439721    1.512    0.339
        10 -10.7911    143.0986    248.9956   1.2649459762e+02   2.9437588680e+00    0.2987867     0.222626  51.11  0.001218531    1.128    0.114
        11 -11.2876    133.7090    249.1433   1.2830265964e+02   4.5089559745e+00    0.5715169    0.2689398  46.70  0.002815101    1.757    0.431
        12 -12.3954    125.2286    243.9999   1.2927570756e+02   6.8435495393e+00    0.8663276    0.6228811 -49.57  0.005159603    1.709    0.415
        13 -10.5333    116.2803    239.2704   1.3041400314e+02   9.2093754297e+00    0.3670724    0.3029974 -15.78  0.001628248    1.971    0.493
        14 -12.3876    111.7121    247.8447   1.3230672511e+02   8.3850154545e+00     1.107247    0.5690359  56.93  0.005543658    1.804    0.446
        15 -11.4734     99.4860    247.4385   1.3454584255e+02   1.0415269526e+01    0.7688555    0.3453719  52.00  0.003809683    1.885    0.469
        16 -10.9046     89.0363    248.8914   1.3662022892e+02   1.1764443160e+01    0.4320696    0.3231873  61.39  0.001596667    1.058    0.055
        17 -11.6411     81.5377    246.0629   1.3770634571e+02   1.3421562405e+01    0.6805704    0.3879791 -68.60  0.003934855    1.829    0.453
        18 -11.7443     89.4315    238.2800   1.3544493542e+02   1.3715048509e+01    0.6719685     0.402259  61.25  0.002934784    1.481    0.325
        19 -11.3230     96.8635    239.9298   1.3421721627e+02   1.2238093090e+01    0.3854432    0.3515071 -42.25  0.002472913    1.565    0.361
        20 -11.0665    104.4651    237.9733   1.3254082198e+02   1.1396562560e+01    0.4203747    0.2761018  32.24  0.002290895    1.831    0.454
        21 -11.5167     99.4596    223.5330   1.3178414202e+02   1.5059642423e+01    0.4938578    0.2913513  54.76   0.00102589    1.510    0.338
        22 -10.6560     84.6924    229.5855   1.3540702869e+02   1.6160391449e+01    0.3064566    0.2718603 -30.20 0.0009491381    1.759    0.431
        23 -11.0675     98.3577    231.7129   1.3299106635e+02   1.3596702017e+01    0.3779983    0.2650913 -77.12 0.0007528533    1.468    0.319
        24 -11.1009    112.8416    230.0258   1.2992709454e+02   1.1550698421e+01    0.3817548    0.3322755  -5.36  0.001842486    1.748    0.428
        25 -11.6798    105.6930    229.1244   1.3123388285e+02   1.2916733617e+01    0.6633754    0.2659657  47.08  0.002271455    2.149    0.535
        26 -11.2977     79.7975    226.3229   1.3599967115e+02   1.7562962354e+01     0.430386    0.3082892 -80.61  0.001224959    1.330    0.248
        27 -10.8306     77.4762    220.9276   1.3586160819e+02   1.9023831417e+01    0.2710928    0.1913956  65.73 0.0004870531    1.221    0.181
        28  -9.5138     63.2024    249.8808   1.4131936231e+02   1.5331570552e+01    0.1900458    0.1488364 -65.51  0.001313957    1.569    0.363
        29 -11.4030     59.9351    245.6650   1.4153548453e+02   1.6577328168e+01    0.4662152    0.3199793 -69.22  0.001967438    1.550    0.355
        30 -11.3595     66.9413    244.2095   1.4016739443e+02   1.5886066613e+01    0.4379498     0.241096  31.60  0.002270758    2.546    0.607
        31 -11.8204     40.9778    204.8323   1.4140734161e+02   2.7400130085e+01     0.982329    0.3030153  48.95  0.003556265    2.927    0.658
        32 -11.4258     32.8072    201.8297   1.4273139660e+02   2.9007442517e+01    0.2057441    0.1590707  89.66  0.000277899    1.056    0.053
        33 -11.4463     22.9883    202.0954   1.4465047481e+02   3.0024984587e+01    0.4566234    0.2526661  75.52  0.001073321    1.624    0.384
        34 -15.4508      9.5705    209.4689   1.4768756604e+02   2.9829095270e+01     8.366302    0.9087213 -73.39   0.02498394    6.685    0.850
        35 -11.4915    135.2638    236.4975   1.2633910458e+02   6.4882781244e+00    0.4586393    0.3472663   8.19  0.001509528    2.078    0.519
        36 -13.9824      5.8805    245.5339   1.5047867613e+02   2.3073306710e+01      1.19237    0.5916802  81.86  0.005188057    1.576    0.366
        37 -11.2377    164.3853    241.5616   1.2134897458e+02   5.1744070070e-01    0.3762366    0.2547082  76.11  0.001891608    2.297    0.565
        38  -9.5442     77.9388    233.3349   1.3709873173e+02   1.6424948791e+01    0.2238134     0.147642 -85.81  0.001313825    1.470    0.320
        39 -11.0319    156.5725    231.7777   1.2142576798e+02   3.5780345094e+00    0.2552095    0.2320679  22.39 0.0006204199    1.193    0.162
        40  -9.2625     62.8523    232.9789   1.3988523586e+02   1.8657975906e+01    0.1622413    0.1432914  79.44 0.0003347527    1.249    0.199
        41 -10.6878    165.7435    235.1875   1.2012473167e+02   1.3512975380e+00    0.2445589    0.1843254 -35.66    0.0014116    1.589    0.370
        42  -9.0463     92.4485    232.5233   1.3423354185e+02   1.4373320143e+01     0.128114    0.1051365  68.59 5.636811e-05    1.018    0.018
        43 -10.2563    141.9594    230.3078   1.2413498341e+02   6.4505862587e+00    0.2898051     0.217522 -22.97  0.001125784    1.990    0.497
        44 -12.6613     13.8209    238.7322   1.4883905309e+02   2.3527839477e+01    0.6397052    0.2543863  61.12  0.001237438    2.084    0.520
        45  -9.2738    179.8820    228.3710   1.1624606183e+02  -1.0909438607e-02    0.2511801    0.1660065  86.63  0.001035615    3.411    0.707
        46  -8.6542    190.7636    228.0228   1.1404396601e+02  -1.8896351458e+00    0.1514243    0.1116217 -40.82 0.0003036045    1.520    0.342
        47  -9.8592    197.6452    226.6726   1.1247104692e+02  -2.8816665675e+00    0.2582364    0.2135976  74.28  0.001383463    1.688    0.407
        48 -10.2613    165.6821    226.4420   1.1876937987e+02   2.8849330647e+00    0.3046837    0.2305143 -85.17  0.001625887    1.857    0.461
        49 -10.3633     91.8251    225.7917   1.3357968375e+02   1.5821693859e+01    0.4881736    0.1900137  53.63  0.001740746    2.488    0.598
        50 -10.2716    132.1864    224.8170   1.2531938384e+02   9.2235473986e+00    0.2728481    0.1941159 -51.62  0.001501722    1.598    0.374
        51 -10.1392    129.1493    221.0786   1.2540145000e+02   1.0492422051e+01    0.2753602     0.200598  74.36 0.0007298297    1.504    0.335
        52  -9.8688    147.1013    225.1664   1.2233247588e+02   6.4865956571e+00     0.191757    0.1714172  27.93 0.0003414845    1.215    0.177
        53 -10.7811    117.3242    224.3244   1.2827551358e+02   1.1913316006e+01    0.2383503    0.2116603  64.55 0.0002636351    1.061    0.057
        54 -10.5865    160.3610    223.6230   1.1939501460e+02   4.3612282467e+00    0.3357803    0.2307579  25.07    0.0006661    1.687    0.407
        55  -9.1799    164.5607    220.4358   1.1802412795e+02   4.1728067679e+00    0.2303845    0.1261163 -35.44 0.0007279238    2.389    0.581
        56 -11.4684    142.0098    221.7997   1.2286252168e+02   8.0455047862e+00    0.4197989    0.3010113  36.37 0.0004076278    1.375    0.273
        57 -11.1261    137.7279    214.6036   1.2264559726e+02   1.0232421875e+01    0.5501195     0.445987  38.78  0.002242282    1.221    0.181
        58 -10.5112    110.8020    221.4660   1.2921969696e+02   1.3598414277e+01    0.3217705    0.2059399 -61.29  0.001253401    1.664    0.399
        59 -10.9132     70.8809    220.0432   1.3706395279e+02   2.0175024650e+01    0.4396866    0.2664504 -74.96    0.0021091    1.575    0.365
        60 -10.9252     68.0278    214.5987   1.3704138347e+02   2.1735151277e+01    0.3008932    0.1852057 -69.77  0.001688673    1.542    0.352
        61 -11.1655    245.7052    220.0364   1.0229432704e+02  -9.8582749860e+00    0.3360276    0.1386538 -29.62  0.001485624    2.609    0.617
        62  -9.6990    104.9174    218.8845   1.3008176037e+02   1.5114409054e+01    0.2000229    0.1667836  68.59 0.0003429827    1.029    0.028
        63 -11.6138    134.0013    232.5419   1.2604500791e+02   7.4377437607e+00    0.4571917    0.3024993 -35.35 0.0003886554    2.186    0.543
        64  -9.6709     93.8850    217.1004   1.3211077978e+02   1.7288993625e+01     0.214956    0.1529177  74.32  0.001019517    1.345    0.256
        65  -9.7471     88.1820    213.0054   1.3276880856e+02   1.9059720474e+01    0.2310236    0.1580406  87.68 0.0005645676    1.476    0.323
        66  -9.9565    102.2493    212.1232   1.2973281766e+02   1.6972052482e+01      0.37091     0.192939  59.68  0.001668421    2.040    0.510
        67 -10.6139     73.2557    209.9165   1.3546058789e+02   2.1987942714e+01    0.3395551    0.2779864  17.59  0.002004956    1.863    0.463
        68  -8.8816     33.5215    211.4777   1.4344074840e+02   2.6852528414e+01    0.1198601   0.09261712  84.15 0.0001435868    1.043    0.042
        69 -10.3900    107.9592    208.4928   1.2802537466e+02   1.6781241998e+01    0.4024796    0.2750899 -32.33  0.001918548    2.376    0.579
        70  -8.9117    112.9576    209.4516   1.2710142152e+02   1.5717453012e+01    0.2060118   0.09854978  59.81 0.0008083232    2.522    0.603
        71  -9.3058    134.7153    208.1327   1.2226410433e+02   1.2094723622e+01    0.2493013    0.1848996  13.06  0.001094974    2.020    0.505
        72  -9.0109    119.6820    208.7040   1.2556074946e+02   1.4695629344e+01    0.1279569     0.111769  -0.39 0.0002100475    1.610    0.379
        73 -12.0858     93.5011    202.8726   1.3032748470e+02   2.0406697311e+01     0.558322    0.4588296 -81.59  0.003308445    1.149    0.129
        74 -11.2577    247.0972    205.7446   9.9370089455e+01  -7.9725963578e+00    0.4841974     0.256385  23.04  0.002264853    2.277    0.561
        75 -10.0101    174.7829    205.8583   1.1340842910e+02   4.9647559092e+00    0.3132011    0.2179352 -22.94  0.001452017    1.883    0.469
        76 -13.2936    124.1901    233.4272   1.2811615870e+02   8.9703445593e+00     2.107556    0.6902815  53.36  0.007274375    3.594    0.722
        77  -9.2093    125.9165    205.7119   1.2376747767e+02   1.4206555537e+01    0.1999527    0.1670534  55.59 0.0005410773    1.085    0.078
        78  -9.0286    149.2357    204.3869   1.1854101355e+02   1.0138915028e+01    0.2932679    0.1706854 -21.10 0.0009683681    4.352    0.770
        79  -8.7084    178.2756    204.6721   1.1246940983e+02   4.5201443132e+00    0.1355777    0.1107394  82.98 0.0002597425    1.590    0.371
        80  -9.8153    102.7128    195.6836   1.2729098196e+02   2.0470374625e+01    0.1986322    0.1683119  62.12 0.0004403217    1.085    0.078
        81 -10.5124    102.8564    202.8369   1.2830972136e+02   1.8867828881e+01    0.4141604    0.2342856  56.74  0.001951391    1.747    0.428
        82 -10.3252     98.9630    197.1251   1.2832998976e+02   2.0780386795e+01    0.5333269    0.2834728  59.06  0.001587911    2.026    0.506
        83  -8.8984    167.0896    203.1600   1.1453231144e+02   6.9591673424e+00     0.186296    0.1580835  66.94            0    1.274    0.215
        84  -9.0864    132.9764    202.7335   1.2176702650e+02   1.3537364737e+01    0.1976642    0.1756501  61.83 0.0004382344    1.021    0.021
        85  -9.7100     64.1977    202.0635   1.3641941353e+02   2.5000251722e+01    0.2489674    0.1813708  31.26 0.0004569195    1.754    0.430
        86 -10.1021    115.1152    200.2282   1.2525752228e+02   1.7316372532e+01    0.2298086    0.1905758 -80.18 0.0002239077    1.200    0.166
        87 -10.1872    120.1466    199.4551   1.2403552917e+02   1.6584952191e+01    0.3966077    0.2246243  57.28  0.001280583    1.839    0.456
        88  -9.8283    196.8392    200.3065   1.0786001603e+02   1.7847153333e+00    0.2211659    0.1741672  54.51 0.0007070719    1.390    0.281
        89  -9.0800    183.0615    200.4622   1.1070154570e+02   4.3920504461e+00    0.2031484    0.1317579  42.94 0.0003321198    1.447    0.309
        90  -8.7410    169.5365    200.4687   1.1352868464e+02   7.0103284985e+00    0.1424585    0.1326109  46.68 0.0001057438    1.021    0.020
        91  -9.7593     43.5157    199.2381   1.4035489946e+02   2.8318746577e+01    0.2460314    0.1638805 -51.52 0.0009966107    1.866    0.464
        92 -10.0948     86.0967    196.8302   1.3110080046e+02   2.2929691913e+01    0.3977273    0.1771804 -66.56  0.001696167    2.283    0.562
        93 -11.0077     57.5885    193.5856   1.3682598973e+02   2.7793965635e+01    0.4718733    0.3215383 -72.37  0.001462273    1.311    0.237
        94  -9.3993    133.9830    197.7248   1.2071677861e+02   1.4408575286e+01     0.220213    0.1804677  74.34  0.000375755    1.253    0.202
        95  -9.2582    133.6991    194.3939   1.2021319148e+02   1.5175106980e+01    0.2530068    0.2251966  42.15 0.0007518333    1.148    0.129
        96 -11.6567     65.2621    195.0102   1.3536150556e+02   2.6428535552e+01    0.3848369    0.2648871 -51.27  0.001459733    1.711    0.416
        97 -11.1516     76.4175    186.6835   1.3184243678e+02   2.6719077301e+01    0.4023556    0.2386885 -81.06   0.00122109    1.774    0.436
        98 -11.8215     70.7926    187.4690   1.3320062128e+02   2.7362192826e+01    0.3213972    0.2894122 -46.39 0.0007479541    1.417    0.294
        99 -10.2822    113.1609    193.9172   1.2469963468e+02   1.9048502031e+01    0.5228404    0.2552247 -63.86  0.001202486    2.257    0.557
       100 -11.0118     38.4280    193.7510   1.4083809535e+02   3.0140536641e+01    0.4483267    0.1943799 -63.73  0.002229777    2.030    0.507
       101  -9.5742     40.8697    187.7382   1.3970923186e+02   3.1204615898e+01    0.2554082    0.1619903 -77.45  0.001481498    1.329    0.248
       102 -10.8717    249.2192    194.4692   9.6809625722e+01  -6.5774621680e+00    0.2855319    0.2382746  41.71  0.001242381    1.372    0.271
       103  -8.9290     31.2385    195.5070   1.4246108960e+02   3.0567188512e+01    0.2247293   0.09675243  43.89  0.001148223    2.233    0.552
       104 -12.1526     29.3146    227.9299   1.4550911879e+02   2.3934302099e+01    0.9992806    0.2558879  46.16  0.001338039    3.038    0.671
       105  -9.6043    159.7162    194.1016   1.1445763986e+02   1.0202685057e+01    0.2580828    0.1959683  66.28 0.0004934616    1.484    0.326
       106 -10.4434    119.9544    192.8164   1.2300586950e+02   1.8070691085e+01    0.3695122    0.3363812 -35.84  0.001171401    1.335    0.251
       107  -9.3242    118.0034    190.0182   1.2298085355e+02   1.9046055424e+01     0.305286    0.2336985 -76.22  0.001590478    1.358    0.264
       108  -9.6277     72.9368    193.0570   1.3346212113e+02   2.5775350263e+01    0.1954762      0.16578  83.92 0.0002925633    1.016    0.015
       109 -11.8647    135.5217    241.1610   1.2691743917e+02   5.6017133411e+00    0.4833461    0.3630967  34.34  0.001862976    1.369    0.269
       110 -10.1020    191.4805    191.4745   1.0724120625e+02   4.4521492788e+00    0.2448925    0.2349515  12.70 0.0006566473    1.023    0.023
       111  -9.1445    172.7207    192.6311   1.1139052256e+02   7.9296362666e+00    0.1460595    0.1137445  -5.24 0.0003684624    1.687    0.407
       112 -10.4837     53.0637    197.8562   1.3825617993e+02   2.7428537654e+01    0.6244905    0.1574499  47.36  0.002318182    3.613    0.723
       113 -14.4821     30.2433    245.4380   1.4657661264e+02   2.0396743692e+01     2.223014     1.150702  47.23   0.01399934    1.707    0.414
       114  -9.3546    135.0940    190.0609   1.1914903898e+02   1.5847281597e+01       0.2173    0.1963147  71.15 0.0004432841    1.051    0.048
       115  -9.7363     33.3459    189.7817   1.4148456879e+02   3.1603915536e+01    0.2189915    0.1968449 -78.87  0.001545363    1.285    0.222
       116 -10.7600    250.0697    187.4458   9.5269113971e+01  -5.6035848957e+00     0.389065    0.1811454 -32.59  0.001756641    2.065    0.516
       117 -12.1613    245.1179    241.6452   1.0623182908e+02  -1.2709234754e+01    0.3430285    0.2257073 -27.40  0.002145656    1.526    0.345
       118  -9.0640    143.2317    185.0165   1.1641047991e+02   1.5365562761e+01    0.1886106    0.1713957  56.22 0.0007072876    1.042    0.040
       119  -9.9333    140.6427    182.8561   1.1659245352e+02   1.6345328848e+01    0.4976527    0.3200901  12.22   0.00147062    3.108    0.678
       120 -10.3953     29.9475    183.7775   1.4159134374e+02   3.3321276422e+01    0.2836884    0.1947643  80.14  0.001213846    1.261    0.207
       121 -10.2943     24.8094    184.2832   1.4270735152e+02   3.3745604768e+01    0.2417493    0.1508071  43.60 0.0006494041    1.704    0.413
       122 -12.4541    248.0936    172.1632   9.2506048171e+01  -2.7491723609e+00    0.6807258    0.5188152 -28.32  0.003871137    1.195    0.163
       123 -12.7910    248.1277    101.5544   7.7195670503e+01   9.6112234808e+00    0.8762413    0.5451459 -37.05  0.004322135    1.505    0.336
       124 -12.3498    248.3354    134.4760   8.4432320770e+01   3.7697449995e+00    0.9718514    0.5303248 -35.15  0.004453226    1.710    0.415
       125  -9.5507    126.0906    180.2472   1.1943985095e+02   1.9737568023e+01    0.2874814    0.1866637 -83.28  0.001220884    2.110    0.526
       126  -9.9865     19.8721    179.4245   1.4326804150e+02   3.5325998859e+01    0.1966301    0.1657681 -63.90  0.001019684    1.352    0.261
       127 -13.4864    248.1741    115.1197   8.0197401134e+01   7.2315122516e+00     1.930614    0.9605294 -29.26  0.007860587    2.360    0.576
       128 -10.0255    115.2079    177.5462   1.2148367308e+02   2.2381210275e+01    0.3464684    0.2219518 -67.34  0.001596588    1.658    0.397
       129  -9.3169    109.3238    178.4477   1.2301576013e+02   2.3235834460e+01     0.239928    0.1298159 -58.02 0.0006138856    1.832    0.454
       130  -9.1262     47.9837    179.6032   1.3725491591e+02   3.2212272817e+01    0.1714233    0.1200779  42.36 0.0006608111    1.549    0.355
       131 -11.4241     79.4228    175.4347   1.2952690788e+02   2.8886218150e+01    0.3805799    0.2798188  45.25  0.001054199    1.401    0.286
       132  -9.2849     64.6860    176.2991   1.3306718668e+02   3.0814769450e+01    0.2614897    0.1454244  76.18  0.001032133    2.283    0.562
       133 -11.4835     67.6162    172.9463   1.3191699978e+02   3.1195736920e+01    0.4354228    0.2906818 -70.08  0.001308035    1.347    0.258
       134  -9.7873    121.9083    175.6128   1.1956729227e+02   2.1581398728e+01    0.2195822    0.1950868 -56.79 0.0003500884    1.165    0.142
       135  -9.6885    107.6631    173.1407   1.2248178947e+02   2.4763221646e+01    0.2409076    0.1837624  59.70  0.000446769    1.296    0.229
       136  -9.1396     95.5276    172.7746   1.2530233357e+02   2.6943544841e+01    0.1960576    0.1304037 -76.38 0.0006329036    1.586    0.370
       137  -9.4533     90.9752    172.6627   1.2636556225e+02   2.7721296258e+01    0.2765034    0.2111937 -38.98 0.0009224738    1.633    0.388
       138 -10.2250     89.9345    160.3253   1.2451087593e+02   3.0821411857e+01    0.1935621    0.1759567  64.01 0.0003333531    1.114    0.102
       139  -9.9737     93.5071    169.4122   1.2521740146e+02   2.8072992138e+01    0.2378947    0.2219034  27.54 5.830479e-05    1.295    0.228
       140 -12.5863     86.8301    166.8047   1.2638809254e+02   2.9776272087e+01    0.9003619    0.5104641 -52.07  0.004156823    1.754    0.430
       141  -8.6487     52.6274    170.7710   1.3509602540e+02   3.3694149087e+01    0.1160809   0.09964819 -30.99 0.0004882264    1.601    0.375
       142 -10.8337     44.4046    168.8832   1.3674397138e+02   3.5129097560e+01    0.4622796    0.3237475  30.88  0.002683762    1.769    0.435
       143  -9.7362    126.6354    167.2283   1.1686247323e+02   2.2604999799e+01    0.2900121    0.2480594  75.21   0.00111956    1.187    0.158
       144  -8.8860    107.2785    168.3110   1.2170872546e+02   2.5962690554e+01    0.1388443    0.1161053 -26.15 0.0003012839    1.562    0.360
       145 -10.3131     68.7136    166.8446   1.3075782231e+02   3.2485345308e+01    0.2375284    0.2026831 -77.68 0.0004209371    1.046    0.044
       146  -9.2012     58.5018    167.4830   1.3327698595e+02   3.3718445854e+01    0.1358111    0.1134082 -87.48 0.0004967991    1.029    0.028
       147  -8.5135     77.0000    165.9348   1.2862378140e+02   3.1500049211e+01    0.2234378   0.07304978 -61.06 0.0004676299    2.823    0.646
       148  -9.1884     53.9507    164.7209   1.3396565416e+02   3.4953229240e+01    0.1786511    0.1523922 -87.00 0.0003080866    1.028    0.027
       149 -11.0685     22.5419    163.5424   1.4107809870e+02   3.8672022112e+01    0.3360521    0.2798799 -35.20  0.001951976    1.636    0.389
       150  -8.8856     65.7669    181.8409   1.3357338254e+02   2.9373138176e+01    0.1827899    0.1339234  77.06 0.0003277883    1.293    0.227
       151 -10.3094     39.5572    162.1618   1.3701446643e+02   3.7251058438e+01    0.3790594     0.195188  22.76  0.001327879    2.857    0.650
       152  -8.4438    154.5020    161.5246   1.0914653334e+02   1.8234855557e+01    0.1550034    0.1465418  80.35 5.076445e-05    1.056    0.053
       153 -10.8893     95.8990    158.1493   1.2263417065e+02   3.0351662273e+01    0.4372948    0.2006145 -60.23  0.001731278    2.140    0.533
       154 -10.3278     73.9170    158.9118   1.2823758993e+02   3.3632430411e+01    0.3761219    0.2161885 -47.82  0.001444009    1.852    0.460
       155  -9.8532     71.9704    156.5060   1.2832326291e+02   3.4490515523e+01    0.2780717    0.2353817 -17.78  0.001554151    1.620    0.383
       156  -9.1072     78.8306    158.8591   1.2701054067e+02   3.2915531566e+01    0.1934298    0.1518042  85.36 0.0004404403    1.282    0.220
       157  -8.8905     52.4836    158.4326   1.3342480444e+02   3.6624749767e+01     0.132591    0.1129028 -77.79 0.0001607607    1.036    0.035
       158 -12.5386     32.3111    140.5986   1.3587147951e+02   4.3060571877e+01    0.6879783    0.2950824 -66.30  0.002988997    1.893    0.472
       159 -12.1803     31.1053    156.1078   1.3823748012e+02   3.9556071077e+01     0.564617    0.3086911 -56.27  0.003038062    1.672    0.402
       160 -12.7160     23.0107    155.1342   1.4001990104e+02   4.0562481612e+01    0.5382664    0.4209829 -61.22  0.003565769    1.247    0.198
       161  -9.2905    228.3962    155.3126   9.2422025459e+01   3.9206971334e+00    0.1958469    0.1288092 -46.82 0.0004932803    1.516    0.340
       162  -8.6325    175.7062    155.2529   1.0300051147e+02   1.5045378554e+01    0.1477586     0.120725  84.07            0    1.488    0.328
       163 -10.2776    113.8666    150.8089   1.1668741429e+02   2.8889255506e+01    0.3797664    0.2550395 -57.73 0.0006798183    1.454    0.312
       164 -11.1117    100.4751    150.3109   1.1997869027e+02   3.1437844155e+01    0.7867483    0.4460248 -40.05  0.003269023    2.129    0.530
       165  -9.3741     53.0084    146.4617   1.3147877188e+02   3.9409023976e+01    0.2207849    0.1669609  88.88 0.0006119567    1.311    0.237
       166  -9.9697     60.2647    150.9806   1.3035872962e+02   3.7417011554e+01    0.3660074    0.1907234  59.48  0.001363091    2.431    0.589
       167 -10.9161     56.1644    150.3545   1.3129394969e+02   3.8090895127e+01    0.3258042     0.304415  83.50  0.001242841    1.135    0.119
       168 -10.7887     28.9817    171.4256   1.4050794990e+02   3.6229625665e+01    0.3585925    0.2744238 -67.63  0.001839931    1.221    0.181
       169 -12.9529     67.5926    144.2112   1.2733241557e+02   3.8056595394e+01    0.7855131    0.5636256 -89.30  0.003115642    1.515    0.340
       170 -11.9207     72.5886    139.7325   1.2519892306e+02   3.8426728406e+01    0.5573868     0.440235  50.74  0.003091105    1.355    0.262
       171 -10.9181    133.5997    142.4842   1.0994373344e+02   2.6934258847e+01    0.8966245    0.2921384 -50.97  0.002763011    3.116    0.679
       172 -11.1196     39.0381    146.3036   1.3499136714e+02   4.1035443117e+01     0.398842    0.2045695  73.29  0.001688986    2.911    0.656
       173 -10.6387    236.1757    145.9803   8.8989862271e+01   4.0888839360e+00    0.2968369     0.213515  45.41 0.0008315794    1.501    0.334
       174 -10.3571     23.8062    149.4096   1.3914316396e+02   4.1812696624e+01    0.1624818     0.145338 -81.95 0.0004972395    1.153    0.133
       175  -9.4452    138.5358    138.4818   1.0780496500e+02   2.6818635734e+01    0.1553493    0.1508482 -78.52 1.330027e-05    1.009    0.009
       176 -11.1055     60.1128    136.7470   1.2797883169e+02   4.0837989496e+01    0.4204178    0.2657953 -85.74  0.001444922    1.886    0.470
       177 -10.1572    110.7377    136.2347   1.1435613236e+02   3.2919602802e+01     0.358958    0.2805816 -15.96  0.001167389    1.745    0.427
       178  -9.3159    135.1994    134.8273   1.0777351555e+02   2.8357342514e+01    0.4373744    0.1815539  35.34  0.001378836    3.169    0.684
       179 -11.6191     45.3718    131.4536   1.3101885270e+02   4.3852528384e+01    0.4403545    0.2917251  85.90  0.002177537    1.780    0.438
       180 -11.4045     33.5883    127.7988   1.3359989247e+02   4.5923914744e+01    0.3107444     0.181717 -75.66  0.001634363    1.611    0.379
       181 -10.8499     30.1720    126.8295   1.3436874060e+02   4.6470429646e+01    0.1972554    0.1662611  54.55 0.0006192084    1.361    0.266
       182 -11.8050     67.3580    128.2521   1.2439748312e+02   4.1895639213e+01    0.4288441    0.3900825 -73.22  0.001709889    1.048    0.045
       183  -9.6854    116.5359    128.9713   1.1116620937e+02   3.3504045472e+01    0.3078829    0.1993404   0.21  0.001041405    3.510    0.715
       184  -9.1947    109.7335    128.9922   1.1296985769e+02   3.4805219556e+01    0.2100614    0.1856588 -52.31  0.001099844    1.090    0.082
       185 -10.4906    209.8378    125.7842   8.9141185148e+01   1.3483481476e+01     0.299783    0.2514482 -41.27 0.0004829935    1.144    0.126
       186  -8.5765     85.4663    126.5544   1.1901760342e+02   3.9610331021e+01    0.1441628    0.1328119 -61.28 0.0001908401    1.009    0.009
       187  -9.0352    234.2766    125.3329   8.4700661171e+01   8.2624526642e+00    0.1417628    0.1123789  -5.53 0.0003000754    1.602    0.376
       188 -10.1902     58.5210    125.0196   1.2622528355e+02   4.3818143504e+01    0.2845209      0.17759  23.80  0.001419251    2.021    0.505
       189 -11.9871     38.0777    122.7973   1.3153495174e+02   4.6644743206e+01     0.459756    0.2728621 -52.21  0.001597457    1.460    0.315
       190 -10.4360     54.6876    120.7529   1.2647425802e+02   4.5289119653e+01    0.2623925    0.1984183  18.68  0.001147373    1.642    0.391
       191 -14.6376     45.9770    218.7313   1.4172853130e+02   2.3816336638e+01     1.813606      1.33426  37.74   0.01169951    1.652    0.395
       192  -9.8112     48.9914    117.9826   1.2756254217e+02   4.6598202504e+01    0.2192101     0.139455 -37.43   0.00113054    1.720    0.419
       193 -12.2716     15.4024    114.7660   1.3654164649e+02   5.0446790369e+01    0.3299195    0.2582996 -72.61 0.0009161387    1.091    0.084
       194 -11.5954    248.1371    142.6298   8.6238146969e+01   2.3632577435e+00    0.5870968    0.4658724 -17.87  0.002740521    1.330    0.248
       195 -10.9254    168.0224    113.1936   9.4579756099e+01   2.5721687471e+01    0.3805293    0.3060442 -82.74 0.0008923634    1.477    0.323
       196  -9.5266    203.7480    111.4242   8.6823423370e+01   1.7660050511e+01    0.2140461    0.1426946  41.91 0.0009458213    1.667    0.400
       197 -11.0284     31.8681    117.2712   1.3232234033e+02   4.8516855109e+01    0.3796419    0.1074186 -51.70  0.001492077    2.800    0.643
       198 -10.6587     31.5834    110.9744   1.3128554458e+02   4.9978120905e+01     0.207465    0.1922045  21.58 0.0002836402    1.313    0.239
       199 -10.1621     62.5158    107.0687   1.2127729633e+02   4.7456829333e+01     0.213515    0.1213095 -55.99 0.0009256641    1.564    0.361
       200 -11.2439    172.8767    240.1521   1.1948627090e+02  -7.3136025252e-01    0.3201874      0.24087  77.03  0.001329832    1.876    0.467
       201 -12.7537     39.6579    228.6434   1.4373115624e+02   2.2560247260e+01    0.3883628     0.289373 -78.94 0.0008323265    1.288    0.224
       202 -11.0672    249.6092    150.9697   8.7789929666e+01   6.2021355920e-01    0.5809407    0.2931009 -41.93  0.002620813    1.804    0.446
       203 -10.8181    222.4022    245.1401   1.1090750381e+02  -9.7375721358e+00     0.262192    0.1623334  15.84  0.001113894    1.732    0.423
       204 -10.5818    200.2285    245.9180   1.1515060812e+02  -6.2780205747e+00    0.2299598    0.1603651  54.90  0.001311384    1.715    0.417
       205 -10.6901    193.7463    245.1624   1.1625495641e+02  -5.0881153119e+00    0.2195109    0.1953449  43.66 0.0002735639    1.186    0.157
