#   1 NUMBER                 Running object number                                     
#   2 MAG_AUTO               Kron-like elliptical aperture magnitude                    [mag]
#   3 X_IMAGE                Object position along x                                    [pixel]
#   4 Y_IMAGE                Object position along y                                    [pixel]
#   5 X_WORLD                Barycenter position along world x axis                     [deg]
#   6 Y_WORLD                Barycenter position along world y axis                     [deg]
#   7 A_WORLD                Profile RMS along major axis (world units)                 [deg]
#   8 B_WORLD                Profile RMS along minor axis (world units)                 [deg]
#   9 THETA_WORLD            Position angle (CCW/world-x)                               [deg]
#  10 FWHM_WORLD             FWHM assuming a gaussian core                              [deg]
#  11 ELONGATION             A_IMAGE/B_IMAGE                                           
#  12 ELLIPTICITY            1 - B_IMAGE/A_IMAGE                                       
         1 -14.5490    147.8500     60.4022   9.0753602447e+01   4.0254374345e+01     1.528456     1.153278   5.12   0.00357927    1.538    0.350
         2 -14.6815    158.8141     45.2650   8.3192964026e+01   3.9933479940e+01     1.355049      1.01786 -23.91  0.003658687    1.292    0.226
         3 -14.6713    171.1144     13.6063   6.9629452690e+01   4.0615560460e+01     1.370327     1.044398  32.55  0.004266678    1.313    0.238
         4 -13.1758    189.1889     13.8674   6.7177646436e+01   3.5756180041e+01    0.6941916    0.4187988 -64.71  0.002814345    2.167    0.539
         5 -12.5794    198.7610      7.1333   6.3790625357e+01   3.3841617526e+01    0.5074704    0.2486479 -49.86  0.002003046    2.345    0.574
         6 -13.5620    195.4535    168.8017   1.0771492981e+02   1.2619987552e+01    0.4774171    0.4058395  49.11 0.0007881675    1.295    0.228
         7 -19.8914     91.6817    227.0386   1.3363406273e+02   2.0450097059e+01     6.942071     4.725996  55.56   0.05038554    1.106    0.096
         8 -12.5868    193.4903    164.4773   1.0727516837e+02   1.3559972439e+01    0.3748766    0.2615048  38.54  0.001428744    1.242    0.195
         9  -8.9653      4.7667    233.4429   1.4730664786e+02   2.8663145262e+01   0.08907608   0.06280713  58.62 0.0002598128    1.188    0.158
        10 -10.9353     27.5226    172.9720   1.4093731061e+02   3.6481693348e+01    0.1451721    0.1330844  64.80 0.0003529661    1.359    0.264
        11 -11.8305    165.2578    171.8428   1.1382460947e+02   1.7573032821e+01    0.2254136    0.1555333  50.67  0.001307604    1.382    0.276
        12 -19.1628     75.5633     95.8853   1.2010382702e+02   4.6934867218e+01     17.45171    0.8031597 -56.63   0.02553138   19.028    0.947
        13 -12.3572    230.3965    167.4413   1.0143485656e+02   6.5587763041e+00    0.3597226    0.1915383 -43.09  0.001758963    2.738    0.635
        14 -11.1745    218.4352    220.6406   1.1221848214e+02   2.9245574389e+00    0.2437766   0.09711906 -39.21  0.001283282    3.506    0.715
        15 -11.3219    151.0733    239.1595   1.2519744532e+02   1.0893881962e+01    0.1854517    0.1464455  34.83 0.0009483049    1.181    0.153
        16 -11.7004    192.3288    157.7767   1.0622026840e+02   1.4703464772e+01      0.32028    0.2146498  15.47  0.001693041    1.704    0.413
        17 -12.9079     11.3665    206.0573   1.4539705475e+02   3.2260165037e+01     0.360838    0.2055275  31.65  0.002149609    2.115    0.527
        18 -10.9535     19.1342    203.8430   1.4405322817e+02   3.1931267967e+01    0.1793397   0.07479004 -58.03  0.001069047    3.386    0.705
        19 -12.7392    134.5730    108.8459   1.0776792306e+02   3.4228519761e+01     1.215331    0.1581549 -45.01   0.00263552    7.768    0.871
        20 -15.3033    143.0230    144.4023   1.1341417637e+02   2.6027823633e+01     1.046313    0.7919617 -55.12  0.004845857    1.468    0.319
        21 -14.6602    134.1810    146.7996   1.1573052704e+02   2.7179400299e+01     1.595565    0.5589252 -57.98  0.005176912    4.830    0.793
        22 -14.6034    135.5151    129.4027   1.1210191459e+02   3.0135485279e+01     1.731327    0.3906364 -48.72  0.005086591    4.884    0.795
        23 -10.3168     31.4966    205.1487   1.4208628745e+02   3.0560950139e+01    0.1212603   0.07873477 -85.73 0.0003751557    1.415    0.293
        24 -10.8246     28.3087    237.2541   1.4404342075e+02   2.5991987811e+01    0.1110903   0.07848421  71.81 0.0005933942    1.136    0.119
        25 -11.1834     17.7743    154.1697   1.4162301306e+02   4.0871799750e+01    0.1663963    0.1412219 -80.15 0.0003474634    1.289    0.224
        26 -11.3515     18.6527    149.3069   1.4111622638e+02   4.1742109772e+01    0.2788591    0.2077934  61.13  0.002156987    1.208    0.172
        27 -13.3047    163.8685    156.5399   1.1141670785e+02   2.0177714319e+01     0.384107      0.34112 -36.83 0.0009938366    1.253    0.202
        28 -12.7605    173.8092    148.7004   1.0797087433e+02   1.9552481135e+01    0.3616864    0.3207366  48.85  0.001391226    1.160    0.138
        29 -13.2088    159.8810    151.5958   1.1129252367e+02   2.1708301728e+01    0.3599297    0.3154656  14.30  0.002226129    1.188    0.158
        30 -10.0258      8.4338    148.4892   1.4316290023e+02   4.2715789746e+01    0.1038353   0.07724968  83.42 0.0001316633    1.027    0.026
        31 -12.3360     27.6990    145.2643   1.3890607219e+02   4.1757194144e+01    0.3420381    0.2838227  84.76  0.001608093    1.101    0.092
        32 -11.0492     26.3293    138.8813   1.3867274647e+02   4.3161390450e+01    0.1798939    0.1567635 -79.09 0.0005056096    1.238    0.192
        33 -11.8114    173.8575    140.1333   1.0622675895e+02   2.0898422232e+01    0.2030019    0.1861579  70.41  0.000713267    1.292    0.226
        34 -10.5123      2.8838    135.2095   1.4352510915e+02   4.5732861263e+01    0.1529037    0.1346525 -51.48 0.0007191634    1.541    0.351
        35 -12.9655    160.6524    128.2632   1.0639544463e+02   2.5489437963e+01     0.432205    0.3457421 -44.16  0.001711938    1.338    0.252
        36 -13.3088     39.1604    123.7811   1.3419290742e+02   4.5110803443e+01    0.3400658    0.2863893  27.72  0.001473731    1.512    0.339
        37 -11.9189    141.4775    121.2599   1.0902814036e+02   3.0527525030e+01    0.4197487    0.2385257  71.61  0.001427699    4.007    0.750
        38 -13.2474    139.7943    200.1743   1.2265711244e+02   1.7590038483e+01    0.4657764    0.2352732  42.75 0.0009402389    1.609    0.378
        39 -10.8493    167.6406    112.6651   1.0130547774e+02   2.6736995902e+01    0.2840615    0.2155216 -82.83  0.001325674    2.066    0.516
        40 -11.8451     21.7255    235.1763   1.4492307161e+02   2.6908001146e+01    0.1369519   0.08737336  81.79 0.0008816342    1.321    0.243
        41 -10.8747    205.3425    110.2319   9.3309101656e+01   1.8963520426e+01     0.300578    0.1877445  41.63 0.0008885441    1.535    0.348
        42 -12.0215     27.0386    105.9252   1.3515813239e+02   5.0043699533e+01    0.2742555    0.2283626 -11.86   0.00105021    1.722    0.419
        43 -11.5943     12.9221    240.5031   1.4636459612e+02   2.6951112287e+01    0.1341639   0.09968983 -76.39  0.001297754    1.699    0.411
        44 -12.4262     41.2392     94.1523   1.2957179250e+02   5.1358935945e+01    0.4206222    0.3441832 -46.24   0.00248115    1.332    0.249
        45 -10.9524    124.7698     95.3995   1.0681265268e+02   3.8777393564e+01    0.2006894    0.1353515  34.23 0.0009130698    1.628    0.386
        46 -10.7746     19.5188    197.0086   1.4367730595e+02   3.3020184932e+01    0.1248406    0.0765389 -80.91 0.0008353795    1.508    0.337
        47 -12.3414     50.5446     91.6137   1.2643439086e+02   5.0967127248e+01    0.3265325    0.2295942  16.28  0.001225839    1.942    0.485
        48 -11.5868      5.8952     89.1514   1.3903944545e+02   5.5205197771e+01    0.4426523    0.2148722 -11.57  0.002109796    4.383    0.772
        49 -10.0675    104.5363     82.0468   1.0858352069e+02   4.5281479630e+01    0.2039563    0.1324255 -47.01 8.892351e-07    1.450    0.310
        50 -10.9308    142.9134     80.9848   9.8362202475e+01   3.7767916604e+01    0.2305202    0.2183454 -15.74 0.0005024158    1.018    0.018
        51 -10.2322     13.3089    236.1848   1.4617216580e+02   2.7527471908e+01   0.06942126    0.0545417  48.98 0.0002771383    1.454    0.312
        52 -11.9224    163.4800    246.5647   1.2402877081e+02   8.3334875906e+00    0.1816721    0.1316748  42.62 0.0008860037    1.048    0.046
        53 -13.1794    162.5956     36.5599   7.9369857085e+01   4.0179633944e+01    0.4767383    0.4255709   7.17 0.0008658372    1.085    0.078
        54 -11.1533     13.3913     59.8696   1.3256598046e+02   6.1216676805e+01    0.1693932     0.148083  80.99 0.0004423371    1.265    0.209
        55 -11.7337    150.0403     36.1018   8.1723081179e+01   4.3444360967e+01    0.5307721    0.3253082  80.46  0.002065274    2.502    0.600
        56 -13.3017    145.0938    189.4094   1.2027509606e+02   1.8333253661e+01     0.482341    0.2501003  34.96  0.001633955    1.876    0.467
        57 -12.4005    199.0106    178.4659   1.0879847348e+02   1.0734570469e+01    0.5135782    0.3451934 -62.00  0.002608128    2.966    0.663
