#   1 NUMBER                 Running object number                                     
#   2 MAG_AUTO               Kron-like elliptical aperture magnitude                    [mag]
#   3 X_IMAGE                Object position along x                                    [pixel]
#   4 Y_IMAGE                Object position along y                                    [pixel]
#   5 X_WORLD                Barycenter position along world x axis                     [deg]
#   6 Y_WORLD                Barycenter position along world y axis                     [deg]
#   7 A_WORLD                Profile RMS along major axis (world units)                 [deg]
#   8 B_WORLD                Profile RMS along minor axis (world units)                 [deg]
#   9 THETA_WORLD            Position angle (CCW/world-x)                               [deg]
#  10 FWHM_WORLD             FWHM assuming a gaussian core                              [deg]
#  11 ELONGATION             A_IMAGE/B_IMAGE                                           
#  12 ELLIPTICITY            1 - B_IMAGE/A_IMAGE                                       
         1 -12.4093     65.0624     53.0598   6.8783286207e+01   5.9129893743e+01      2.82744     1.683562   3.43   0.01127243    2.823    0.646
         2 -13.4714      3.0906     10.2290   8.2575857052e+01   7.4640825589e+01    0.7318092    0.4899931 -42.20  0.004790473    1.515    0.340
         3 -13.1216      8.2052      2.6462   7.4647162160e+01   7.5252486711e+01    0.5779265    0.3873349  41.76  0.002650488    2.152    0.535
         4 -15.8537     12.9526     21.0947   8.1310909973e+01   7.1956069237e+01     1.946332      1.06489 -24.25  0.008874618    1.753    0.430
         5 -14.0792     25.0117     13.8269   7.0264966735e+01   7.1640304378e+01    0.7355278    0.3475852  33.15  0.003830425    1.951    0.487
         6 -13.9309    165.8784     31.0074   3.6374369363e+01   3.9478754227e+01    0.9183065    0.7248065 -89.65  0.003467125    1.182    0.154
         7 -13.1875    138.6699     21.7339   3.7640055096e+01   4.7020427747e+01     1.238993    0.3881257  71.79  0.003514973    3.618    0.724
         8 -13.8823    148.2277     30.0828   3.8660603502e+01   4.3791907820e+01    0.8905049    0.5400464  69.48  0.003658189    1.527    0.345
         9 -12.5040    187.9455      9.7123   2.8545665703e+01   3.6717055504e+01    0.8004451    0.2318554 -51.61  0.003134347    3.458    0.711
        10 -13.1759    187.1931     15.7853   3.0068948975e+01   3.6266542494e+01    0.6643968    0.2445347 -41.80  0.003078107    2.398    0.583
        11 -12.0934     48.9296     20.6700   6.1647858353e+01   6.6983539948e+01    0.6677842    0.2466633  44.06  0.002858205    2.480    0.597
        12 -12.2375    224.9848      4.4993   2.4730162855e+01   2.9450618526e+01    0.3237811    0.2343341  34.91  0.001711615    2.358    0.576
        13 -14.1905    215.9539     11.5628   2.6771995940e+01   3.0542703022e+01    0.8448309    0.4086114 -44.61  0.002591252    1.743    0.426
        14 -15.0528     98.9176     11.7841   4.1646700478e+01   5.7474751257e+01     1.567687    0.7542866  64.61  0.006575889    1.882    0.469
        15 -12.3698     69.9595     16.2067   5.1421332568e+01   6.3459608334e+01    0.3648551    0.2994762  85.96  0.002156582    1.705    0.413
        16 -11.5199     59.1908     15.9710   5.5148030119e+01   6.5651875354e+01    0.2765661    0.2649939 -10.88  0.001878103    1.264    0.209
        17 -11.5704     46.6032     13.2586   5.8974534371e+01   6.8305122156e+01    0.2559545    0.1997657  28.43  0.001629365    1.086    0.079
        18 -13.7471     41.7999      4.3216   5.6364688527e+01   7.0130587370e+01    0.6709293    0.4818332  24.97  0.003640536    1.163    0.140
        19 -11.5569    153.0535      8.8543   3.1853872025e+01   4.4838935780e+01    0.2436155    0.1839961  64.08   0.00123946    1.226    0.184
        20 -10.6083    145.0148      8.2864   3.2675534647e+01   4.6802636332e+01    0.1773104    0.1390922  79.03  0.000294317    1.100    0.091
        21 -10.3510    133.4790      8.5488   3.4316422161e+01   4.9541987789e+01    0.1288918    0.1101086  72.50 8.335264e-05    1.018    0.018
        22 -12.3193    222.4717     10.1031   2.6024306054e+01   2.9376493906e+01    0.2979524     0.202748 -79.24  0.001754513    1.251    0.201
        23 -10.6152     59.5100      7.6741   5.0994621342e+01   6.6452668053e+01    0.2235073    0.1014682  52.52  0.001069986    1.937    0.484
        24 -11.7286    119.9866      3.7528   3.4785419329e+01   5.3174301141e+01    0.4029524    0.1713702  80.93  0.001648448    2.731    0.634
        25 -11.0874    117.0428      1.5022   3.4484123758e+01   5.4050872426e+01    0.2859437    0.1077585  68.82  0.001156931    2.242    0.554
        26 -12.6710     85.6028     14.2133   4.5873872367e+01   6.0284435453e+01    0.4550614    0.3476745 -39.88  0.001988767    1.543    0.352
        27 -11.2494    232.5775      1.8120   2.3765833932e+01   2.8240465007e+01    0.2009989    0.1327375  89.60  0.001224831    1.353    0.261
        28 -11.0444    169.6224      1.9298   2.8259886476e+01   4.1589286750e+01    0.3042958    0.1226855  65.75  0.001458412    2.121    0.528
        29 -11.3918     81.0986      1.6415   4.1697745068e+01   6.2380876335e+01    0.5043405   0.09679916  57.40   0.00178035    3.388    0.705
        30 -13.1748    189.2437     26.5550   3.2472962545e+01   3.4626663827e+01     1.041749    0.3806534 -54.34  0.004210449    2.994    0.666
        31 -11.4327     61.1380      1.4677   4.7363026376e+01   6.6676247663e+01    0.3629754    0.1098082  58.02  0.001425484    3.027    0.670
        32 -12.6636    198.1897    181.3659   6.6657981656e+01   7.0319383003e+00    0.3199625    0.3060122  17.83  0.002026516    1.257    0.204
        33 -14.3446    101.8200    241.4169   9.7502579561e+01   1.0154305212e+01     1.432747    0.7123113  55.05  0.006375931    2.590    0.614
        34 -11.6679     51.6032    249.1263   1.0921041493e+02   1.4984215147e+01    0.3372719    0.1966644  87.56  0.001894146    1.976    0.494
        35 -12.5375      3.2181    249.2485   1.1903662416e+02   1.9927643152e+01     0.430813    0.2856014  63.15   0.00244494    1.183    0.155
        36 -13.3894      9.3310    245.7235   1.1769506905e+02   2.0057584339e+01    0.7432485    0.3522893  57.61  0.003512453    1.728    0.421
        37 -11.0406    122.2131    181.6135   8.3899259566e+01   1.9661935546e+01    0.3026977    0.1832117  89.46 0.0009604005    4.265    0.766
        38 -12.9274    123.9349    166.9971   8.0703718024e+01   2.2713727842e+01     0.667536     0.427129 -79.23  0.002566996    2.689    0.628
        39 -12.0549     25.2977    159.2027   1.0774409057e+02   3.8525114653e+01    0.3500388    0.2203113  -9.66  0.001289141    2.267    0.559
        40 -11.8944    238.7195    159.5930   5.5288684079e+01   4.6251607985e+00    0.2201404    0.1196292  35.04  0.001151608    2.162    0.537
        41 -12.3156     76.9610    156.8623   9.1965007593e+01   3.2942747217e+01    0.5419891     0.335405  30.12  0.001760388    1.652    0.395
        42 -13.4648     73.2991    153.7871   9.2523242593e+01   3.4267430122e+01     0.854044    0.5739712  21.72  0.003529919    1.648    0.393
        43 -11.4619     55.0002    156.5448   9.8518585090e+01   3.6022416125e+01     0.369382     0.217478  -3.05  0.001445499    2.779    0.640
        44 -12.8542    210.7273    154.8445   5.8990976575e+01   9.7726748202e+00    0.3844818     0.309398 -33.51  0.002252961    1.098    0.089
        45 -11.9468    111.5337    156.5564   8.1945475715e+01   2.7367893134e+01    0.3633229    0.2405035  74.92  0.001405741    2.511    0.602
        46 -12.0698     12.7678    150.0040   1.1050183089e+02   4.1933740007e+01    0.4242295    0.1626101 -87.57  0.001561054    3.000    0.667
        47 -11.5207    103.3914    149.9682   8.2887147509e+01   3.0398580061e+01     0.398466    0.2536382 -33.09  0.001664672    1.864    0.464
        48 -12.4816     60.6139    147.4685   9.5334939390e+01   3.7664514244e+01    0.4603124    0.3376364   4.74  0.002207982    1.679    0.404
        49 -11.5266     74.0812    145.3518   9.0747993805e+01   3.6323080402e+01    0.3048545    0.2283634 -71.70  0.001038676    1.403    0.287
        50 -11.5081     38.1157    145.8943   1.0218579879e+02   4.0740117290e+01    0.2210141    0.1858663  71.16 0.0005707404    1.218    0.179
        51 -11.7752      7.9970    144.5144   1.1140621582e+02   4.3686941533e+01    0.4615241    0.2573513 -23.10  0.002149824    2.462    0.594
        52 -12.4144     45.2342    134.1561   9.8056362614e+01   4.3045585247e+01    0.4848993    0.3277661 -50.68  0.002374447    1.402    0.287
        53 -12.5030    246.6932    135.1556   4.9318091232e+01   7.3780133215e+00    0.3265629    0.2338769 -85.38  0.001743689    2.601    0.615
        54 -12.8474    136.2909    132.5803   6.9967941311e+01   2.8278455152e+01    0.5697774     0.263756  37.34  0.002082315    2.290    0.563
        55 -12.4790    222.7631    127.8902   5.1333337584e+01   1.2453686754e+01    0.3261248    0.2131863 -48.44  0.001744042    1.455    0.313
        56 -13.6998    129.2230    102.6813   6.4139831228e+01   3.6284023771e+01     2.826919    0.3767859  47.21  0.005449058    8.205    0.878
        57 -14.4126    106.4764    105.4754   7.1315552956e+01   4.0445398121e+01     1.341981     1.037463 -25.89  0.005739206    1.432    0.302
        58 -12.7630     28.6832    122.0843   1.0175697436e+02   4.7900396402e+01    0.4167261    0.3522999 -57.53   0.00238381    1.068    0.064
        59 -12.4561    181.5045    121.0170   5.6978050596e+01   2.1452550574e+01     0.361079    0.2146609  47.85  0.001396678    1.810    0.448
        60 -12.0333      4.4860    119.8004   1.0992145627e+02   5.0268694013e+01    0.5508355    0.2201136  13.92  0.002225828    2.938    0.660
        61 -12.0026     42.4739     90.8580   9.0158467375e+01   5.4391062472e+01    0.3385178    0.2565248 -61.50 0.0003766525    1.321    0.243
        62 -11.6894     34.8957     86.5508   9.2230160730e+01   5.6270953000e+01    0.4014628    0.2719576 -18.00  0.001373583    1.635    0.388
        63 -13.3584      2.3635     97.4791   1.0779879376e+02   5.6043629426e+01    0.7540044    0.4198779 -75.59  0.002910533    1.637    0.389
        64 -12.4143     36.6577     93.1073   9.3076043942e+01   5.4494409788e+01    0.4944857    0.2934526  15.58  0.001530024    1.882    0.469
        65 -14.2742     18.0327    111.2351   1.0389160808e+02   5.1587338982e+01    0.8940611    0.7238809 -33.70  0.003498884    1.251    0.201
        66 -14.1737     12.2652    103.8636   1.0491146073e+02   5.3870621703e+01    0.8121758    0.6343523  15.93   0.00474306    1.448    0.309
        67 -12.3497    121.4444    112.3464   6.8840917817e+01   3.5845500585e+01    0.3825138    0.3136832  77.97  0.001251444    1.529    0.346
        68 -13.1264     29.5874     89.4425   9.5152544060e+01   5.6101363724e+01     0.937875    0.5140582  65.11  0.003505545    3.553    0.719
        69 -12.1159     62.4238    109.6183   8.7093981835e+01   4.7161537982e+01    0.6229076    0.4696754  77.31  0.002925117    1.784    0.439
        70 -10.9823    222.5104    109.4880   4.7431925544e+01   1.5604859102e+01    0.1332924    0.1140812 -41.85 0.0002726783    1.002    0.002
        71 -14.4091    106.9495    121.5909   7.5384326441e+01   3.6625848312e+01      1.58568     1.172472  29.79  0.007335221    1.421    0.296
        72 -11.5039     42.0892    107.2302   9.4085930875e+01   5.0375521549e+01    0.2988589    0.1742337  18.26   0.00111769    1.926    0.481
        73 -14.6954     22.6494     94.9857   9.9209831148e+01   5.5345981101e+01     1.441023     1.052135  15.98  0.007033058    1.502    0.334
        74 -12.2746     49.4870     93.7926   8.8083835511e+01   5.2819367408e+01    0.4566698     0.403976 -66.00  0.002545702    1.203    0.169
        75 -12.1180     46.8900     99.8192   9.0582867770e+01   5.1670720066e+01    0.5274588    0.3914271  70.24  0.002562888    1.814    0.449
        76 -11.8300     52.2767     97.9063   8.8030378722e+01   5.1456620466e+01    0.4349579    0.2612867 -20.57  0.001753545    2.237    0.553
        77 -13.5647     82.3752    113.7034   8.1160294326e+01   4.3005054623e+01     1.142006     1.007764  27.33  0.005938126    1.158    0.136
        78 -12.3039    163.3984     98.2117   5.4965084133e+01   2.9637742649e+01     0.351998    0.3195396 -75.09  0.000755203    1.157    0.136
        79 -12.0973     60.7631     97.8185   8.4767799485e+01   5.0298278182e+01    0.4311651    0.3214273  60.85  0.002061633    1.737    0.424
        80 -12.8602    136.3248     95.1907   6.0259686488e+01   3.6254775855e+01    0.5276918     0.365453  50.46  0.002435942    1.463    0.316
        81 -11.3092    125.2238     92.1278   6.2230384366e+01   3.9332230644e+01    0.3544182    0.2450044 -84.56  0.001406091    2.433    0.589
        82 -13.1698    188.0863     84.4712   4.6939080680e+01   2.6669862274e+01    0.6520795    0.3147337  43.51   0.00244252    2.560    0.609
        83 -12.6636    237.5280     80.5612   3.9349225864e+01   1.7431188401e+01    0.3634697    0.2394897 -81.66  0.002034311    1.924    0.480
        84 -13.8344    164.3514     71.7779   4.7749333460e+01   3.4086431924e+01     1.401741    0.9368058  75.87  0.006653048    1.744    0.427
        85 -13.6538    160.9913     80.9311   5.0865393058e+01   3.3313965932e+01     1.156266    0.6543132  25.37  0.003972639    3.672    0.728
        86 -14.2609    169.2535     76.9940   4.8256442102e+01   3.2100425580e+01     1.460507     0.426099  55.40  0.004802838    3.422    0.708
        87 -13.5665     95.4103    110.4167   7.6068271049e+01   4.1457919470e+01    0.9745103    0.8009805 -56.00  0.003776532    1.252    0.201
        88 -12.0430     47.4596     82.0376   8.5750920507e+01   5.5858625856e+01    0.4315598    0.3484877 -45.50  0.002360243    1.159    0.137
        89 -12.4352     28.4271    245.6559   1.1382784898e+02   1.8197901557e+01    0.4430136    0.2786702  54.70  0.002788392    1.302    0.232
        90 -13.3328     91.6067     58.1858   6.1178186450e+01   5.3038745891e+01     0.542868    0.4980986 -14.49  0.002173041    1.104    0.095
        91 -13.3112     52.4765     69.7661   7.9910224362e+01   5.7891939889e+01     1.097723    0.6868935  46.57  0.005158518    1.941    0.485
        92 -13.4230     87.2171     65.4485   6.5163128974e+01   5.2648953299e+01     1.000923     0.598932  16.98  0.003912841    2.606    0.616
        93 -13.0112     54.5407     82.4037   8.2946262963e+01   5.4810680186e+01    0.5890785    0.4520415 -53.66  0.002479604    1.313    0.238
        94 -14.1066     61.2277     75.7666   7.8233833359e+01   5.5280192435e+01    0.7495345    0.5343445 -32.93  0.001238915    1.388    0.279
        95 -13.0701     71.1611     75.2462   7.4207045281e+01   5.3742197302e+01     0.603384    0.4283967  -0.10  0.002199695    1.767    0.434
        96 -12.4467     77.1550     73.3247   7.1356200622e+01   5.3064140697e+01    0.5717354    0.3770345 -18.11  0.001693499    1.946    0.486
        97 -13.4303    213.8344     78.8448   4.1847716941e+01   2.2210414864e+01     0.858034    0.4996753  86.15  0.003944888    2.548    0.608
        98 -12.6925    218.5745     74.7445   4.0327078898e+01   2.1893540359e+01    0.3618136    0.2159224 -62.94  0.001627496    1.844    0.458
        99 -12.6563    135.5841     79.7651   5.6026948210e+01   3.9371665932e+01    0.7015706    0.3600657  53.07  0.002426042    1.951    0.488
       100 -12.1523    113.7660     80.4103   6.1872248960e+01   4.4176689642e+01    0.3754767    0.3514664  -6.21 0.0006023347    1.104    0.094
       101 -11.7895     42.1002     77.1505   8.6631820241e+01   5.7653229586e+01     0.532145    0.2268483 -59.92  0.002056002    2.572    0.611
       102 -14.8582      6.2971     71.1311   1.0142644795e+02   6.2230543967e+01     1.006812    0.7344407 -44.67  0.004107999    1.137    0.121
       103 -14.1079      4.9040     63.4975   1.0038425625e+02   6.4065006055e+01    0.7555293    0.5861869  -4.82   0.00408907    1.326    0.246
       104 -11.4901     27.2000     75.7829   9.2857987853e+01   5.9580230117e+01    0.3956996    0.2605447  78.01  0.001787392    2.610    0.617
       105 -13.5920    199.0099     70.1903   4.1830832812e+01   2.6607930233e+01    0.7164169    0.4632879  43.83   0.00291463    1.914    0.478
       106 -12.4949    134.8718     66.1561   5.2130080646e+01   4.1911965404e+01    0.5469013    0.3871107  45.74  0.001735665    1.412    0.292
       107 -12.0577     31.4731     63.3445   8.7314999112e+01   6.1939812342e+01     0.566618    0.3282652 -66.42  0.002612208    2.228    0.551
       108 -11.9300     24.7847     59.4805   8.9361371263e+01   6.3456976556e+01    0.4263503    0.2972622 -49.62  0.001538259    1.322    0.244
       109 -10.9088     99.9810     65.5270   6.1107675430e+01   4.9962156030e+01    0.2277413    0.1402717  46.67 0.0006565519    1.567    0.362
       110 -11.8652    199.7642     62.1126   3.9804353342e+01   2.7653682646e+01    0.3039975    0.2202179 -49.07  0.001455437    1.242    0.195
       111 -13.3102    178.0551     58.1897   4.1863760981e+01   3.3040154874e+01    0.6732847    0.5054705 -48.90  0.002394732    1.264    0.209
       112 -12.5336     79.2839     60.8012   6.6279650210e+01   5.5079035175e+01    0.4784105    0.3868395  28.89  0.001821958    1.189    0.159
       113 -13.0922     81.9065     54.6380   6.3120093542e+01   5.5649016711e+01    0.7237577    0.4490712  37.18  0.002583542    1.559    0.359
       114 -11.1846     38.7001     60.1874   8.2873949902e+01   6.1766712106e+01    0.2970224    0.2132587  53.85  0.001516451    1.996    0.499
       115 -14.4581    120.2007     54.8129   5.1996189824e+01   4.7177195635e+01    0.9865068    0.5530413  41.36   0.00273807    1.866    0.464
       116 -13.8617    101.6690     50.0838   5.5255301589e+01   5.2162520079e+01     1.000441    0.7280617  72.46  0.002423482    1.709    0.415
       117 -11.9117    135.9823     50.0151   4.6927320176e+01   4.4150287192e+01    0.5104893    0.2916319  40.56  0.001965907    1.987    0.497
       118 -11.2808     17.6462     55.7911   9.1836039036e+01   6.4890906463e+01    0.3180986     0.186436 -50.70  0.001687623    1.495    0.331
       119 -11.8674    249.0289     48.9973   3.1849274200e+01   1.9737313035e+01    0.4432695    0.2838974 -10.83  0.002277603    3.083    0.676
       120 -11.0052    231.8134     55.6188   3.4732376632e+01   2.2051130999e+01    0.1651027    0.1067225  88.67 0.0009538485    1.709    0.415
       121 -11.7394     35.5799     54.1145   8.2260450066e+01   6.3391394843e+01    0.2773651    0.1642793   6.78  0.001320545    1.974    0.493
       122 -10.5328     23.4868     50.4334   8.7065233532e+01   6.5476257609e+01     0.133704    0.1077811 -21.42 0.0001335426    1.061    0.058
       123 -11.8455    151.9760     47.0000   4.3001850430e+01   4.0743722718e+01    0.3941539    0.1921591  61.79  0.001715047    1.941    0.485
       124 -12.6499    158.8911     43.5688   4.0872274258e+01   3.9558978283e+01    0.5515811    0.3279644  52.49  0.002477609    1.681    0.405
       125 -12.8269      3.9014     43.5867   9.5557337383e+01   6.8446714705e+01    0.5286751    0.3610046  -3.68  0.003230676    1.425    0.298
       126 -12.2693     11.7452     43.5845   9.1093173533e+01   6.7904785440e+01    0.4478673    0.2462254 -19.82   0.00205469    1.858    0.462
       127 -13.7954    217.2112     42.3307   3.3302702359e+01   2.6701851573e+01    0.9560573    0.3797448  62.41  0.004270444    2.561    0.609
       128 -13.1929    204.9696     40.2806   3.4075365188e+01   2.9522073332e+01     1.015863    0.4271933 -89.32  0.003584925    4.344    0.770
       129 -12.1779    109.4452     42.0466   5.0323216870e+01   5.1557322379e+01    0.5039415    0.2096379  55.60  0.001336582    2.214    0.548
       130 -12.9413    132.1059     32.9347   4.2299842939e+01   4.7341575318e+01    0.4863809    0.3517311  49.95  0.001416672    1.328    0.247
       131 -13.6453    121.9129     37.0235   4.5688609795e+01   4.9282521180e+01    0.8966208    0.4464622  42.85  0.002968502    2.129    0.530
       132 -12.6191    113.6382     38.0517   4.7901562106e+01   5.1112883670e+01    0.4522976    0.3255886  64.55  0.002018359    1.355    0.262
       133 -11.2733    135.1632     39.6611   4.3853285902e+01   4.5763318884e+01    0.3649985    0.1606281  63.56   0.00149206    2.181    0.542
       134 -12.3915     75.5473     37.2658   5.8588213446e+01   5.9671300213e+01    0.4147282    0.2301889  46.84  0.001122335    1.670    0.401
       135 -11.7448     70.7408     36.5646   6.0018630644e+01   6.0734996089e+01    0.2679518    0.2586923  56.02 0.0008568371    1.250    0.200
       136 -12.6652    242.1012     36.1137   2.9862932575e+01   2.2622076655e+01    0.4442016    0.2480982  73.46  0.001960938    1.890    0.471
       137 -10.3148    104.3064     36.6428   4.9695237914e+01   5.3473330470e+01    0.1392695    0.1064306 -72.12 0.0007040994    1.724    0.420
       138 -12.7811     44.2919     33.0436   6.9567208025e+01   6.5973502442e+01    0.7769245    0.4750527  40.55  0.004121313    1.678    0.404
       139 -10.8894     35.0058     34.7783   7.4928832713e+01   6.7050843880e+01    0.2030013    0.1712337  -7.34 0.0005447726    1.033    0.032
       140 -13.7155    171.6324    242.7533   8.2609832681e+01   3.6918912538e-01    0.7159869    0.4692143  14.90  0.004186232    1.371    0.271
       141 -11.8994     60.4776    246.0162   1.0707159665e+02   1.4552223749e+01    0.2552687    0.1532101   9.74  0.001271956    2.448    0.592
       142 -12.0369    147.3071    239.0362   8.7175615385e+01   4.2929354610e+00    0.1767178    0.1592681   4.91 0.0009071707    1.107    0.097
       143 -12.6200     24.2339    216.8534   1.1293960670e+02   2.4681517562e+01    0.6764701    0.2854067  46.41  0.003286331    2.008    0.502
       144 -12.4394     14.1921    222.2899   1.1551598543e+02   2.4451904473e+01    0.4382574    0.2748822  81.64   0.00165167    1.457    0.314
       145 -12.0258    171.7960     28.3997   3.4917210264e+01   3.8397883742e+01    0.3087176    0.2743593  77.52   0.00113062    1.104    0.094
       146 -13.6823     26.0616    226.7942   1.1318198350e+02   2.2330834466e+01    0.8172998    0.3670325 -53.52  0.003915355    2.737    0.635
       147 -13.5734     20.2874    224.2230   1.1429237536e+02   2.3455444168e+01     0.531494    0.4825824 -76.23  0.002541359    1.261    0.207
       148 -12.9660    142.8580     30.2927   3.9584572869e+01   4.5060401166e+01    0.5308127    0.3744833  79.65  0.002329925    1.394    0.282
       149 -11.8767    194.7517     23.5659   3.1206434607e+01   3.3745387482e+01    0.2980113    0.1985748  62.01  0.001758109    1.545    0.353
       150 -13.6868     63.5331    223.9103   1.0440917801e+02   1.8726661483e+01    0.8463666    0.6120415  28.35  0.004889182    1.353    0.261
       151 -14.0229     64.1082    214.5129   1.0332390501e+02   2.0715458905e+01    0.6825948    0.4218149  59.90  0.003464193    1.681    0.405
       152 -13.0212    217.4122     29.1252   3.0409320953e+01   2.8287565055e+01    0.3933338    0.2275174 -72.54  0.002088062    1.704    0.413
       153 -13.2696     55.3242     27.3315   6.2033948770e+01   6.4955299021e+01    0.6683902    0.3533189  45.00  0.002520157    1.808    0.447
       154 -11.8836     63.5769     25.2535   5.7792674347e+01   6.3682943490e+01    0.4896212    0.3085927   4.45  0.002428062    2.019    0.505
       155 -12.2568    120.7821     26.2994   4.2300895408e+01   5.0835389077e+01    0.4202173    0.3155983  66.00  0.001656303    1.214    0.176
       156 -11.5281     36.0693     23.2387   6.9053799507e+01   6.8721489089e+01    0.3023332    0.2249392  -7.72  0.001852967    1.241    0.194
       157 -11.1139     30.7442     25.5564   7.2980551516e+01   6.9131100205e+01     0.313748    0.1391089  25.82  0.001434508    2.322    0.569
       158 -11.9574     94.3539    218.1209   9.6430243115e+01   1.5874849956e+01    0.2434744    0.1777005  22.98  0.001193543    1.363    0.266
       159 -12.5976    223.9388     20.8572   2.8139717582e+01   2.7919514449e+01    0.2537183    0.2478184  83.09  0.001508368    1.377    0.274
       160 -12.0671      4.1278    212.4564   1.1720488072e+02   2.7499838774e+01    0.4039642    0.1979305 -89.52  0.002131927    1.888    0.470
       161 -10.9135    136.6830    211.3219   8.5397575148e+01   1.1000486680e+01    0.1359088    0.1061453  61.70 0.0004109976    1.664    0.399
       162 -11.5308     73.0247    207.7027   1.0037611655e+02   2.1097650039e+01     0.200018    0.1737652  40.13  0.001181787    1.076    0.071
       163 -10.9235    149.9521    207.4798   8.1721635293e+01   9.7086597543e+00    0.2203818     0.126164  32.89  0.001041388    1.620    0.383
       164 -12.0389     41.0097    206.6700   1.0818836120e+02   2.5237221079e+01    0.1902239    0.1580822  51.33  0.001167028    1.091    0.083
       165 -12.6396     57.3696    203.3591   1.0380883611e+02   2.4100243642e+01    0.5089477    0.2653486  89.06  0.002163303    2.534    0.605
       166 -13.5518     15.2871    197.4328   1.1372397340e+02   2.9967379366e+01    0.8037057     0.422949 -67.95   0.00418558    1.794    0.442
       167 -13.1392     22.2958    166.6828   1.0937359379e+02   3.6881742004e+01    0.4576677    0.3440685  20.13 0.0008453745    1.511    0.338
       168 -14.1659     29.9432    169.3817   1.0749496373e+02   3.5482910309e+01      1.10899     1.025142  58.65  0.006891125    1.097    0.088
       169 -13.9590     22.2456    181.1227   1.1070990595e+02   3.3268814022e+01      1.07499    0.4405468 -56.97  0.004664784    2.381    0.580
       170 -15.3354      8.1695    183.5216   1.1453183153e+02   3.3889881258e+01     1.533228     1.080358 -79.39  0.009126718    1.268    0.212
       171 -15.3053     15.7912    175.2464   1.1192629306e+02   3.5293704581e+01     2.553243     1.125485  65.54   0.01066761    2.605    0.616
       172 -13.1394     36.8773    195.5409   1.0821181548e+02   2.8304763602e+01    0.3971887    0.2763816 -82.88   0.00220349    1.386    0.278
       173 -13.1633     40.4088    195.2344   1.0728399923e+02   2.7996499195e+01    0.4486938     0.215665  87.81  0.001867067    2.579    0.612
       174 -12.2329    200.8935    191.9140   6.8141983011e+01   4.7576813143e+00    0.3344705    0.2481117 -12.58  0.001226086    1.267    0.211
       175 -11.1255     80.0582    193.0958   9.6720537887e+01   2.3528827903e+01    0.4080838    0.1345091  41.53  0.001438598    2.797    0.643
       176 -12.3713     98.5007    187.4048   9.1033100734e+01   2.2148472334e+01    0.4295545     0.285899  -3.88  0.001845197    2.241    0.554
       177 -12.2914    155.9788    185.4841   7.6425336686e+01   1.3131583702e+01    0.2843642    0.1948266 -27.75  0.001104389    1.550    0.355
       178 -11.8260     48.9058    182.0768   1.0365333037e+02   3.0249921040e+01    0.3448209    0.2088676 -55.99  0.001680658    1.661    0.398
