#   1 NUMBER                 Running object number                                     
#   2 MAG_AUTO               Kron-like elliptical aperture magnitude                    [mag]
#   3 X_IMAGE                Object position along x                                    [pixel]
#   4 Y_IMAGE                Object position along y                                    [pixel]
#   5 X_WORLD                Barycenter position along world x axis                     [deg]
#   6 Y_WORLD                Barycenter position along world y axis                     [deg]
#   7 A_WORLD                Profile RMS along major axis (world units)                 [deg]
#   8 B_WORLD                Profile RMS along minor axis (world units)                 [deg]
#   9 THETA_WORLD            Position angle (CCW/world-x)                               [deg]
#  10 FWHM_WORLD             FWHM assuming a gaussian core                              [deg]
#  11 ELONGATION             A_IMAGE/B_IMAGE                                           
#  12 ELLIPTICITY            1 - B_IMAGE/A_IMAGE                                       
         1 -15.6098      6.9660     67.4695   1.0598998290e+02   6.1783137167e+01     2.126865     1.007353 -65.92    0.0095598    1.940    0.484
         2 -12.8930      8.1025      2.6531   8.2630577698e+01   7.3429700682e+01    0.3492739    0.2341982   4.19  0.002472032    1.244    0.196
         3 -16.2161     14.1807     22.1914   8.8357736217e+01   6.9981012373e+01     2.098364      1.13837 -17.79   0.01194207    1.815    0.449
         4 -13.2333     65.4700     50.2074   7.6444675705e+01   5.8874555716e+01     1.755762    0.7421128 -27.05   0.00633076    3.396    0.706
         5 -13.0364    131.7607     32.7621   5.0910982455e+01   4.7642858230e+01    0.8370429    0.4270386 -42.30  0.003403831    2.176    0.540
         6 -14.1704    122.0401     37.4608   5.4606460262e+01   4.9336235088e+01     1.050706    0.6077871  26.85  0.002539231    2.306    0.566
         7 -12.8631     45.7499     33.4324   7.7866030690e+01   6.4592621901e+01     0.480155    0.3727965  -8.49  0.003024741    1.113    0.101
         8 -13.9985    165.9164     30.9465   4.4290193469e+01   3.9618949670e+01    0.8407241    0.8030893 -78.91  0.003345949    1.081    0.075
         9 -14.5589    147.1644     29.3160   4.6880293802e+01   4.4355587888e+01      1.46971    0.9015315  77.02  0.006154162    1.763    0.433
        10 -12.7844    120.0311     26.5914   5.1345908541e+01   5.1121519995e+01    0.7539544    0.4515768  36.24  0.003687307    1.749    0.428
        11 -13.5030    187.9689     25.3166   3.9791763884e+01   3.5000727797e+01     1.077523    0.4700166 -64.13  0.004034145    3.413    0.707
        12 -13.2271    187.5445     12.2666   3.6562519962e+01   3.6519576529e+01    0.9064667    0.3539736 -40.74  0.004132152    2.431    0.589
        13 -13.1828      2.6633     10.7809   8.9824701504e+01   7.2718843710e+01    0.4343768    0.2663474 -39.87  0.002027132    1.433    0.302
        14 -12.8770     47.7957     20.6768   7.1468896151e+01   6.6134752441e+01    0.5490069    0.2486062  34.96  0.002684993    2.071    0.517
        15 -15.1847     97.8417     12.0895   5.1227285638e+01   5.7624098595e+01     1.565083    0.7029547  54.49  0.007374599    1.880    0.468
        16 -11.6265     60.2161     17.2645   6.4963041460e+01   6.4537706234e+01    0.3192983     0.188694 -31.89  0.001521292    1.784    0.439
        17 -13.1584    214.7147     10.4396   3.3542996538e+01   3.0537576213e+01    0.3800178    0.2935689 -71.06  0.001054446    1.097    0.088
        18 -13.9494     41.7120      4.6562   6.6420021199e+01   6.8976875822e+01    0.6979856    0.4698414   6.44  0.003514571    1.336    0.251
        19 -11.6223     46.4788     13.0281   6.8479841924e+01   6.7296580622e+01    0.2539972    0.2448792  47.25   0.00181314    1.584    0.369
        20 -11.1290    152.9266      8.8735   3.9871718885e+01   4.5082823361e+01    0.2023572    0.1587512  48.62 0.0009084866    1.277    0.217
        21 -11.9601     71.3392     17.6660   6.1188205201e+01   6.2477258336e+01    0.3063861    0.2231173 -25.39  0.001406288    1.449    0.310
        22 -11.0389    120.1594      3.8122   4.3473834418e+01   5.3289291917e+01    0.1908928    0.1461611  60.86  0.000555543    1.116    0.104
        23 -11.0479    117.2534      1.3948   4.3169115674e+01   5.4152096069e+01    0.2312136    0.1164294  69.25 0.0006295908    1.848    0.459
        24 -12.0118     79.9655      2.0532   5.1812393759e+01   6.2280751304e+01     0.565722    0.1343772  49.00  0.002197319    2.988    0.665
        25 -11.5380     61.2104      1.7369   5.7443852490e+01   6.5955471438e+01    0.3496852    0.1394404  50.50  0.001676746    2.218    0.549
        26 -10.6310    232.5152      1.5199   3.0313057868e+01   2.7661277108e+01    0.1176322   0.09123627 -72.95   0.00033515    1.009    0.009
        27 -13.4386      2.2041     97.1071   1.1324755595e+02   5.5328445417e+01    0.8562892     0.231814 -70.48  0.003272919    3.077    0.675
        28 -12.3720     51.6925    248.6534   1.1656310388e+02   1.5964689010e+01    0.4074261     0.383276  -9.01   0.00303504    1.572    0.364
        29 -12.1458     60.0602    245.0573   1.1466889370e+02   1.5609874740e+01    0.4047005    0.3465212 -62.88  0.002864591    1.430    0.301
        30 -12.4343      2.8877    249.4352   1.2542999414e+02   2.1118024525e+01    0.4104626    0.2325001  71.54  0.002815248    1.373    0.271
        31 -13.8042      9.2103    245.8400   1.2417324207e+02   2.1182273434e+01    0.7667431    0.3575087  60.29  0.003666535    1.702    0.412
        32 -11.0120    177.6690    167.6692   7.7006812221e+01   1.2396413657e+01    0.1549406    0.1129325  -2.79 0.0007051943    1.720    0.418
        33 -12.9599     22.2223    181.3863   1.1729659464e+02   3.3627321258e+01    0.5003358    0.3020029 -74.79  0.001853651    1.431    0.301
        34 -11.9251     77.0203    156.7389   1.0006326621e+02   3.3071442566e+01    0.4001995    0.2837718  29.90  0.001717495    1.532    0.347
        35 -13.0807     73.6121    153.6440   1.0047254187e+02   3.4333783611e+01    0.7737582    0.5190715  32.72  0.003554424    1.585    0.369
        36 -11.7728    188.8106    156.1960   7.2171973779e+01   1.2533992270e+01    0.2108846    0.1722142  -2.27  0.001016161    1.334    0.251
        37 -11.6357    110.1288    154.6603   9.0681893733e+01   2.8161725417e+01    0.4402958    0.2596436 -76.01  0.001635686    2.648    0.622
        38 -11.1386    103.0163    150.4882   9.1756546254e+01   3.0420976176e+01    0.3101564    0.2012211 -38.71  0.001362465    1.713    0.416
        39 -11.8702    246.1601    149.8058   6.0322470173e+01   3.2918504884e+00    0.2450272    0.2076306 -29.71  0.001523661    1.043    0.041
        40 -11.7034     59.2926    148.4140   1.0361390702e+02   3.7584560891e+01     0.249325    0.1746184  45.57  0.001276318    1.494    0.331
        41 -12.1787      8.7853    145.4004   1.1722762170e+02   4.3345290708e+01    0.5343396     0.321488 -31.37   0.00284797    2.223    0.550
        42 -11.6572    148.5114    140.9997   7.7817335043e+01   2.3873713207e+01    0.2480475    0.1517114 -46.45  0.001042546    1.622    0.383
        43 -10.4387     62.6059    138.5233   1.0095706088e+02   3.9625552972e+01    0.1428902     0.128405 -65.89 9.187849e-05    1.022    0.022
        44 -12.3938     40.4874    136.6339   1.0717390439e+02   4.2721138047e+01    0.2977777    0.2192741  64.10   0.00161739    1.506    0.336
        45 -11.7498    133.6528    132.3403   7.9504899560e+01   2.8871079937e+01    0.2479769    0.1956911  85.72  0.001120153    1.686    0.407
        46 -13.9456    107.3997    121.4626   8.4028868111e+01   3.6578525261e+01      1.42336     1.128539  24.96  0.006923269    1.378    0.274
        47 -13.4481     81.3300    114.8623   9.0265308246e+01   4.2715714879e+01      1.05679    0.8007005  36.73  0.005313847    1.389    0.280
        48 -14.7208    106.0650    105.0555   8.0182773101e+01   4.0597023070e+01     1.794576     1.296589  29.58  0.008386047    1.491    0.329
        49 -11.2455     65.2282    126.5403   9.7872473806e+01   4.2256006205e+01     0.281156    0.2262311  79.64  0.001466655    1.444    0.308
        50 -10.9629     60.0562    125.3512   9.9237852106e+01   4.3239722288e+01    0.3803575    0.1832453  16.44  0.001404947    3.180    0.686
        51 -12.6660     31.5743    111.2035   1.0570020110e+02   4.9873158636e+01    0.4627842    0.2586837 -62.80  0.001250627    1.528    0.346
        52 -13.4616     29.2960    122.2461   1.0830650366e+02   4.7375864950e+01    0.7590768    0.5358958 -82.17  0.004192981    1.406    0.289
        53 -11.5839    180.8514    121.1705   6.5710306989e+01   2.1154535747e+01    0.2153715    0.1832866   6.83   0.00108312    1.355    0.262
        54 -12.9478     28.4637    246.1370   1.2073525757e+02   1.9129526360e+01    0.4468291    0.2779105  63.26  0.002967803    1.284    0.221
        55 -13.4822      6.6443     43.5125   9.9879331968e+01   6.6733726570e+01    0.7857533    0.3726321  15.80  0.004289466    2.290    0.563
        56 -13.8153     91.4255    231.8785   1.0699831256e+02   1.3929558125e+01    0.5135373    0.3080944  75.68  0.002553453    2.186    0.543
        57 -12.5307     24.4054    217.5475   1.1966552912e+02   2.5330444627e+01    0.6396399    0.4909113  43.01  0.004365278    1.336    0.251
        58 -15.0577     15.5117    108.0925   1.1047931611e+02   5.1917326663e+01     1.475148     1.180084  69.25  0.007439648    1.437    0.304
        59 -14.9288     26.1224     94.0284   1.0428452367e+02   5.4453314468e+01       1.4937     1.097785  -2.83  0.008696266    1.578    0.366
        60 -12.0345      4.1429    119.9601   1.1571378927e+02   4.9793306634e+01    0.4478665    0.1892942  17.24  0.002124503    2.926    0.658
        61 -11.9903    120.6822    112.0857   7.7882873554e+01   3.6104319671e+01    0.3476214     0.196674  59.48  0.001277906    2.469    0.595
        62 -12.1584     62.0423    109.1383   9.5140314879e+01   4.6939435712e+01    0.5303329    0.4105621 -78.32  0.002745693    1.489    0.328
        63 -11.8949     33.6706    104.5368   1.0373818439e+02   5.1290491381e+01      0.36156    0.2187013 -46.65  0.001682077    1.470    0.320
        64 -12.5368    136.1693    103.4615   7.1430238531e+01   3.4673334436e+01      0.57782    0.3226559  49.85  0.001688643    1.854    0.461
        65 -13.1794     94.2166    110.1617   8.5099040459e+01   4.1640802436e+01    0.9020751    0.6724031  40.71  0.003972786    1.394    0.283
        66 -11.8267     42.7747     91.0452   9.7577742387e+01   5.3553349325e+01    0.4941301    0.2859743 -71.76  0.001344655    2.139    0.532
        67 -11.9638     46.8502     99.7153   9.8150975130e+01   5.1074637034e+01    0.4888713    0.3933748  75.43  0.002692876    1.582    0.368
        68 -11.5986     52.5547     98.1232   9.5785390058e+01   5.0775939525e+01    0.3805919    0.1855933 -34.58  0.001527097    2.448    0.591
        69 -12.5870     49.0274     94.0233   9.6042638830e+01   5.2156068142e+01    0.4921512     0.442169 -74.26  0.002936932    1.232    0.188
        70 -12.3014     61.1077     97.9227   9.2764391878e+01   4.9718346138e+01    0.3874054    0.2982346  84.01  0.001909721    1.808    0.447
        71 -11.6477    163.7256     98.0271   6.3428971317e+01   2.9537587575e+01    0.2198069    0.1994738 -42.16 0.0004665109    1.083    0.077
        72 -10.6060     67.3745     97.7944   9.0582823383e+01   4.8867912822e+01    0.2164982    0.1199032 -44.08 0.0009502628    1.687    0.407
        73 -12.2526    136.3027     95.4395   6.9169219714e+01   3.6293671469e+01    0.3762224    0.2894989  45.35  0.001021926    1.303    0.233
        74 -12.2003    126.5461     93.5031   7.1162778112e+01   3.8839811976e+01    0.6714815    0.3999737 -68.11  0.002341435    3.070    0.674
        75 -11.8006     90.1253     88.5133   8.0437282610e+01   4.7215754606e+01    0.4310592    0.3215354  45.57  0.002137408    1.437    0.304
        76 -12.5250    187.9319     84.5783   5.5107375253e+01   2.6406085102e+01    0.4934646    0.2429241  43.02  0.001767432    2.390    0.582
        77 -12.2187     24.5408     59.8715   9.6573467834e+01   6.2141484567e+01    0.4054964     0.255718 -44.33  0.001511218    1.307    0.235
        78 -13.0799     14.0652    223.1391   1.2206735484e+02   2.5201843407e+01    0.4194182    0.2319449  77.08  0.002069347    1.576    0.365
        79 -13.3577     91.5132     58.3650   7.0320828822e+01   5.2797491407e+01    0.5278147    0.4618083 -38.40   0.00300361    1.215    0.177
        80 -12.2349     31.4068     63.1327   9.4604998674e+01   6.0838536802e+01    0.5761518    0.3228298 -64.84  0.002779488    2.217    0.549
        81 -12.4030     47.2649     81.8606   9.3576346452e+01   5.5123072696e+01    0.7593359    0.3111942 -48.73  0.003200329    2.091    0.522
        82 -11.7268     41.4993     78.2333   9.4795813811e+01   5.6578370269e+01    0.5836679    0.3040598 -42.72  0.002795575    1.696    0.410
        83 -12.9092     72.2920     75.0476   8.2382867536e+01   5.3087288867e+01    0.9605091    0.5432373  22.05  0.004177008    2.152    0.535
        84 -12.1562     81.0677     69.7488   7.7629402266e+01   5.2662096432e+01    0.4475443     0.365524  44.00  0.002437424    1.331    0.249
        85 -12.6543     87.4899     65.5080   7.4066744588e+01   5.2295305357e+01    0.5303949    0.3544124  -8.39  0.001941456    1.980    0.495
        86 -10.8380     40.8704     67.4396   9.1983496695e+01   5.8955913627e+01     1.287179    0.8006195  20.60  0.006845172    1.731    0.422
        87 -13.0615     52.4265     70.0802   8.8210835335e+01   5.7006961061e+01    0.7399639    0.6318123 -66.19  0.004339144    1.440    0.306
        88 -12.9023     54.7464     81.9911   9.0820478904e+01   5.4166528568e+01    0.5662717    0.4087646 -38.08  0.002180933    1.259    0.206
        89 -14.0944     60.9527     75.6941   8.6692254667e+01   5.4673517696e+01    0.8863897    0.4651248 -44.40  0.001570033    1.744    0.426
        90 -13.0834    163.9266     71.5990   5.6132328718e+01   3.4264660988e+01     1.162621    0.3843838  52.27  0.003931207    2.889    0.654
        91 -13.5449    161.0557     80.6790   5.9259182012e+01   3.3379803224e+01     1.468715    0.6734857  38.17  0.005087362    2.929    0.659
        92 -13.9829    169.6055     77.4130   5.6624946640e+01   3.1928493916e+01     1.338791     0.506092  51.02  0.004789113    2.599    0.615
        93 -12.1476    216.5291     81.4583   4.9730391151e+01   2.0537412945e+01    0.3090877     0.181601 -49.27  0.001122659    1.604    0.377
        94 -12.5270    135.3304     79.8573   6.4900535408e+01   3.9535023401e+01    0.6968765    0.3719388  51.45  0.002805037    1.875    0.467
        95 -11.9547    114.3262     80.1213   7.0559071156e+01   4.4137643245e+01    0.4132791    0.3161104 -56.57 0.0007896989    1.499    0.333
        96 -11.1842     27.5177     76.5145   9.9813967453e+01   5.8330918865e+01    0.2357627     0.201872 -39.68  0.001182384    1.030    0.029
        97 -12.8514    199.6466     69.8673   4.9437876647e+01   2.6148818098e+01     0.606621    0.3398546  53.70  0.002032543    1.843    0.457
        98 -12.8317    134.0121     67.0486   6.1342880776e+01   4.2113377842e+01    0.7757917    0.4928075  25.41  0.001670343    2.139    0.532
        99 -10.5268     99.4486     65.2304   7.0176899479e+01   5.0010380327e+01      0.20262    0.1360041 -49.57 0.0009473855    1.688    0.408
       100 -10.2784     98.3103     84.3056   7.6594923103e+01   4.6562971696e+01    0.1517777    0.1150523  -3.26 0.0003606232    1.613    0.380
       101 -11.3976    200.9705     63.3339   4.7614261114e+01   2.6857810859e+01    0.2309689    0.1671869 -86.12  0.001185955    1.540    0.351
       102 -13.3792    177.7475     57.8537   4.9818847035e+01   3.3133638096e+01    0.7617946    0.5441216 -55.62  0.002518844    1.446    0.308
       103 -13.6419     81.0392     57.1396   7.3353346750e+01   5.4991364675e+01     0.909036    0.6008869 -21.03   0.00421508    1.659    0.397
       104 -14.3461    119.8726     54.6681   6.0907015723e+01   4.7376792003e+01    0.8375891    0.5505089  37.07  0.003093227    1.553    0.356
       105 -10.7620     47.2753     56.6008   8.5913761684e+01   6.0354440165e+01     0.187131    0.1600131  68.09  0.001089092    1.792    0.442
       106 -11.9937    109.6864     53.9862   6.3393472338e+01   4.9748820582e+01    0.3522555    0.2560876 -21.12    0.0017804    1.493    0.330
       107 -13.4798    103.2836     50.7293   6.4076488937e+01   5.1637911590e+01    0.8934152    0.5687999 -56.28  0.001052455    2.236    0.553
       108 -12.8429     97.8394     50.8010   6.5703013935e+01   5.2768613087e+01    0.5470542    0.3371718 -48.57  0.002038272    1.966    0.491
       109 -10.9000     36.6611     53.7058   8.9404323057e+01   6.2175786823e+01    0.1352038   0.08515501 -18.72 0.0007028807    1.652    0.395
       110 -12.0332    135.8684     50.0830   5.5602815593e+01   4.4353150379e+01    0.4574008    0.2627357  37.12  0.001346819    1.973    0.493
       111 -10.5198     23.4716     50.4166   9.4160284785e+01   6.4126619143e+01    0.1263416   0.09915563 -26.83 0.0001577364    1.045    0.043
       112 -10.3233     33.4766     49.5353   8.9382421695e+01   6.3316910491e+01     0.129548    0.1038507 -21.89 9.510989e-06    1.039    0.037
       113 -12.3630    159.0310     43.4228   4.8988434822e+01   3.9707336720e+01    0.4393054    0.3092326  57.92  0.001501041    1.329    0.247
       114 -13.4893    217.7706     42.2270   4.0408671581e+01   2.6072356059e+01     1.019005    0.3410181  61.66  0.003860701    2.853    0.649
       115 -13.0064    205.2342     40.3210   4.1413025566e+01   2.9137670946e+01    0.5776378    0.2925322 -84.40  0.002344828    2.883    0.653
       116 -12.1858    109.6427     42.1157   5.9292258024e+01   5.1524871605e+01    0.4607812    0.1919318  53.69  0.001323098    2.293    0.564
       117 -13.5012     26.1473    226.7085   1.1994340056e+02   2.3234952197e+01    0.7295599    0.3439958 -58.06  0.003885996    2.422    0.587
       118 -13.3950     20.0490    225.3355   1.2104352668e+02   2.4151766010e+01    0.4250076    0.3913614 -63.42  0.002823308    1.444    0.307
       119 -12.4940    113.7972     38.1285   5.6824218817e+01   5.1136382472e+01    0.3707077    0.3218587  -6.52  0.001140312    1.217    0.178
       120 -10.9766     55.4340     41.0548   7.6883293296e+01   6.1974386533e+01    0.1851164    0.1546126   8.38 0.0003766202    1.077    0.072
       121 -11.5497    104.5872     36.5064   5.8639023069e+01   5.3398155568e+01    0.3538076    0.1327187 -30.96  0.001368291    2.835    0.647
       122 -12.5146     76.0522     37.2735   6.7664107998e+01   5.9081944426e+01    0.4116373    0.2360524  42.37 0.0009817028    1.657    0.397
       123 -12.2958     69.4355     36.5616   6.9724929147e+01   6.0379122681e+01    0.4375706    0.2476958  27.47  0.001311093    1.842    0.457
       124 -12.2660    241.7929     36.2418   3.6693623989e+01   2.1753217964e+01    0.4526215    0.2259081  73.66  0.002365952    2.065    0.516
       125 -13.4936     65.3130    223.3901   1.1165090399e+02   1.9272583542e+01    0.9342443    0.5964987  44.65  0.005372955    1.381    0.276
       126 -10.9907     28.9256     34.7251   8.6037084690e+01   6.6460343207e+01    0.2620542    0.2004269  67.40  0.001411205    2.896    0.655
       127 -13.8480     64.1268    214.7771   1.1103835094e+02   2.1258357551e+01    0.7427694    0.4355815  42.75  0.004007038    1.535    0.349
       128 -12.2129    171.5088     28.4834   4.2785547828e+01   3.8559174483e+01    0.3109123    0.2574114 -29.87  0.001087019    1.349    0.259
       129 -11.4112     94.2469    218.3752   1.0479504702e+02   1.6257398387e+01    0.1962903    0.1060448  45.18 0.0009497468    1.652    0.395
       130 -12.7822    138.9527     21.9463   4.6049738730e+01   4.7154316560e+01    0.5410558    0.2612002  57.29  0.001488395    1.780    0.438
       131 -11.5299    249.0397    216.0364   7.2641956112e+01  -7.3951448533e+00    0.1621774    0.1563303 -49.45   0.00114775    1.725    0.420
       132 -11.3191    200.4996    214.9785   8.1400456724e+01  -2.3459435271e-01    0.1937423     0.123262 -36.73  0.001036508    1.600    0.375
       133 -12.8383      4.9119    211.2492   1.2315964447e+02   2.8547678418e+01    0.4402429    0.2192321 -87.07  0.002521347    1.719    0.418
       134 -12.9244     55.6248     27.3300   7.1172012203e+01   6.4014306970e+01    0.6040992    0.2886733  42.82  0.002548709    2.122    0.529
       135 -11.0690     64.2103     24.6297   6.6704502584e+01   6.2936787689e+01    0.2576511    0.1498188  15.37  0.001097125    2.058    0.514
       136 -11.0604     97.9093     27.1401   5.6976915123e+01   5.6016677968e+01    0.1982839    0.1823482  71.26  0.001225694    1.275    0.216
       137 -11.9580     72.3877    207.2819   1.0837384542e+02   2.1785363841e+01    0.3660825    0.2894832  80.41    0.0021748    1.219    0.179
       138 -11.6337    216.4989     28.9819   3.7522840265e+01   2.8036418145e+01    0.1896278    0.1158262 -37.65 0.0007048799    1.602    0.376
       139 -11.5995     41.3385    206.0258   1.1518508483e+02   2.5985581956e+01     0.182346    0.1432377  86.97 0.0008800938    1.117    0.105
       140 -11.3224    224.4842     21.0624   3.5016612547e+01   2.7233597856e+01    0.3071845    0.1429763  60.98  0.001547905    2.164    0.538
       141 -11.0117    185.5003    203.5050   8.2371907822e+01   4.1586415535e+00    0.1374078    0.1224222   8.52 0.0001536217    1.013    0.012
       142 -11.5984     57.0185    203.5120   1.1144558249e+02   2.4657125331e+01     0.197583    0.1196227  36.73  0.001043629    1.622    0.384
       143 -12.3601     16.3813    197.0632   1.1987260892e+02   3.0591826611e+01    0.5199866    0.1594471 -59.74  0.002217508    3.089    0.676
       144 -12.0445    248.1792    197.0958   6.9324207037e+01  -4.5393060711e+00    0.4842832     0.224511 -43.31  0.002319623    2.319    0.569
       145 -12.0088     36.8618    195.4939   1.1521669046e+02   2.8861785294e+01    0.3092139    0.1528041 -84.91  0.001478572    2.059    0.514
       146 -13.5799     29.8043    169.1426   1.1427479639e+02   3.5799413572e+01    0.7332426    0.4759076 -41.02  0.002223567    1.922    0.480
       147 -15.4998      8.8333    179.4960   1.2022517234e+02   3.5257856887e+01     1.870968     1.141615 -74.12   0.01039933    1.385    0.278
       148 -11.2655    200.5163    191.9920   7.7145179292e+01   3.6777276180e+00    0.2473578    0.1928787  49.80 0.0008895391    1.558    0.358
       149 -10.7969    122.5069    182.0024   9.2701062225e+01   1.9600823144e+01    0.2060363    0.1309911 -83.48 0.0008105824    2.580    0.612
       150 -11.2291     49.0261    181.5514   1.1089913069e+02   3.0726260248e+01    0.2709562    0.1655115 -55.40  0.001398024    1.662    0.398
       151 -12.8803     40.5838    195.2902   1.1435137553e+02   2.8493699364e+01    0.4266551    0.2182499 -88.12  0.002036685    2.077    0.519
       152 -12.4660    124.2121    166.9258   8.9465968512e+01   2.2727613117e+01    0.6293001    0.4166017 -69.99  0.002744229    1.907    0.476
