#   1 NUMBER                 Running object number                                     
#   2 MAG_AUTO               Kron-like elliptical aperture magnitude                    [mag]
#   3 X_IMAGE                Object position along x                                    [pixel]
#   4 Y_IMAGE                Object position along y                                    [pixel]
#   5 X_WORLD                Barycenter position along world x axis                     [deg]
#   6 Y_WORLD                Barycenter position along world y axis                     [deg]
#   7 A_WORLD                Profile RMS along major axis (world units)                 [deg]
#   8 B_WORLD                Profile RMS along minor axis (world units)                 [deg]
#   9 THETA_WORLD            Position angle (CCW/world-x)                               [deg]
#  10 FWHM_WORLD             FWHM assuming a gaussian core                              [deg]
#  11 ELONGATION             A_IMAGE/B_IMAGE                                           
#  12 ELLIPTICITY            1 - B_IMAGE/A_IMAGE                                       
         1  -8.1024     19.5935     21.7386   1.0326558670e+02   6.9542028792e+01    0.1572404    0.0980778 -59.25 0.0005879583    1.569    0.363
         2  -9.0969     74.1395     19.7528   7.8610252689e+01   6.2664750934e+01    0.3296728      0.20216 -48.23  0.001033905    2.005    0.501
         3  -8.4075     38.8035     17.7003   9.2237985329e+01   6.8334697976e+01    0.3117399    0.1264488 -44.81  0.001461565    2.142    0.533
         4  -8.6446     55.6606      9.9077   8.0937730045e+01   6.7227595139e+01    0.2183862     0.176395 -50.20 0.0008133529    1.624    0.384
         5  -7.9145     47.5501     10.0671   8.4516781254e+01   6.8421370839e+01    0.1664772    0.1001043 -53.79 0.0008080759    2.539    0.606
         6  -7.8776     27.7845      9.9899   9.3996532589e+01   7.0894700739e+01    0.1578438    0.0798514 -43.06 0.0004439749    1.644    0.392
         7  -8.3262     90.9612      9.2239   6.8124849611e+01   6.0756016870e+01    0.1892001     0.140491 -43.62 0.0005073896    1.580    0.367
         8  -8.1454     12.6153      8.8111   1.0160621670e+02   7.2490048876e+01    0.1532607   0.09373271 -57.36 0.0005093949    1.661    0.398
         9  -7.8452    101.3822      8.2375   6.4756577187e+01   5.8588736987e+01     0.183522    0.1210311 -32.23 0.0002919341    1.558    0.358
        10  -8.5969     33.6464      5.1509   8.8535447191e+01   7.1012362453e+01    0.2541814    0.1831959 -58.79  0.001486693    2.171    0.539
        11  -8.4776     79.1863      4.5711   6.9481845970e+01   6.3714004269e+01    0.2287083     0.159309 -29.61  0.001269683    1.430    0.301
        12  -7.9141     44.4194      3.1758   8.2266318493e+01   6.9876322868e+01    0.1691612    0.1017606 -40.53 0.0009172108    1.706    0.414
        13  -7.4969    115.2923      2.3013   5.8754835920e+01   5.5937047650e+01    0.1461834   0.09413822  30.06  0.000212781    1.569    0.362
        14  -8.3124     62.4436      1.7366   7.3888291795e+01   6.7184129620e+01    0.2081113    0.1703024  68.93 0.0007769362    1.840    0.457
        15  -7.4838     39.4428      1.4710   8.3657370529e+01   7.0812588482e+01    0.1213888   0.09747812 -14.21 9.890347e-05    1.021    0.020
        16  -8.9539    120.1473    245.3012   1.1507294238e+02   1.2266855754e+01    0.2492495    0.1561265  76.32  0.001561428    2.059    0.514
        17  -9.5116    211.1796    246.9490   1.0028506822e+02  -1.3856236264e+00    0.2564308    0.1952749 -54.20  0.001239295    2.334    0.572
        18  -8.5598     93.7977    249.3110   1.1975099566e+02   1.5331328788e+01    0.2128022    0.1185327  82.08  0.001353652    2.300    0.565
        19  -7.5955     86.2798    250.6493   1.2106459403e+02   1.6123991179e+01    0.1058144   0.05775465  64.07 0.0003918708    1.647    0.393
        20  -9.3778     10.5231    245.3775   1.3253052876e+02   2.5419705374e+01    0.3095331   0.07372336  64.22  0.001561051    3.591    0.722
        21  -9.3931     77.3526    242.8540   1.2196078495e+02   1.8396939214e+01    0.1907069    0.1108963  79.04  0.001146885    1.803    0.445
        22  -8.0559     58.4962    244.9810   1.2514340489e+02   2.0384450707e+01    0.1419916   0.06186439  74.23 0.0008104767    2.600    0.615
        23  -8.2885     50.0047    244.2773   1.2644966381e+02   2.1473296030e+01     0.255387   0.09729495  83.27  0.001306884    3.649    0.726
        24  -8.5606    201.8746    243.2776   1.0129697189e+02   3.5497172443e-01    0.1925822    0.1405594 -44.72 0.0008902347    2.010    0.502
        25  -8.5821    169.2195    243.6830   1.0670748358e+02   5.2247512287e+00    0.1903827    0.1433884  61.10 0.0009003105    1.549    0.354
        26  -7.8584    139.3259    244.6506   1.1180472116e+02   9.5747055238e+00     0.111149   0.06905019  62.39 0.0007048996    1.755    0.430
        27  -9.3281    160.1565    240.3036   1.0783086430e+02   7.0060954215e+00    0.2965275    0.2081845 -88.61   0.00136605    2.541    0.607
        28  -8.0427     88.2640    242.3613   1.2012793012e+02   1.7060290944e+01    0.1667508    0.1001405  78.14 0.0008787822    1.810    0.447
        29  -9.3434    194.4630    239.7540   1.0204675320e+02   1.8431172898e+00    0.2821811    0.1865222 -37.68   0.00134971    1.994    0.499
        30  -9.4762    183.0129    239.9453   1.0396243637e+02   3.5634383307e+00    0.3524366    0.2603846  63.31  0.001911761    1.812    0.448
        31  -7.8765    153.4477    242.2277   1.0917733186e+02   7.7808371685e+00    0.1245077      0.10324 -89.21 0.0006823104    1.637    0.389
        32  -8.7500    214.0560    241.5093   9.9103050746e+01  -1.2719476414e+00    0.1685348    0.0817724  39.55 0.0005092619    1.545    0.353
        33  -9.2437    241.1029    239.0182   9.4505955577e+01  -4.9425809104e+00    0.3559657    0.1716975   2.20  0.001781586    3.376    0.704
        34  -8.2727    146.1189    239.5397   1.1011902377e+02   9.2270752334e+00    0.1732151    0.1276571  61.76 0.0006548689    1.404    0.288
        35  -8.5772    209.0945    238.6250   9.9510322105e+01  -2.4342701878e-01    0.1562937     0.149616  10.96  0.001140643    1.435    0.303
        36  -8.8552    135.5723    238.9594   1.1184998908e+02   1.0881379811e+01    0.2128633    0.1163262  53.37 0.0008999056    1.582    0.368
        37  -8.0840    129.3221    238.8521   1.1290338102e+02   1.1819897928e+01    0.1736975    0.1001407 -70.05  0.000911907    2.536    0.606
        38  -9.2579    231.0474    236.3504   9.5687326257e+01  -3.2603328953e+00    0.3046184     0.224741 -10.53  0.001460535    1.464    0.317
        39  -8.4941     25.3348    236.8513   1.2996126728e+02   2.5279294778e+01    0.1771277   0.06858296  87.72  0.001066761    2.591    0.614
        40  -9.9313    214.7079    233.1163   9.7837632633e+01  -5.2023555850e-01    0.4103929    0.3132313 -85.97  0.002325179    3.623    0.724
        41  -9.2585    203.3903    233.9973   9.9810100874e+01   1.1072813526e+00    0.3549739    0.1856822 -31.66  0.001523163    2.415    0.586
        42  -9.7616    175.7214    233.3928   1.0435965823e+02   5.4566347785e+00    0.3483208    0.2146151 -58.65  0.002103691    2.664    0.625
        43  -8.5092    170.2133    235.3368   1.0553773226e+02   6.0749749625e+00    0.2033493    0.1301197 -54.09  0.001019736    2.250    0.556
        44  -8.0168     57.9533    237.0000   1.2475143397e+02   2.1666635095e+01    0.1659072   0.04521491  39.42 0.0008060031    2.967    0.663
        45  -8.0020    153.2848    235.6582   1.0846216919e+02   8.6432056959e+00    0.1080789   0.07520268  63.42 0.0006987298    1.638    0.389
        46  -8.3549    123.0843    234.2350   1.1350798927e+02   1.3381980983e+01    0.1976601    0.1226345  74.16  0.001117087    2.088    0.521
        47  -9.3716    108.9547    234.5032   1.1597016218e+02   1.5384727020e+01    0.3827765    0.1717552  54.20   0.00187738    1.928    0.481
        48  -8.6069     99.8408    234.5262   1.1753686531e+02   1.6658608952e+01    0.2032918    0.1233057  77.96  0.001300249    1.928    0.481
        49  -9.1111     78.7444    234.4602   1.2112108203e+02   1.9489536694e+01    0.2209275    0.1250041  86.46  0.001123635    2.010    0.502
        50  -8.4955      8.3612    234.8338   1.3250032481e+02   2.7249345262e+01    0.1193669   0.06956292 -78.32 0.0009474754    1.750    0.428
        51  -8.6942     92.3599    232.0372   1.1860761013e+02   1.8060114925e+01    0.2864991    0.1460839 -89.96  0.001563641    2.914    0.657
        52  -9.3245     68.4728    232.6176   1.2271878595e+02   2.1076125524e+01    0.3551279    0.1320333  62.92  0.001755214    3.005    0.667
        53  -8.4617    194.5094    233.0278   1.0114948749e+02   2.5802833024e+00    0.1707676    0.1313512  46.86 0.0007556246    1.313    0.238
        54  -9.2388    186.5566    230.8779   1.0219660513e+02   4.0649281640e+00    0.2927749     0.220648  89.91  0.001376754    2.621    0.619
        55  -7.9952    144.7876    233.1914   1.0964292449e+02   1.0269801268e+01    0.2352521    0.1092209  57.48  0.001166151    2.596    0.615
        56  -9.8554    138.9944    231.3106   1.1043783605e+02   1.1410817838e+01    0.2439756    0.2031842  30.35  0.001085149    1.293    0.227
        57  -8.4087    132.6687    232.7018   1.1168921066e+02   1.2174254378e+01     0.189589    0.1236664  84.18  0.001148744    2.287    0.563
        58  -9.0418    235.9751    230.9644   9.4126519374e+01  -3.4674921899e+00    0.1801378    0.1370274  -8.49 0.0005971694    1.383    0.277
        59  -8.6899      1.9938    231.1759   1.3335005325e+02   2.8409341968e+01    0.1828673   0.07705671  56.91  0.001165312    1.593    0.372
        60  -9.9642    149.7522    226.2825   1.0797254192e+02   1.0441644231e+01    0.5007712    0.3064589  89.84  0.002404158    3.839    0.740
        61  -8.0231    229.9835    229.0067   9.4784654500e+01  -2.3961376025e+00    0.1469362    0.1295426  51.73 0.0006130899    1.675    0.403
        62  -8.9803      8.7293    228.9592   1.3223822573e+02   2.8149719923e+01    0.1860224   0.03607672  58.10  0.000882333    3.580    0.721
        63  -8.5555    162.1998    228.0836   1.0601461580e+02   8.2436639566e+00    0.2196019    0.1240096  58.09 0.0009738216    2.075    0.518
        64  -8.8329    128.0204    227.3498   1.1192881825e+02   1.3637758799e+01    0.2493921    0.1610595  73.17  0.001129125    1.950    0.487
        65  -8.2225    119.9174    227.5870   1.1338395814e+02   1.4814831130e+01    0.2008128    0.1340408  84.19  0.001090867    1.934    0.483
        66  -8.3413    215.0043    227.3412   9.6961483059e+01   3.8711774368e-02    0.1637282    0.1113756  33.88 0.0005028537    1.124    0.110
        67  -8.7907    206.1037    226.0716   9.8248548681e+01   1.5550241778e+00     0.250233    0.1601096 -31.97  0.001642045    1.916    0.478
        68  -8.2398     49.0084    226.7207   1.2560675897e+02   2.4344623802e+01    0.1866943    0.1014277  77.78  0.001258765    1.694    0.410
        69  -8.4662    200.2997    225.5416   9.9143986291e+01   2.5246062652e+00    0.2373017    0.1382047 -28.71  0.001112451    2.140    0.533
        70  -9.0697     94.4878    224.5672   1.1758653153e+02   1.8929097869e+01    0.3832671    0.1549911  59.10  0.001872086    2.682    0.627
        71  -8.0252     78.4650    225.9756   1.2051583893e+02   2.0858899092e+01    0.1487177   0.07424042  77.29 0.0008090752    2.508    0.601
        72  -8.7671    216.4589    223.5135   9.6159733402e+01   2.2274168719e-01    0.2148317    0.1891279  73.08   0.00119526    1.877    0.467
        73  -8.9627    180.3750    224.0010   1.0232836754e+02   5.8753404264e+00     0.212387     0.190353 -27.94 0.0006397384    1.406    0.289
        74  -8.8374    104.8167    223.7864   1.1568102809e+02   1.7595410925e+01    0.2834076     0.170278  80.24  0.001405621    2.115    0.527
        75  -8.5911    173.0099    223.0380   1.0347852439e+02   7.1780828337e+00     0.212194    0.1703213 -58.27 0.0006451491    1.727    0.421
        76  -7.8708    113.9511    223.9549   1.1406975255e+02   1.6242189242e+01    0.1798532    0.1097345  64.51 0.0009027316    1.670    0.401
        77  -7.8193     38.2939    224.6315   1.2727811668e+02   2.5881907226e+01    0.1110473   0.05274717  65.47 0.0007027912    1.721    0.419
        78  -8.4510    162.6565    222.3309   1.0520370194e+02   8.9322247689e+00    0.2135818    0.1533003  82.11  0.001100959    2.261    0.558
        79  -8.5004    159.1330    220.6993   1.0561729294e+02   9.7184407730e+00    0.2337493    0.1496086  55.92 0.0007541885    1.577    0.366
        80  -8.9891    239.0658    221.6557   9.2225791407e+01  -3.0249331370e+00    0.1779443    0.1767215  30.43 0.0009037302    1.699    0.412
        81  -9.2000    225.6088    221.8818   9.4418117249e+01  -1.0152269294e+00    0.2262888    0.1577914  50.36  0.001156581    1.733    0.423
        82  -9.3299    192.4314    221.4494   9.9897238897e+01   4.2544239524e+00    0.2412329    0.2004867  67.36  0.001183996    1.677    0.404
        83  -8.5963    193.1365    216.1061   9.9002932203e+01   4.7897909271e+00    0.2104613    0.1500191  26.23 0.0002759135    1.239    0.193
        84  -8.8492     82.6505    220.6014   1.1933946091e+02   2.1175979320e+01    0.2262256    0.1158978  67.39  0.001293988    2.052    0.513
        85  -8.2697     72.9969    220.6950   1.2105744069e+02   2.2423742819e+01    0.2209613    0.1040343  75.54  0.001151268    2.715    0.632
        86  -7.7101     27.5630    221.2697   1.2888661876e+02   2.7572069794e+01      0.12635   0.07981936 -74.15 0.0009537952    1.686    0.407
        87  -8.4471    210.1702    219.5644   9.6614654052e+01   1.6423790151e+00     0.163572    0.1518628 -18.82  0.000717802    1.407    0.289
        88  -7.7555    202.7677    220.5573   9.8007979941e+01   2.7057353319e+00     0.157732   0.09222548  46.96 0.0009299407    1.588    0.370
        89  -8.6376    248.7316    218.2161   9.0167409223e+01  -4.1193480311e+00    0.3250481    0.2010806  59.68  0.001626422    3.753    0.734
        90  -9.3264    133.0647    216.2320   1.0976492759e+02   1.4510514673e+01    0.3971577    0.2243136  70.62  0.001973241    2.790    0.642
        91  -8.6565     62.3320    217.6548   1.2270886524e+02   2.4268012123e+01    0.2750784    0.1224894  62.02  0.001542885    2.066    0.516
        92  -8.8205     51.6825    217.4161   1.2456074136e+02   2.5581178210e+01    0.2328347    0.1190659  87.33  0.001451044    1.991    0.498
        93  -8.7620    169.3520    216.0677   1.0318059932e+02   8.6896693757e+00    0.2443709    0.1846457 -86.18 0.0009599989    2.170    0.539
        94  -8.8911    142.6388    216.7351   1.0808176718e+02   1.2921951683e+01     0.260235    0.1755937  52.32  0.001298322    1.276    0.216
        95  -7.9197    111.7989    217.5530   1.1379477262e+02   1.7554445917e+01    0.1686247   0.08301093  51.38 0.0009338129    1.678    0.404
        96  -8.1075     18.6721    215.4918   1.3009111062e+02   2.9432697778e+01    0.1676574   0.07535981 -82.44  0.001093365    2.013    0.503
        97  -8.6905    232.1701    214.8261   9.2256645239e+01  -1.2889559109e+00    0.1918416    0.1839259  15.57 0.0008629229    1.492    0.330
        98  -8.5516    185.7676    214.4604   1.0004718282e+02   6.2032229996e+00    0.1892759    0.1579275 -71.27 0.0008963624    1.832    0.454
        99  -8.1497    154.5989    215.2672   1.0572519176e+02   1.1209282131e+01    0.1763162    0.1251206  67.89  0.000827127    1.745    0.427
       100  -9.0155     93.1661    214.1672   1.1686061969e+02   2.0794905351e+01     0.323895     0.142056  60.91   0.00127359    2.533    0.605
       101  -7.7345     41.3366    215.6411   1.2624607841e+02   2.7056332414e+01     0.117013   0.05449799  64.39 0.0007039343    1.812    0.448
       102  -9.6066    214.1689    212.3877   9.4844607280e+01   1.8180257071e+00    0.3322206    0.2469966  57.77  0.001603244    1.843    0.457
       103  -9.3082    120.4762    219.4078   1.1241697361e+02   1.5965465436e+01    0.3500692    0.1905138  71.13  0.001761846    2.767    0.639
       104  -9.5553     73.1252    211.8724   1.2031986445e+02   2.3888590516e+01    0.5656145     0.199011  61.38  0.002369586    3.705    0.730
       105  -8.0236    224.7569    212.8698   9.3156858863e+01   7.6427929304e-02    0.1508102    0.1359033 -66.99 0.0008735835    1.916    0.478
       106  -8.5832    161.6866    212.3081   1.0404427832e+02   1.0468423767e+01      0.19627     0.155723  57.59 0.0006830083    1.296    0.228
       107  -8.3942    106.4191    212.7607   1.1427860225e+02   1.9119197476e+01    0.1807805    0.1096725 -71.81 0.0008569962    1.974    0.493
       108  -9.0226    204.3248    210.8362   9.6277479650e+01   3.6001709475e+00    0.2444472    0.2017914 -51.46 0.0009991925    1.761    0.432
       109  -9.4681    175.3907    210.0760   1.0125421880e+02   8.5013071159e+00    0.3360219    0.2472464  86.81   0.00137289    2.417    0.586
       110  -8.5522      8.4729    211.9775   1.3163624401e+02   3.0991233121e+01    0.2171845   0.07456998  72.34  0.001191226    2.640    0.621
       111  -8.7601      5.6281    207.8575   1.3194611554e+02   3.1955972545e+01    0.1944547   0.08458911  78.61  0.001009237    1.887    0.470
       112  -8.7579    148.0690    210.6332   1.0631059614e+02   1.2947573631e+01    0.2326722    0.1661855  73.88   0.00100146    1.825    0.452
       113  -9.2135    116.1861    210.4183   1.1220798648e+02   1.8034634991e+01    0.2674904    0.1658893  72.10  0.001030883    1.946    0.486
       114  -8.9187     85.6845    209.7024   1.1781772679e+02   2.2583837983e+01    0.3360368    0.1673572  70.60   0.00160593    2.492    0.599
       115  -7.8954     32.3247    210.6585   1.2751973867e+02   2.8885090940e+01    0.1145007   0.05400065  64.49 0.0007051036    1.731    0.422
       116  -8.9721    236.5613    208.5716   9.0536205637e+01  -1.3129473212e+00    0.2172009    0.1950543  56.14 0.0008471695    1.704    0.413
       117  -8.5239    139.2467    208.2197   1.0763364602e+02   1.4748744014e+01      0.23261    0.1469757  67.98 0.0007818934    2.015    0.504
       118  -7.9457    126.5531    208.7765   1.1007735830e+02   1.6690431490e+01    0.1456373     0.108941 -86.44 0.0009289277    1.633    0.388
       119  -7.6654     46.3356    209.6562   1.2498962095e+02   2.7530318223e+01    0.1182774   0.05772312  64.62 -8.009042e-05    1.766    0.434
       120  -9.1660    242.9788    201.0003   8.8235554375e+01  -1.5136757779e+00    0.2418375    0.1740688 -29.86 0.0008057674    1.634    0.388
       121  -9.3464    246.3385    207.4831   8.8793999915e+01  -2.7052124460e+00    0.2067249    0.1790082  -7.92 0.0006216363    1.354    0.261
       122  -9.7921    249.3991    202.5357   8.7477952406e+01  -2.6677090630e+00    0.3716505    0.2439413  11.19  0.001609674    1.359    0.264
       123  -7.8792    156.4341    208.2558   1.0444892599e+02   1.1920054614e+01    0.1415032    0.1173098 -73.41 0.0007226171    1.577    0.366
       124  -9.2870     99.4507    206.2574   1.1489725403e+02   2.1222938664e+01    0.3398155    0.1937168  76.12  0.001521053    2.242    0.554
       125  -8.5114     56.4763    205.5051   1.2285978909e+02   2.7077324598e+01     0.247793    0.1089562  65.38 0.0009469279    2.290    0.563
       126  -8.2019    192.4696    210.9583   9.8353154208e+01   5.5408501210e+00     0.150296    0.1187411 -34.63    0.0010106    1.549    0.354
       127  -9.1058    194.7714    203.7626   9.6839035347e+01   6.0748159787e+00    0.3634927    0.2207005  58.30  0.001909902    2.216    0.549
       128  -9.2722    192.5421    197.5546   9.6244971599e+01   7.2738026771e+00    0.3702535    0.2879022 -82.66  0.001413934    2.325    0.570
       129  -8.8756    183.8271    204.0932   9.8844471906e+01   7.8887612748e+00    0.2772542    0.1917299  64.64 0.0009685577    2.034    0.508
       130  -8.7629    131.4062    204.3442   1.0861346961e+02   1.6625206840e+01    0.2623454    0.1548196  69.28 0.0009785835    2.338    0.572
       131  -8.3323    109.0378    205.0856   1.1295271021e+02   1.9998603318e+01      0.18925     0.147777 -75.61 0.0007900679    1.431    0.301
       132  -7.6847     92.5977    205.3078   1.1609481866e+02   2.2371455564e+01     0.128508   0.06980858  63.49 0.0006993203    1.854    0.461
       133  -8.0712    238.6804    203.8683   8.9412647810e+01  -1.1450052857e+00    0.1945557    0.1133069  40.47  0.001163275    1.520    0.342
       134  -9.6339    164.0555    203.2298   1.0232875098e+02   1.1374231950e+01    0.4161343    0.2132798  55.01  0.001119609    2.165    0.538
       135  -7.9476     17.6842    203.9557   1.2971578606e+02   3.1528868127e+01    0.1929768   0.04882804  58.36 0.0008935279    3.323    0.699
       136  -8.3854    210.9863    202.2508   9.3764974625e+01   3.5355367318e+00    0.1820754    0.1704126 -82.43 0.0007120379    1.634    0.388
       137  -8.3936     48.8161    202.4643   1.2404433751e+02   2.8520504145e+01    0.2107928   0.09725471  75.80  0.001140587    2.327    0.570
       138  -7.8828     41.3233    203.0121   1.2545282809e+02   2.9266814128e+01    0.1733099    0.0627138  80.20 0.0007038731    4.212    0.763
       139  -8.1311    221.9845    201.9156   9.1838180239e+01   1.7542573217e+00    0.1636985    0.1460399  68.43 0.0007600352    1.728    0.421
       140  -8.9014    140.3929    201.1528   1.0648643716e+02   1.5666429724e+01    0.2642359    0.1822211  78.89  0.001075941    2.009    0.502
       141  -8.6649     79.8378    201.2094   1.1811631898e+02   2.4859435757e+01    0.3032609    0.1480623  71.51  0.001500422    2.601    0.616
       142  -8.8601    237.0889    198.7235   8.8797144689e+01  -3.3493664656e-01    0.2217224    0.1577423 -39.91  0.001079808    1.908    0.476
       143  -9.3713    149.6004    198.6985   1.0439186878e+02   1.4510824448e+01    0.3394853    0.2344082  84.10  0.001117649    2.273    0.560
       144  -8.9539    124.0074    199.4069   1.0940288180e+02   1.8620645284e+01    0.2650588    0.1768555  84.31  0.001377858    2.014    0.503
       145  -9.2728    112.8974    198.5746   1.1145326234e+02   2.0512326528e+01    0.3884024    0.2157167  68.83  0.001587867    2.355    0.575
       146  -9.0682     88.9429    198.7233   1.1611983001e+02   2.4041819424e+01    0.3390875    0.1781383  65.18  0.001519775    2.048    0.512
       147  -8.6556    176.9581    198.9873   9.9307721222e+01   9.7729407591e+00    0.1854676    0.1742374 -67.15 0.0005451089    1.368    0.269
       148  -8.2642    202.3286    197.8447   9.4549636395e+01   5.5510546756e+00    0.2076875    0.1834992  71.45  0.001140914    1.601    0.376
       149  -9.1751     61.4949    197.1310   1.2125176517e+02   2.7972828769e+01    0.3471658    0.1645389  69.41  0.001509484    2.290    0.563
       150  -8.8240     13.0467    197.8477   1.3023440890e+02   3.3054228089e+01    0.2477838   0.08830534  63.74   0.00136921    2.375    0.579
       151  -8.7989    216.0611    195.6690   9.1793654217e+01   3.4853623866e+00    0.2114349    0.1903666 -78.60 0.0008299323    1.798    0.444
       152  -7.8637    209.5367    195.7889   9.2943025032e+01   4.5795347617e+00    0.1469943    0.1175521 -45.25 0.0009330867    1.676    0.403
       153  -8.0499    133.1485    196.1350   1.0720210437e+02   1.7677358774e+01    0.1673144    0.1303837  69.31 0.0006028262    1.345    0.257
       154  -8.0241     53.4508    196.5166   1.2273211447e+02   2.9059215798e+01      0.11422   0.08342931  68.23 0.0002006151    1.065    0.061
       155  -8.8274    224.3967    193.8713   9.0064915206e+01   2.2993192213e+00    0.2529951    0.1672067 -40.82  0.001104544    1.951    0.488
       156  -8.8741    185.2858    194.9366   9.7137365680e+01   8.8944254759e+00    0.2212314     0.183071  50.61 0.0006958545    1.256    0.204
       157  -8.8806    161.0099    194.5134   1.0160423599e+02   1.3199803335e+01    0.2695748    0.1869726  64.15  0.000929506    1.745    0.427
       158  -9.3337    245.4999    193.4459   8.6520485077e+01  -1.1008224801e+00    0.2130522    0.1948992  17.91 0.0008685883    1.358    0.264
       159  -8.2022    230.7495    194.2151   8.9060630731e+01   1.2034443550e+00    0.1618088    0.1518866 -25.28 0.0007508622    1.454    0.312
       160  -8.8282     77.0608    193.8573   1.1794206975e+02   2.6561716846e+01    0.2304382    0.1507069  73.30 0.0007130855    1.447    0.309
       161  -8.9568     43.5913    193.1075   1.2434484398e+02   3.0822768667e+01    0.3364405     0.153843  79.32  0.001799579    2.360    0.576
       162  -7.8766    204.9961    191.9684   9.3092562644e+01   5.8516583572e+00    0.1502418    0.1274812  20.32 0.0005337508    1.057    0.054
       163  -8.1495    198.8703    191.6566   9.4131218613e+01   6.9626995031e+00    0.1743547     0.148829 -33.91 0.0004645358    1.397    0.284
       164  -8.0111    178.9241    191.6004   9.7771405134e+01   1.0489006232e+01    0.1780104     0.152695 -47.10 0.0005865184    1.430    0.301
       165  -8.5386    172.2834    191.8022   9.9048003077e+01   1.1633268736e+01     0.218301    0.1822685  74.73 0.0009318176    1.534    0.348
       166  -9.2712    139.5640    190.6616   1.0518286593e+02   1.7509594482e+01    0.3400157    0.2321673  83.74  0.001060489    2.154    0.536
       167 -10.5086     92.1232    188.3918   1.1436889219e+02   2.5456961918e+01    0.8769395    0.3423902  53.50   0.00344425    2.503    0.600
       168  -9.0256    129.2859    188.7242   1.0694356559e+02   1.9568617380e+01    0.2656035    0.1878742  78.57 0.0008914094    1.755    0.430
       169  -9.8085    120.9160    186.9217   1.0837333211e+02   2.1264682054e+01    0.4697559    0.2634323 -78.45  0.002176963    2.879    0.653
       170  -8.1852    237.1348    188.5840   8.7010776225e+01   7.9812105821e-01    0.1823983    0.1519966 -19.67 0.0006094136    1.337    0.252
       171  -8.8078    216.6904    188.2408   9.0397447319e+01   4.2999446677e+00    0.2169358     0.194647  66.71 0.0007932499    1.589    0.371
       172  -8.9133    191.4240    187.5283   9.4780555525e+01   8.8473493850e+00     0.292316    0.2216788 -85.43  0.001204002    2.455    0.593
       173  -9.2622    156.0683    187.7137   1.0150842756e+02   1.5129608737e+01    0.3117397    0.2147464 -67.88 0.0009781303    2.052    0.513
       174  -8.3324    148.3724    189.2325   1.0324377398e+02   1.6231146960e+01    0.1593808    0.1201297 -67.45 0.0006547705    1.676    0.403
       175  -8.9327     34.2117    188.2069   1.2578572713e+02   3.2755412305e+01    0.2861739     0.137231  77.22  0.001291566    2.002    0.501
       176  -9.2352    109.6605    186.3705   1.1057678781e+02   2.3168582956e+01     0.342619    0.2113387  72.26  0.001275043    1.966    0.491
       177  -9.0623     54.9808    187.2560   1.2167750127e+02   3.0605923640e+01    0.3630342     0.153557  63.62  0.001685126    2.516    0.603
       178  -8.0217    230.5053    187.4945   8.7913564748e+01   2.0314571837e+00    0.1236098    0.1009251  19.82 0.0008103822    1.036    0.035
       179  -8.8019    164.8968    186.8358   9.9658940195e+01   1.3701398925e+01    0.2378318    0.1989616 -89.87  0.001078734    1.581    0.368
       180  -9.6952    247.8573    185.5365   8.4724551265e+01  -6.1081671186e-01    0.5398666    0.2298007  49.23   0.00251571    2.720    0.632
       181  -8.1865    240.5441    180.9955   8.5068907923e+01   1.1100170601e+00    0.2192592    0.1098278 -32.98 0.0008618552    2.127    0.530
       182  -8.8775    182.8699    184.6908   9.5883562178e+01   1.0793240954e+01    0.2692252    0.1852628 -48.44  0.001075592    1.805    0.446
       183  -8.8062    210.2346    184.4507   9.0853724934e+01   5.9171728597e+00    0.2028732    0.1641436 -21.22 0.0005272485    1.332    0.249
       184  -8.7946    202.7756    184.7074   9.2228605815e+01   7.2087363746e+00    0.2155186    0.1734207 -45.62 0.0007808111    1.587    0.370
       185  -8.8958    174.4363    183.8788   9.7342248970e+01   1.2441466396e+01    0.2695707     0.213255 -89.97  0.000918498    1.899    0.474
       186  -8.9415     66.4920    184.5679   1.1913590061e+02   2.9691828758e+01     0.291384    0.1608161  70.24 0.0009893873    1.846    0.458
       187  -8.2744    224.1445    183.7181   8.8306299946e+01   3.5760292036e+00    0.1885826    0.1587694 -25.62 0.0004219938    1.356    0.263
       188  -8.2142    197.0417    183.9569   9.3134573867e+01   8.3397650680e+00    0.1842255    0.1548401  74.09 0.0006864523    1.692    0.409
       189  -8.3761     19.9984    183.5135   1.2819745034e+02   3.5059255996e+01    0.2345184   0.07616457  67.81  0.001035478    3.474    0.712
       190  -8.0626      1.7827    183.7731   1.3161142662e+02   3.6617569872e+01     0.149654   0.08253424  63.39  0.001056152    1.380    0.275
       191  -8.9210     44.3080    182.3609   1.2338606592e+02   3.2778161476e+01    0.3012483    0.1501143  70.08  0.001018858    1.950    0.487
       192  -8.9855    233.9464    180.2714   8.6021743151e+01   2.3121842161e+00    0.2832172    0.2449479 -73.07  0.001484283    2.041    0.510
       193  -8.7231    231.2947    177.6039   8.5967680759e+01   3.0936467510e+00    0.2633656    0.1594325 -37.93 0.0007446696    1.932    0.482
       194  -9.1808    147.5588    180.6727   1.0208314683e+02   1.7794882277e+01    0.3021151    0.2141028  73.79 0.0009858551    1.856    0.461
       195  -7.5381     83.2988    182.6266   1.1551096750e+02   2.7802108335e+01    0.1293507   0.07790571  71.05 0.0007028383    1.747    0.427
       196  -9.4942     25.6203    179.0202   1.2683189630e+02   3.5380576948e+01    0.5398598    0.1839238  74.64  0.002210458    4.052    0.753
       197  -8.7465    137.5825    179.4088   1.0390246178e+02   1.9769305063e+01    0.2671903    0.1838258  76.92  0.001082454    1.959    0.490
       198  -9.3293    191.3821    178.4061   9.3192811973e+01   1.0160684377e+01    0.2406375    0.2130194  60.68 0.0004971014    1.346    0.257
       199  -8.1892    169.3099    178.8504   9.7478714575e+01   1.4157500923e+01    0.1870543    0.1607197 -86.46 0.0006364559    1.521    0.342
       200  -9.1106     36.1330    177.0188   1.2460327717e+02   3.4703801535e+01     0.411988    0.1676413  74.74  0.001928917    2.939    0.660
       201  -9.4441    248.2684    176.5154   8.2983665591e+01   3.4044865180e-01    0.3761218    0.2417596 -39.28  0.002167303    1.961    0.490
       202  -8.4702    250.5249    172.9051   8.1937929255e+01   3.8049340350e-01    0.1702912    0.1098747 -22.28 0.0005508958    1.503    0.335
       203  -8.7853    217.7032    177.2519   8.8229384932e+01   5.5332656829e+00      0.25655    0.1609763 -46.67  0.001348302    2.177    0.541
       204  -8.6191    205.0099    177.5563   9.0539124508e+01   7.7846245205e+00     0.220864    0.1805627 -50.16 0.0008319617    1.617    0.382
       205  -8.8579    129.1018    177.3974   1.0533591903e+02   2.1593293387e+01    0.2867155    0.1949815 -89.92  0.001228258    2.060    0.515
       206  -8.8756     89.1108    176.9523   1.1363980860e+02   2.8056783756e+01    0.2627018    0.1731307  80.69 0.0008440964    1.644    0.392
       207  -9.1921    183.1637    176.3717   9.4376429340e+01   1.1982382001e+01    0.2281701    0.2115513  85.55 0.0006708595    1.367    0.268
       208 -10.8483    101.7553    175.7789   1.1082573793e+02   2.6375520984e+01    0.4271132     0.228571  39.91            0    1.758    0.431
       209 -10.0486     57.4488    173.3345   1.1990236543e+02   3.3014920979e+01    0.7331158    0.3047161  78.21  0.002753783    4.351    0.770
       210  -8.9723     13.1360    176.9131   1.2913181522e+02   3.6949098170e+01    0.2405751   0.09437113  63.93  0.001104052    2.253    0.556
       211  -9.3551    158.8288    175.1524   9.8917324144e+01   1.6683900753e+01    0.3582759    0.2418099  74.52  0.001215664    2.287    0.563
       212 -10.7565     75.9566    170.3041   1.1564309185e+02   3.1226290016e+01     1.050342    0.4093538 -79.53  0.003758099    4.519    0.779
       213  -9.4630    175.8026    172.2029   9.5046151908e+01   1.4004260894e+01     0.332078    0.2462157 -44.86  0.001071736    1.554    0.356
       214  -8.2101    143.0023    172.9499   1.0176423705e+02   1.9942406531e+01    0.2003886    0.1505085  75.29 0.0005980166    1.626    0.385
       215  -8.4169    134.8221    172.0412   1.0331416841e+02   2.1563404173e+01     0.200393    0.1654937  72.24 0.0007095812    1.273    0.215
       216  -9.5920    121.3393    170.4108   1.0590163931e+02   2.4203312892e+01    0.3522887    0.2437089 -78.60  0.001029445    1.783    0.439
       217  -9.7006     88.9607    170.6108   1.1288009163e+02   2.9316999154e+01    0.2960301    0.1728354 -71.72  0.001595346    1.822    0.451
       218  -9.2300     44.8798    170.7175   1.2229187132e+02   3.5004275523e+01    0.3703057    0.1787269  85.04  0.001410885    2.247    0.555
       219  -8.8478    205.3891    169.4861   8.8959422832e+01   8.8448786321e+00    0.3865152    0.2392959 -58.51  0.001742704    2.966    0.663
       220  -8.4812    224.2135    174.2603   8.6540234387e+01   4.7594935176e+00    0.2020953    0.1610554 -56.07 0.0007111297    1.928    0.481
       221  -9.1038    236.4119    169.6511   8.3596992131e+01   3.1839654951e+00    0.3086894    0.1871942  40.87  0.001017013    1.523    0.343
       222  -8.9245    230.5914    169.9823   8.4634786442e+01   4.1708388050e+00    0.3093862    0.1540088  34.28  0.001168762    1.873    0.466
       223  -8.5465    198.4013    170.0855   9.0356069064e+01   1.0068580890e+01    0.2158828    0.1798285  65.34 0.0007333345    1.539    0.350
       224  -9.2515    167.3419    168.7738   9.6096575295e+01   1.6154938408e+01     0.340909    0.2346907  72.52 0.0009509584    2.176    0.540
       225  -8.8031    149.7345    169.6928   9.9830914366e+01   1.9288609219e+01     0.245609    0.1978901 -85.60 0.0007416503    1.568    0.362
       226  -8.2667    244.3302    169.1149   8.2197037740e+01   1.8743848360e+00    0.1720964    0.1402629  -9.03 0.0006013493    1.161    0.139
       227  -8.1421    211.4589    168.4430   8.7663948084e+01   7.8598089618e+00     0.217325     0.117646 -45.75 0.0007874554    2.402    0.584
       228  -8.7955    111.8208    167.6641   1.0752863121e+02   2.6321200592e+01    0.3331002     0.202464  77.53  0.001162899    2.355    0.575
       229  -8.2230    218.8479    168.2027   8.6309242846e+01   6.5272506926e+00    0.1803139    0.1720007  26.71 0.0005834933    1.250    0.200
       230  -8.9146    191.9326    166.4782   9.0881666199e+01   1.1831355007e+01    0.2614072    0.1881676 -42.20 0.0005962251    1.590    0.371
       231  -8.9347    185.0330    166.5472   9.2212163937e+01   1.3140949410e+01    0.2307733    0.1882138 -60.60 0.0006630206    1.608    0.378
       232 -10.1815     94.9377    162.9305   1.1054103576e+02   2.9947609509e+01    0.7646177    0.3901875  77.95  0.002817124    3.980    0.749
       233  -9.0640     20.6653    166.3078   1.2697117094e+02   3.8351940249e+01    0.3278981    0.1080176  58.25  0.001012521    2.911    0.656
       234  -9.9107    136.6568    164.4358   1.0167207920e+02   2.2624019361e+01    0.5715682    0.2661088  57.98  0.002144218    2.822    0.646
       235  -8.5349    233.8210    165.0752   8.3132512501e+01   4.2185109284e+00    0.1788521    0.1657881 -12.68 0.0005301487    1.264    0.209
       236  -8.7690    159.4088    164.3910   9.6906488513e+01   1.8398914083e+01    0.2692778    0.2074804  73.71 0.0007784694    1.640    0.390
       237  -9.3425     33.5172    163.5053   1.2407172109e+02   3.7673860604e+01    0.4565792    0.1519627  56.95  0.002039274    3.080    0.675
       238  -8.3181    239.8747    164.1510   8.1947262144e+01   3.2574930928e+00     0.177834    0.1648618   2.66 0.0005579764    1.237    0.191
       239  -8.4097    213.0233    163.6385   8.6446064376e+01   8.2372013366e+00    0.2063384    0.1758738 -36.74 0.0006640418    1.367    0.268
       240  -8.6361     58.1576    163.5503   1.1875137024e+02   3.4905434965e+01    0.3407317    0.1802431  21.55  0.001585313    3.266    0.694
       241  -8.6859     60.4682    160.0605   1.1785942814e+02   3.5339454973e+01    0.2734731    0.1547279  74.80 0.0009993365    1.911    0.477
       242  -9.4802    246.0577    163.0013   8.0716217791e+01   2.3143175158e+00    0.2327174    0.1664169 -12.65 0.0004881386    1.311    0.237
       243  -8.5654    204.8640    163.0647   8.7809607128e+01   9.8664961323e+00    0.1854021    0.1816747  52.69 0.0004908944    1.262    0.208
       244  -9.3104      3.2715    162.3744   1.3027367115e+02   4.0615637961e+01     0.337734    0.1254693  57.15  0.001876305    2.292    0.564
       245  -9.1044    177.4077    160.8494   9.2613121934e+01   1.5524456198e+01    0.2864073    0.2427963 -69.45 0.0007784677    1.528    0.346
       246  -8.8562    151.5858    160.9504   9.7901047737e+01   2.0487521927e+01     0.280855    0.2143655  86.02  0.001006292    1.773    0.436
       247  -8.6200    227.5146    159.3060   8.3045402861e+01   6.1201121589e+00    0.2487825     0.199185 -59.92  0.001262419    1.934    0.483
       248  -8.5089    128.0461    159.3039   1.0265713262e+02   2.5139833567e+01      0.23515    0.1793775  85.71 0.0006685918    1.570    0.363
       249  -9.7815    105.5975    157.8380   1.0740309892e+02   2.9279912213e+01    0.4767038    0.2987195  81.49  0.001139253    2.192    0.544
       250  -9.7019    250.2056    157.9134   7.9035301883e+01   2.2098634026e+00    0.2755266    0.1606184 -28.23 0.0007870566    1.666    0.400
       251  -8.5350    237.1463    159.1752   8.1399984138e+01   4.3732878838e+00    0.1656088    0.1495834 -32.60 0.0006022803    1.368    0.269
       252  -9.2492    167.6872    157.5231   9.3924684180e+01   1.7981032477e+01    0.3442466    0.2620276 -87.41  0.001111083    1.972    0.493
       253  -8.5701    196.5237    157.8784   8.8329058324e+01   1.2252838205e+01    0.2384144    0.2092441  76.55  0.001106669    1.501    0.334
       254  -8.1693    188.0594    157.8844   8.9946984740e+01   1.3913942027e+01    0.1959413    0.1842127  71.96 0.0005997875    1.272    0.214
       255  -8.1137     79.2682    158.5577   1.1345409077e+02   3.3152415535e+01    0.2284092    0.1603004  12.43  0.001020352    2.440    0.590
       256  -9.5579     81.6903    154.6564   1.1237522986e+02   3.3616418892e+01     0.484763      0.28158  78.43  0.001630897    2.202    0.546
       257  -8.3894    217.9881    156.6082   8.4151356799e+01   8.2811904486e+00    0.2362639    0.1742014 -43.43 0.0007280995    1.631    0.387
       258  -8.9855    157.6190    156.0850   9.5729215977e+01   2.0196761704e+01    0.3025878     0.231168 -69.31  0.001057198    1.685    0.406
       259  -9.4059    119.4687    155.1758   1.0385388886e+02   2.7460860267e+01    0.4052078    0.2566752 -78.59  0.001734954    2.174    0.540
       260  -9.2974     49.6801    155.3342   1.1976216542e+02   3.7616093979e+01    0.3710603    0.1789069  63.91  0.001843591    2.228    0.551
       261  -9.8351    241.9152    154.4440   7.9653942119e+01   4.1141559149e+00    0.3649223     0.235869  64.13  0.001772948    2.585    0.613
       262  -7.7631    204.6937    155.3385   8.6290391581e+01   1.1035946762e+01    0.1270338     0.110048 -83.89 0.0007041552    1.678    0.404
       263  -8.4345    144.6361    155.0783   9.8297994897e+01   2.2875407974e+01    0.2388032    0.1780914  58.82 0.0008872578    1.365    0.267
       264  -9.6547    132.8438    153.0048   1.0049286665e+02   2.5477579100e+01    0.4475727    0.2954682  75.46  0.001172227    2.156    0.536
       265  -9.1699    133.4955    148.5065   9.9517825659e+01   2.6226912380e+01    0.3609708    0.2039025 -40.94  0.001655068    2.058    0.514
       266  -9.6699     67.6860    153.3264   1.1542231880e+02   3.5823778392e+01    0.4230455    0.2295502  79.99  0.001390744    2.339    0.573
       267  -7.9196    233.1186    154.1500   8.1043677948e+01   5.7650764887e+00    0.1634855    0.1576957 -31.94 0.0004655447    1.339    0.253
       268  -8.6614    151.5182    152.5382   9.6340395051e+01   2.2021629200e+01    0.2310436    0.1326503 -58.75 0.0008099675    2.246    0.555
       269  -8.5900     20.3822    153.1079   1.2607385714e+02   4.1064320360e+01    0.1606138   0.08358409  87.71 0.0008353048    1.683    0.406
       270  -8.8357     98.4609    150.9958   1.0795869255e+02   3.1829726617e+01    0.3140337    0.2035936  84.83 0.0009682785    1.959    0.490
       271  -9.5136     29.6551    150.9967   1.2384717420e+02   4.0643223689e+01    0.3614692    0.1615739  69.52   0.00173789    2.429    0.588
       272  -9.0025      3.0541    149.8446   1.2960017158e+02   4.3154908659e+01    0.4688498    0.1348326 -76.76  0.002262904    2.723    0.633
       273  -9.4672    248.9038    149.3800   7.7487587464e+01   3.4928547727e+00    0.2996431    0.1679771 -23.77 0.0008935936    1.709    0.415
       274  -8.8230    222.5119    150.4687   8.2087683238e+01   8.2729524320e+00    0.2452976    0.2194309  11.42 0.0005214073    1.050    0.048
       275  -8.5702    223.3279    146.7245   8.1154779532e+01   8.6398976993e+00    0.1980061    0.1626872 -18.39 0.0004120943    1.194    0.162
       276  -8.8574    189.4067    150.4384   8.8174096907e+01   1.4832577717e+01    0.2617402    0.2275153 -70.48 0.0009031414    1.508    0.337
       277  -8.1180    182.4076    151.2413   8.9711923987e+01   1.6111055940e+01     0.180227    0.1320302 -50.97 0.0007020299    1.623    0.384
       278  -8.3806    162.7302    150.8719   9.3643358758e+01   2.0117204014e+01    0.2426707    0.1926286 -70.20 0.0008698916    1.610    0.379
       279  -8.8513    243.1707    149.8545   7.8499834042e+01   4.4717149178e+00    0.2244098     0.158365 -33.20   0.00114916    1.490    0.329
       280  -8.3117    212.8503    149.9827   8.3694206173e+01   1.0224207052e+01      0.18473    0.1838544 -13.75 0.0004501424    1.248    0.199
       281  -8.6118    207.2746    147.6680   8.4218396380e+01   1.1672568630e+01    0.3442275    0.2272903 -60.68  0.001553069    2.561    0.610
       282  -8.4944    198.7824    149.0427   8.6088488004e+01   1.3165557222e+01    0.1945262    0.1864139 -75.38 0.0005264181    1.300    0.231
       283 -10.2861     89.2703    146.2146   1.0936338331e+02   3.4265919040e+01    0.6353269    0.3388404 -89.56  0.002505137    3.259    0.693
       284 -10.4217     54.8325    144.1432   1.1729288565e+02   3.9394366762e+01    0.8831856    0.4056706  79.54  0.003223384    3.532    0.717
       285  -9.9873     39.5115    147.3931   1.2125916983e+02   4.0412625416e+01    0.5364321    0.2664187  81.80   0.00231707    2.229    0.551
       286  -9.1689    233.3555    147.3368   7.9579609267e+01   6.6293301880e+00    0.2828122    0.1667666 -24.13  0.001072408    1.689    0.408
       287  -8.6577    150.3701    136.6070   9.3369420987e+01   2.5223299594e+01    0.4852722    0.2764342  20.73  0.001730771    3.362    0.703
       288  -9.0414     78.3520    147.4723   1.1214073178e+02   3.5607049821e+01    0.2891799    0.1691398  68.86  0.001015108    1.994    0.499
       289  -8.5128    175.5423    146.3181   9.0071581980e+01   1.8328318899e+01    0.2408716    0.1374013 -45.35 0.0006790967    1.937    0.484
       290  -9.9080    139.0333    144.9765   9.7602728452e+01   2.5859920267e+01    0.4361705    0.2930598 -76.68  0.001295703    2.176    0.540
       291  -9.2438    139.9101    137.2474   9.5851454842e+01   2.7192349306e+01    0.3958226    0.2686859   7.39  0.001662617    2.632    0.620
       292 -10.3598    106.7196    144.0715   1.0487547652e+02   3.1907955652e+01    0.7211815    0.4448544 -88.77  0.002194484    2.435    0.589
       293  -9.4068     13.5996    146.3402   1.2706040581e+02   4.3052341618e+01    0.3147602    0.1451643  61.48  0.001281061    2.025    0.506
       294 -10.1984    241.3504    143.8754   7.7530645090e+01   5.5833909185e+00    0.5475186    0.2950414   1.51  0.002246874    2.902    0.655
       295  -9.8490    124.9266    142.4266   1.0031792521e+02   2.9023300376e+01    0.5356064    0.3207122 -70.65  0.001814715    2.305    0.566
       296 -10.5020     69.4885    141.3587   1.1339350140e+02   3.8143015839e+01    0.5433782     0.371851 -85.76  0.002046844    1.451    0.311
       297  -9.6798     68.7442    134.7141   1.1260801893e+02   3.9691825854e+01    0.5077887    0.2555704  24.28   0.00220153    3.045    0.672
       298  -7.8503    194.3918    144.1205   8.5879107624e+01   1.4831599457e+01    0.1884257      0.12887 -48.35  0.000852983    1.734    0.423
       299  -8.8085    165.6210    143.9968   9.1636451888e+01   2.0757018520e+01    0.2841256    0.2142985  66.79  0.001020018    1.588    0.370
       300 -10.2299    149.1189    145.0323   9.5384547438e+01   2.3882521225e+01    0.5584171    0.3773933 -86.36  0.001996875    2.540    0.606
       301  -9.3517      2.5996    142.0248   1.2921059871e+02   4.4799068756e+01    0.3183059    0.1448784  72.82  0.001444883    2.005    0.501
       302  -8.5127    182.0070    141.5520   8.7755401839e+01   1.7808225337e+01    0.2523995     0.195502 -56.48 0.0006426997    1.582    0.368
       303  -8.8151    250.7279    130.1759   7.3077582959e+01   5.6086520199e+00     0.364904      0.11594 -27.32  0.001205281    3.136    0.681
       304  -8.4264    246.9507    130.4781   7.3725493075e+01   6.2863118351e+00    0.2391245    0.1660857 -37.63 0.0007126764    1.527    0.345
       305  -8.4932    250.3160    140.6672   7.5424734069e+01   4.3364541210e+00    0.2626045    0.1222847 -28.26 0.0007869534    2.028    0.507
       306  -9.1298    248.3935    135.3541   7.4574331520e+01   5.3757135702e+00     0.334171    0.2001017 -35.41  0.001138625    1.688    0.407
       307 -10.0474     23.3467    138.1754   1.2414748327e+02   4.3949665069e+01    0.4932222    0.2127083  71.05   0.00219816    2.674    0.626
       308  -7.9523    218.6029    138.7724   8.0257807822e+01   1.0715772133e+01    0.1798595    0.1253791 -39.08 0.0003787176    1.548    0.354
       309  -8.7827    172.3957    138.3146   8.9012782477e+01   2.0366012554e+01    0.3104062    0.2229854 -73.32  0.000936752    2.147    0.534
       310  -8.9094    246.9964    143.9916   7.6653954444e+01   4.5215783621e+00    0.2746477    0.1701828 -18.14 0.0006692106    1.566    0.361
       311  -8.3008    207.6520    138.1333   8.2083613759e+01   1.3042561005e+01    0.2111123    0.1706112 -51.41 0.0007255236    1.518    0.341
       312  -8.4491    197.4764    137.6269   8.3872948205e+01   1.5231341280e+01    0.2512978    0.2229721 -56.33 0.0008385534    1.361    0.266
       313 -10.4769     83.4088    132.8609   1.0863125835e+02   3.8023377700e+01    0.5628939    0.3146519 -73.25  0.001180861    2.000    0.500
       314  -8.7577     84.2238    123.2209   1.0672386486e+02   4.0019481727e+01    0.5130615    0.3014159  17.97  0.002142764    3.057    0.673
       315  -8.3221    162.6550    136.5094   9.0672225583e+01   2.2717901801e+01    0.2276905    0.1747679 -69.06 0.0006857901    1.688    0.407
       316  -9.3958     39.1701    136.3715   1.2015841918e+02   4.2824017865e+01    0.2785896    0.1574337  74.20 0.0007264747    1.844    0.458
       317  -7.7462    192.4799    136.5258   8.4588516165e+01   1.6455430959e+01    0.1413057    0.1324153  25.11  0.000342722    1.038    0.037
       318  -8.1036    187.5725    136.0115   8.5434140283e+01   1.7573312379e+01    0.2078917     0.139258 -34.77 0.0004609814    1.558    0.358
       319  -8.8963    179.6480    134.0995   8.6594121099e+01   1.9573955555e+01    0.2813848    0.2125423 -60.06 0.0008461638    1.680    0.405
       320  -8.8579     57.4950    135.5157   1.1553130618e+02   4.0951744613e+01    0.2326916    0.1211425  34.65  0.001163866    2.087    0.521
       321  -7.7221    237.5764    133.7522   7.5939195727e+01   7.6575297000e+00     0.177382    0.1193239 -36.73 0.0009237088    1.550    0.355
       322  -7.7250    231.5068    134.4241   7.7085932041e+01   8.7574726791e+00    0.1340939     0.121995   6.48 0.0001123125    1.064    0.060
       323  -9.1909    112.8061    133.2412   1.0142020958e+02   3.3112864729e+01    0.3337668    0.2308006  78.96 0.0009418519    1.885    0.469
       324 -10.0623    132.6376    131.4248   9.6314268508e+01   2.9775196430e+01    0.5729588     0.416701 -88.91  0.001687056    1.888    0.470
       325 -10.4626     98.1506    130.2301   1.0446081133e+02   3.6274865171e+01    0.6319987    0.3022814 -58.87  0.001687629    2.116    0.527
       326  -8.9558     98.8034    120.9947   1.0249707747e+02   3.8168111604e+01    0.6285164    0.3680629  13.66  0.002162142    4.310    0.768
       327  -9.1178    143.0495    131.8007   9.3986246869e+01   2.7631921505e+01    0.2828726    0.2296313 -80.33 0.0008809801    1.488    0.328
       328  -9.5904    152.9510    128.7086   9.1071311608e+01   2.6195241245e+01     0.479755    0.2422629 -51.77  0.001030042    2.279    0.561
       329  -8.2361    154.3213    123.2851   8.9527218697e+01   2.6940254422e+01    0.2394713    0.1808948  38.07 0.0007288435    1.319    0.242
       330 -10.4842     60.3273    125.5700   1.1337718334e+02   4.2805073694e+01    0.7500587    0.3808011  74.03  0.002913708    3.094    0.677
       331  -8.8623     58.8920    115.7739   1.1220260515e+02   4.5182274818e+01    0.4484856    0.2486206 -32.05  0.001890268    3.297    0.697
       332 -10.0487     12.9763    129.4342   1.2585469402e+02   4.6690574189e+01    0.4298952    0.1959076  72.84  0.001820831    2.294    0.564
       333  -8.3736      2.4211    130.7748   1.2848589550e+02   4.7172693408e+01    0.2109304   0.08431429  53.21  0.001138516    2.384    0.580
       334  -7.9725    204.5316    130.4869   8.0938500541e+01   1.4879894996e+01    0.1385157    0.1343793  15.20  0.000601133    1.108    0.098
       335  -8.1563    192.9194    130.3474   8.3108060720e+01   1.7375508280e+01    0.1983823    0.1795762  33.61 0.0004386473    1.054    0.051
       336  -8.0772    186.4729    129.9602   8.4284513743e+01   1.8822957154e+01    0.1925112    0.1237758 -60.97  0.000753141    2.351    0.575
       337  -9.2192    168.3612    129.5472   8.7908987652e+01   2.2781526151e+01    0.2891448    0.2391191 -79.91 0.0008636289    1.559    0.358
       338  -9.9984     73.1260    128.1879   1.1047105880e+02   4.0534238264e+01    0.5399081    0.2338264 -64.61  0.001738957    2.246    0.555
       339  -8.1696    211.5014    129.0529   7.9336577630e+01   1.3631479458e+01    0.2117128    0.1347863 -33.86  0.001021962    1.579    0.367
       340 -10.7147     44.8590    123.4934   1.1712658492e+02   4.5067896002e+01     1.051919    0.4747634  77.80   0.00394447    3.935    0.746
       341 -10.0894    118.1763    125.1784   9.8469448273e+01   3.3824269037e+01    0.5998645    0.4174581 -85.83  0.001951693    1.980    0.495
       342  -7.6079    228.3386    125.6667   7.5635923962e+01   1.0633985711e+01    0.1349031    0.1102633 -66.38  0.000705177    1.746    0.427
       343  -8.8953    179.2533    124.8867   8.4562457036e+01   2.1257725480e+01    0.2663931    0.2323073  73.02 0.0007275702    1.339    0.253
       344 -10.5157     28.1901    121.5989   1.2124378484e+02   4.7136064395e+01    0.8548037    0.3729213  85.66   0.00374918    2.909    0.656
       345  -8.1787    188.5291    124.0473   8.2501494901e+01   1.9375306873e+01    0.2144178    0.1422499 -36.95 0.0006535737    1.546    0.353
       346 -10.7094    130.8296    118.3782   9.3869879396e+01   3.2782485411e+01    0.8395167     0.516097 -82.89  0.002993473    3.413    0.707
       347  -9.9951    133.5283    109.0349   9.0982774259e+01   3.4136279395e+01    0.6720567    0.2875809 -46.06  0.001869439    2.363    0.577
       348  -9.1198    158.7339    121.5822   8.8147497543e+01   2.6317844939e+01    0.3718626    0.2568546 -67.48 0.0009217686    2.022    0.506
       349  -8.6827    171.9695    121.5416   8.5282678431e+01   2.3444008198e+01      0.26104    0.2026539 -57.42 0.0004290299    1.509    0.337
       350 -10.0248    141.6762    118.1536   9.1226394219e+01   3.0606277022e+01    0.6456441    0.3452376 -51.65  0.001996082    2.037    0.509
       351  -9.7413     71.1588    119.8461   1.0957483206e+02   4.2664439750e+01    0.3775104     0.215777 -80.12  0.001159979    2.079    0.519
       352  -9.7613      2.8897    117.0362   1.2730943381e+02   5.0086705016e+01     0.490622    0.1906174  74.97  0.002264542    2.981    0.665
       353  -7.4474    231.7043    117.6989   7.3230265941e+01   1.1078922200e+01    0.1420389    0.1004233  12.92 0.0002155893    1.575    0.365
       354  -7.8866    219.3015    116.6620   7.5057444467e+01   1.3850634864e+01    0.1392604    0.1118486 -63.18 0.0003038094    1.666    0.400
       355  -8.4331    192.9987    115.5099   7.9574185273e+01   1.9817660177e+01    0.2675143    0.1971486 -50.58  0.000659365    1.557    0.358
       356  -8.3545    185.5478    116.0082   8.1158920273e+01   2.1401940597e+01    0.2172653    0.1440163 -36.35 0.0004841245    1.533    0.348
       357  -7.9611    195.0065    122.2481   8.0814067584e+01   1.8257297235e+01    0.2034811    0.1533631 -55.06 0.0004236069    1.625    0.385
       358  -9.9625    109.2261    114.1650   9.8338837768e+01   3.7815534494e+01    0.5051467    0.3237599 -70.48  0.001326257    1.937    0.484
       359  -9.0421    109.0212    107.5144   9.6867556273e+01   3.9281590597e+01    0.3267138    0.2411816  -0.95  0.001285044    2.147    0.534
       360  -8.3430    250.3455    115.0432   6.9719138955e+01   7.6705083794e+00    0.1890271    0.1608535 -12.06 0.0006313845    1.046    0.044
       361  -9.9525     78.8743    112.5013   1.0611709162e+02   4.3208754119e+01    0.4871964    0.3103566  82.36  0.001641659    2.165    0.538
       362  -8.6046     78.0013    105.8563   1.0501548887e+02   4.4827677024e+01    0.3065307    0.2360322 -19.36  0.001206266    1.815    0.449
       363  -7.7704    167.4814    114.5020   8.4530438812e+01   2.5713615274e+01    0.1473646    0.1437858  38.92 0.0001453132    1.030    0.029
       364 -10.2238     92.7143    112.3489   1.0231469369e+02   4.1079162263e+01    0.5996069    0.3366532 -72.12  0.001434645    2.333    0.571
       365  -9.0242     93.2341    104.8932   1.0053751778e+02   4.2636980560e+01    0.3346057    0.2095349  16.97  0.001343871    2.692    0.629
       366  -8.6113    174.9151    112.3480   8.2421363052e+01   2.4434419762e+01    0.2821995    0.2035031 -55.73 0.0008127362    1.645    0.392
       367  -9.9343    122.1215    112.6596   9.4693797517e+01   3.5693232326e+01    0.4061038    0.3029074 -85.29 0.0009411011    1.752    0.429
       368  -9.5684    118.7361    106.3165   9.4038634302e+01   3.7686525634e+01    0.3735181    0.2876356 -81.22  0.001838099    1.604    0.376
       369 -10.6521    108.9533     98.8694   9.4779424716e+01   4.1145672644e+01    0.8792528    0.4886484  68.43  0.001339178    3.437    0.709
       370  -8.8716    107.4339     92.7354   9.3613784536e+01   4.2738474321e+01    0.5846561    0.2935619  28.71  0.002106667    3.087    0.676
       371  -9.9392     14.3537    111.4916   1.2378595614e+02   5.0508565465e+01    0.4005418    0.1933854  65.29  0.001448497    2.303    0.566
       372  -8.6183    159.1670    111.7154   8.5656159209e+01   2.8080604967e+01     0.255782    0.2002559 -52.96 0.0006123813    1.384    0.277
       373 -10.2431     66.3883    110.4109   1.0918474829e+02   4.5433011251e+01    0.4817411    0.3062469 -82.77  0.001791363    1.774    0.436
       374  -7.8668    149.6403    110.2136   8.7440184096e+01   3.0464985427e+01    0.1998326    0.1409233 -32.66 0.0003831816    1.532    0.347
       375 -10.6355    249.1535    105.9812   6.7782404573e+01   9.1176521116e+00    0.7025272    0.2622241 -25.19  0.002662439    2.715    0.632
       376  -9.1324     43.4611    109.2875   1.1545318315e+02   4.8413746256e+01    0.2712826    0.1833255  12.99  0.001515864    2.137    0.532
       377  -8.1592    189.2060    108.1874   7.8485888030e+01   2.1904034970e+01    0.2008478    0.1750268 -60.89 0.0005516966    1.331    0.249
       378  -9.6107    150.6916    103.3717   8.5449019960e+01   3.1554829831e+01    0.4644143    0.3054537 -64.88  0.001529263    2.107    0.525
       379  -9.6805    139.9923    104.6713   8.8312539932e+01   3.3645870795e+01    0.4619016    0.3262537 -69.90  0.001036498    1.891    0.471
       380 -10.6440     45.7165    102.4172   1.1369304696e+02   4.9732946257e+01      0.79601    0.4030447  72.11  0.003209295    3.240    0.691
       381  -8.9315     45.4914     92.7894   1.1204193857e+02   5.1945340987e+01    0.3465759    0.2129612 -14.29  0.001614769    2.981    0.665
       382 -10.6744     22.7914    102.6214   1.2038967655e+02   5.1836852615e+01     0.688817    0.3269246  76.04  0.002573612    2.818    0.645
       383  -8.8543    166.2085    103.6037   8.2036280395e+01   2.7996627007e+01     0.386135    0.2235663 -52.68  0.001567825    2.074    0.518
       384  -9.4130      6.6445    102.8639   1.2499213109e+02   5.2946606434e+01    0.3257914    0.1594199  75.23  0.001266315    2.200    0.545
       385 -10.3824    128.7800    101.4309   9.0244039375e+01   3.6672751157e+01    0.5651771     0.352811 -39.65  0.001820848    1.654    0.395
       386  -7.8237    175.5294    102.4986   7.9772275798e+01   2.6043143115e+01    0.1499293    0.1454967  16.34 0.0001064911    1.003    0.003
       387  -8.3294    159.7686    100.9253   8.2744811581e+01   2.9966932916e+01    0.2725421    0.1993022 -57.46 0.0006369385    1.589    0.371
       388  -9.2690     82.0021     99.9435   1.0259213668e+02   4.5545005879e+01    0.3567499    0.2439338 -81.09 0.0009278973    1.790    0.441
       389 -10.3909     63.9032     95.3031   1.0691840824e+02   4.9179422456e+01    0.9775599    0.4464218 -56.18  0.003319508    1.924    0.480
       390  -9.2987     95.0159     97.0518   9.8190939700e+01   4.4055465398e+01     0.310686    0.2129283 -65.62  0.000559594    1.569    0.363
       391  -8.7995    150.5331     96.1611   8.3565317837e+01   3.2971482809e+01    0.3374114    0.2202964   2.01  0.001255475    2.782    0.641
       392  -9.2774    221.4433     95.7908   6.9547282542e+01   1.6498543655e+01    0.2477035    0.2317348  23.93 0.0003372688    1.068    0.063
       393  -7.2997    183.7101     96.6996   7.6577485800e+01   2.5133408901e+01    0.1523637    0.1161334  14.49 0.0001753002    1.562    0.360
       394  -7.8577    182.5735    109.4931   8.0132952409e+01   2.3196856661e+01    0.1468752    0.1429861   8.10 9.710852e-05    1.026    0.026
       395  -8.2231    176.3001     93.4113   7.7182571592e+01   2.7457024661e+01    0.2564084    0.1757313 -54.72 0.0005696646    1.727    0.421
       396  -8.3588    164.8967     94.1234   7.9782399018e+01   3.0028053965e+01    0.2361242    0.2041034 -73.71 0.0006020195    1.356    0.263
       397  -9.5287    139.0100     91.5276   8.5037610022e+01   3.6455787211e+01    0.5991107    0.2959719 -46.66  0.001599739    2.083    0.520
       398 -10.2217    123.8093     91.4163   8.8852851142e+01   3.9752326161e+01    0.5759243    0.4395272  34.01  0.001501363    1.416    0.294
       399  -9.6596      5.1793     91.8690   1.2421470395e+02   5.5469858465e+01    0.3411403    0.1894423  76.81  0.001154046    1.868    0.465
       400  -9.7170     34.8357     89.9875   1.1484833008e+02   5.3648581634e+01    0.4695504    0.2396054 -85.35  0.001650172    2.406    0.584
       401  -9.0981     22.9492     90.4343   1.1862354897e+02   5.4568647114e+01    0.2801287    0.2288987 -33.37  0.001422631    1.468    0.319
       402  -7.9444    157.5660     91.5399   8.0686296944e+01   3.2218169497e+01    0.1496869    0.1484666 -69.11 4.582734e-05    1.043    0.042
       403  -8.3971    150.8567     89.3804   8.1611197209e+01   3.4180118419e+01    0.2119351    0.1924635 -58.48 0.0004995649    1.165    0.142
       404 -10.1499     86.4067     86.1691   9.7953359819e+01   4.7884081026e+01    0.5950803    0.3650291 -65.38  0.001393891    1.867    0.464
       405  -8.1342    164.0000     87.0428   7.8001462621e+01   3.1515641918e+01    0.2488797    0.0870856 -36.43 0.0004898476    2.868    0.651
       406  -9.9933     48.5160     83.9386   1.0931338120e+02   5.3619196737e+01    0.5561672    0.3395744 -80.70  0.002275821    1.900    0.474
       407  -8.6129    127.1388     84.3328   8.5987159466e+01   4.0472065560e+01    0.4803583    0.2499974  26.94   0.00157221    3.483    0.713
       408  -9.8941    104.7624     83.3578   9.1804679600e+01   4.5222611944e+01    0.5045397    0.3292866 -68.27 0.0009981822    2.050    0.512
       409  -8.2306    104.6890     77.6499   9.0176338307e+01   4.6420519448e+01     0.208768    0.1497813  24.97 0.0009864809    1.700    0.412
       410  -8.2870    157.7522     83.9893   7.8500070125e+01   3.3555126013e+01    0.2154572     0.195534 -33.12 0.0004295476    1.103    0.094
       411  -9.1617    141.0215     82.8454   8.2064699936e+01   3.7676806476e+01    0.4118696    0.2312561 -48.79 0.0007574446    1.908    0.476
       412  -9.6735      9.8664     81.1501   1.2139404376e+02   5.7569471272e+01    0.3349667    0.1696514  65.35  0.001444161    2.524    0.604
       413  -7.4691    185.2657     82.6351   7.2413084684e+01   2.7118533243e+01     0.156288     0.115929 -61.06 0.0003498476    1.649    0.394
       414  -9.6788     24.6426     80.5888   1.1648278542e+02   5.6652428694e+01    0.4062703    0.2147004  87.88  0.001354204    2.428    0.588
       415  -9.2338     28.0830     71.1784   1.1353601900e+02   5.8479999741e+01    0.5955042    0.2192539 -36.00  0.002080652    4.816    0.792
       416  -8.7807    150.0983     80.4161   7.9193950780e+01   3.6020987122e+01    0.3386965    0.2008713 -46.13 0.0008840209    1.756    0.431
       417  -9.0320    119.4679     80.3660   8.6855833458e+01   4.2892458211e+01    0.3472331    0.2317254 -61.54  0.000905259    1.840    0.457
       418  -8.8906     74.5974     80.6324   1.0014662347e+02   5.0953144458e+01    0.2850689     0.205453 -80.12 0.0009071408    1.727    0.421
       419  -8.0539    166.7098     79.9114   7.5366791541e+01   3.2118508630e+01    0.2118277    0.1926975 -23.55  0.000490671    1.105    0.095
       420  -8.1090    184.3346     78.1971   7.1331042635e+01   2.8073749712e+01    0.2231485    0.1329034 -41.00 0.0005580725    1.687    0.407
       421  -9.9044     63.7563     74.6959   1.0210497206e+02   5.3801890476e+01    0.5784521    0.2725914 -67.71  0.002247461    2.905    0.656
       422  -9.2716    128.1758     75.5809   8.3110713587e+01   4.1955390590e+01    0.3674789    0.2531851 -59.03 0.0006524008    1.735    0.424
       423  -9.1335    140.6282     74.9764   7.9799929304e+01   3.9242059474e+01    0.4467765    0.2293203 -32.52  0.001644587    2.076    0.518
       424  -8.7311    164.1674     74.2511   7.4228620739e+01   3.3717270145e+01    0.3954952    0.2573914 -66.28  0.001570952    2.274    0.560
       425  -9.7306     82.3019     72.6981   9.5509456578e+01   5.1458119442e+01    0.3771405    0.2807764 -78.00  0.001061597    1.741    0.426
       426  -9.3306    105.8384     71.5455   8.7993927966e+01   4.7435840856e+01    0.4289699    0.1989216 -50.18  0.001461037    2.262    0.558
       427  -8.2942     42.5136     72.5712   1.0880196530e+02   5.6814934489e+01    0.2296145    0.1136248 -72.35 0.0008034488    2.311    0.567
       428  -7.6933    175.5085     72.5525   7.1398191085e+01   3.1188800859e+01    0.1530489    0.1476515  18.01 0.0002593421    1.030    0.029
       429  -9.4825     95.1207     71.1413   9.1053386992e+01   4.9558204820e+01    0.3824435    0.2175782 -55.25 0.0009236725    1.899    0.473
       430  -9.4994     97.6822     60.8034   8.6960990678e+01   5.1146848159e+01    0.3922283    0.3025976 -37.94  0.001613378    1.231    0.187
       431  -9.4382     51.4998     69.7536   1.0499143828e+02   5.6440642687e+01    0.4180076    0.2316412 -74.33  0.001415596    2.377    0.579
       432  -9.0005     16.7384     70.1698   1.1732517430e+02   5.9567944719e+01    0.3067183    0.1490083 -78.33  0.001327886    2.020    0.505
       433  -8.9777    115.6971     72.4830   8.5494188457e+01   4.5244332341e+01    0.3785339    0.1901716 -46.38   0.00099379    1.987    0.497
       434  -8.8739    147.0517     68.2417   7.6177151600e+01   3.8935332565e+01    0.3297465    0.2080984 -42.08 0.0007633478    1.596    0.373
       435  -8.8873    138.5374     66.2274   7.7559489311e+01   4.1320957065e+01    0.3540857    0.2221782 -56.02  0.001046919    1.983    0.496
       436  -8.9803    121.6413     66.1997   8.1873398303e+01   4.5175890120e+01    0.3232428    0.2369887 -63.70 0.0007714701    1.711    0.416
       437  -8.0030    151.4546     73.4813   7.6792874762e+01   3.6949277062e+01    0.1517347    0.1494673 -57.73 0.0001428817    1.050    0.048
       438  -8.6831     64.6133     63.7111   9.8747993446e+01   5.6056357002e+01    0.4893889    0.2839887  -9.43  0.001788417    4.040    0.752
       439  -8.8468     37.2165     64.2627   1.0871241761e+02   5.9185527977e+01    0.2828788    0.1896397  81.01  0.001039108    2.103    0.525
       440  -9.0401    109.9919     63.7038   8.4283526374e+01   4.8132293426e+01    0.2806601    0.2058844 -50.47 0.0006501295    1.412    0.292
       441  -7.8066    157.9975     61.9778   7.1746197035e+01   3.7311315137e+01    0.1828741    0.1743823 -22.42 0.0003511524    1.046    0.044
       442  -7.8439     51.3509     62.3233   1.0305540281e+02   5.8075446440e+01    0.1363296   0.09039953 -28.43 0.0006612141    1.752    0.429
       443  -9.8680    122.6575     60.2463   7.9630070442e+01   4.6046895100e+01     0.281202    0.2576537 -31.62 0.0002993821    1.068    0.064
       444  -9.5080    119.1204     55.9317   7.9103774825e+01   4.7608196391e+01    0.5176118    0.2394306 -46.58  0.001868507    2.352    0.575
       445  -9.7873     73.2234     59.2100   9.4379214731e+01   5.5722367599e+01    0.4815665    0.2270942 -55.60  0.001296975    2.291    0.564
       446  -7.4859    164.3226     60.2995   6.9891151457e+01   3.5991137976e+01    0.1596752    0.1170479  22.95 0.0003983302    1.627    0.385
       447  -8.1062    147.0268     59.3230   7.3308969716e+01   4.0471133743e+01    0.2090999    0.1999573  47.79 0.0004607801    1.051    0.048
       448  -8.2203     88.8318     59.3838   8.9256456131e+01   5.3069370626e+01    0.1980416    0.1665415 -46.76 0.0006691557    1.148    0.129
       449  -9.9220     23.5019     56.5791   1.1202383410e+02   6.2066470045e+01    0.4471174    0.2535478  87.31  0.002135244    2.779    0.640
       450  -8.2296    130.8075     58.0518   7.6775774111e+01   4.4574391092e+01    0.2303256    0.1982394 -61.86  0.000570128    1.313    0.238
       451  -9.5981      7.5153     57.3127   1.1832674040e+02   6.2970816544e+01     0.282044    0.1833595  83.40  0.001128654    1.766    0.434
       452  -9.4842     54.3230     55.6779   1.0001685174e+02   5.9121796917e+01    0.3456926     0.212818 -65.47   0.00118038    1.856    0.461
       453  -8.5739    139.8312     56.1176   7.3913593161e+01   4.2760544994e+01    0.2325079    0.2047231 -60.32 0.0005216572    1.256    0.204
       454  -8.9406     44.1146     55.3916   1.0377190090e+02   6.0389655761e+01    0.3058091    0.1864984 -70.90  0.001035105    1.947    0.486
       455  -8.5233    105.6963     53.3482   8.1982862827e+01   5.0952867556e+01    0.2521099    0.1687225 -48.32 0.0004043562    1.566    0.361
       456  -9.4405     92.4209     50.7197   8.5098004880e+01   5.4068535720e+01    0.4194186    0.2255826 -51.05  0.001086239    2.083    0.520
       457  -8.6671     92.4100     43.2915   8.2340846624e+01   5.5413850739e+01    0.3524378    0.1292044 -33.93  0.001236568    2.877    0.652
       458  -8.5590    144.5506     49.0585   7.0414121559e+01   4.2746320255e+01    0.2318024    0.1470734 -32.96 0.0005545511    1.568    0.362
       459  -8.2996    129.8640     49.1525   7.3925321001e+01   4.6299816919e+01    0.2260894    0.2053469 -63.18 0.0005126206    1.231    0.188
       460  -7.6470    149.6782     48.7104   6.9163803472e+01   4.1516801833e+01    0.1578266    0.1146059  24.56 0.0002937719    1.605    0.377
       461  -8.8023    120.8366     47.4933   7.5646811677e+01   4.8673133250e+01    0.2563551    0.2016845 -31.07 0.0005222331    1.248    0.199
       462  -8.2948    218.4575     46.9854   5.6897218360e+01   2.4091418369e+01    0.2307649    0.1363939 -28.47  0.001038551    1.620    0.383
       463  -8.5571    112.1600     46.8183   7.7761442708e+01   5.0725871591e+01    0.2528903    0.1887259 -48.13 0.0005820311    1.438    0.305
       464  -8.8754     82.0620     46.6890   8.7022876757e+01   5.6712119558e+01    0.2645546    0.2072369 -56.18 0.0006353748    1.438    0.304
       465  -8.6833     44.9510     44.6692   1.0011604794e+02   6.2525314515e+01    0.2383979    0.1657969 -57.02 0.0005887424    1.371    0.270
       466  -9.1757     16.4545     44.5469   1.1190614657e+02   6.5164454210e+01    0.2329493    0.1728718 -82.19 0.0006495945    1.496    0.331
       467  -8.7154    132.9707     43.4864   7.1134187034e+01   4.6458149616e+01    0.2867904    0.2001493 -47.88 0.0006269251    1.573    0.364
       468  -7.8890     32.3507     44.3346   1.0517035662e+02   6.3914215063e+01    0.1328063   0.07827317 -32.00 0.0007046667    1.783    0.439
       469  -9.3719     69.6836     41.8162   8.9552092527e+01   5.9693589523e+01     0.342153    0.2539499 -69.33  0.001086269    1.937    0.484
       470  -9.6686      5.0465     41.9064   1.1612074890e+02   6.6412825332e+01    0.3409713    0.1899619 -89.94  0.001766545    2.377    0.579
       471  -8.8707    106.0169     41.4705   7.7500577532e+01   5.2950135532e+01       0.2729    0.1908986 -48.21 0.0006568305    1.571    0.363
       472  -7.8536    140.3061     41.6711   6.8775353599e+01   4.4932008593e+01    0.1540115    0.1166549 -64.84 0.0004054191    1.655    0.396
       473  -8.8016     36.8995     41.0941   1.0223930032e+02   6.4130229335e+01    0.1806258    0.1557012 -65.59 0.0005195294    1.272    0.214
       474  -8.6277     95.4156     38.2367   7.9424922738e+01   5.5686053926e+01    0.2588188    0.2003693 -59.98  0.000837773    1.649    0.394
       475  -8.2352     80.4957     36.7314   8.3714898468e+01   5.8781813968e+01    0.2483361    0.1243524 -42.93 0.0007995334    1.928    0.481
       476  -9.4905     26.1136     35.1464   1.0494723932e+02   6.6359413846e+01     0.372359     0.210417 -64.12  0.001327929    1.820    0.450
       477  -8.9612     58.3073     42.4441   9.4064221541e+01   6.1268466052e+01    0.3523558    0.2054261 -62.88  0.001088635    2.381    0.580
       478  -7.9800    125.8224     35.8006   7.0019262863e+01   4.9338728019e+01    0.1913362    0.1686982 -51.27 0.0003237912    1.251    0.201
       479  -8.3504    111.8400     34.7441   7.3237138599e+01   5.2741748609e+01    0.2598922    0.1722249 -53.63 0.0003937473    1.906    0.475
       480  -8.1136      5.3492     35.3064   1.1438427849e+02   6.7779431863e+01    0.1225191   0.06372604 -40.30 0.0006352333    1.704    0.413
       481  -8.8497    119.2428     33.3446   7.0725471392e+01   5.1254023251e+01    0.3272862      0.15654 -37.51 0.0007903673    2.078    0.519
       482  -7.6260     88.5393     34.5150   8.0116687147e+01   5.7657938722e+01    0.1378042    0.1282566 -23.59 0.0004382008    1.087    0.080
       483  -9.0125     48.4723     33.3613   9.4587342922e+01   6.4314395986e+01    0.2548358    0.2024196 -57.26 0.0007867258    1.404    0.288
       484  -8.7783     60.7281     32.6274   8.9324890086e+01   6.2755876899e+01    0.2377277     0.189102 -47.73 0.0006012871    1.301    0.232
       485  -7.6860    139.3877     32.2059   6.5531747766e+01   4.6511552683e+01    0.2142168    0.1301879 -39.91 0.0009350575    1.704    0.413
       486  -8.4657     72.0812     31.3229   8.4477138382e+01   6.1176672722e+01    0.2211752    0.1776984 -53.99 0.0005753905    1.482    0.325
       487  -8.8419     12.9147     30.5333   1.0953549195e+02   6.8305622306e+01    0.2573695    0.1490443 -68.91  0.001155987    1.760    0.432
       488  -8.0006     41.9962     29.9855   9.6026767399e+01   6.5741923296e+01    0.1512657    0.1254089 -32.16 0.0004202796    1.004    0.004
       489  -8.2400    101.2566     29.2733   7.4013170223e+01   5.5886867449e+01    0.1875238    0.1636983 -55.02  0.000694378    1.358    0.264
       490  -8.8658     81.4183     27.6575   7.9606082443e+01   6.0116698918e+01    0.2617391    0.2151018 -66.37 0.0008110854    1.702    0.412
       491  -9.1709      3.6291     27.5664   1.1309384363e+02   6.9457810729e+01    0.2500125    0.1483805 -74.38  0.001094913    1.758    0.431
       492  -8.9215     91.8583     26.6369   7.5745319621e+01   5.8240052883e+01    0.2681243     0.187585 -39.62 0.0007823579    1.463    0.317
       493  -8.8167    104.2930     22.9544   7.0481320542e+01   5.6125138400e+01    0.1957756    0.1758416 -12.81 0.0004198462    1.074    0.069
       494  -9.0222     63.5830     21.1804   8.3226041485e+01   6.4253395857e+01    0.3029359    0.2048151 -51.45 0.0009530954    1.844    0.458
       495  -9.0095     48.3556     21.6456   8.9725842160e+01   6.6438351593e+01    0.2334942    0.1904235 -50.70 0.0006093573    1.413    0.293
       496 -10.1726    248.6532    242.2732   9.3821827944e+01  -6.2732307898e+00    0.5076872     0.180671 -30.68  0.002542144    3.299    0.697
       497  -9.1687    247.9156    234.5502   9.2806538838e+01  -5.5032341918e+00    0.2035799     0.137948  13.32 0.0009275393    1.207    0.171
       498  -8.0365     12.2944     20.6667   1.0654676229e+02   7.0301144617e+01    0.1036459   0.08555317 -85.75 0.0002563733    1.640    0.390
       499  -8.0947     87.8161     17.5977   7.3001506502e+01   6.0348924944e+01    0.2188798    0.1502139 -30.76 0.0005256574    1.410    0.291
       500  -9.4354    246.4719    229.2450   9.2232707826e+01  -4.8225133774e+00    0.3193694     0.176555 -26.37  0.001069181    2.036    0.509
       501  -7.9870    112.8116     16.8629   6.5629825294e+01   5.4965699560e+01     0.184923    0.1617178 -47.78 0.0003478609    1.306    0.234
       502  -8.3221     30.1081     16.1008   9.5687162876e+01   6.9594870896e+01    0.1666584     0.142513 -69.85 0.0008235049    1.658    0.397
       503  -7.9721      7.4984     15.5089   1.0716080832e+02   7.1610018180e+01    0.1140717   0.08758618 -43.99 -1.322401e-05    1.031    0.030
       504  -8.1933    120.4686     21.2115   6.5569340667e+01   5.2613203449e+01    0.2031955    0.1281128 -38.90 0.0008120804    1.671    0.401
       505  -7.5549     83.4902     11.4760   7.1503578119e+01   6.2022047518e+01    0.1329812     0.120733  -1.19 8.008895e-05    1.071    0.066
       506  -8.3607    218.5569    248.3108   9.9299792697e+01  -2.5829110736e+00    0.1519267    0.1020381 -33.23   0.00082275    1.978    0.494
       507  -9.0682    175.8224    248.0068   1.0612521383e+02   3.7360540198e+00    0.2608757    0.1802038  65.39  0.001733672    2.053    0.513
       508  -8.5551    156.4712    248.3785   1.0934850194e+02   6.5737627152e+00    0.2594109    0.1343009  60.92  0.001384252    2.753    0.637
       509  -8.6792    132.4371    248.0257   1.1328857631e+02   1.0141810366e+01    0.2474714    0.1341819  59.37 0.0008140184    1.910    0.476
       510  -8.2708    113.0377    248.7654   1.1656032967e+02   1.2795994270e+01    0.1682376    0.1168756  82.26 0.0009597964    1.698    0.411
       511  -9.1501    103.8652    247.1136   1.1792999977e+02   1.4287152729e+01    0.3149122    0.1661799 -83.43   0.00185342    2.878    0.653
       512  -8.9902    242.9809    247.1364   9.5369287549e+01  -5.9081737620e+00    0.2128364    0.1334525 -27.86  0.001553908    1.978    0.494
       513  -9.4923    233.6191    245.7092   9.6603715839e+01  -4.4853135265e+00      0.42759    0.2221801   9.91   0.00247436    2.467    0.595
       514 -10.0196    224.0519    244.0938   9.7870871494e+01  -2.9772652904e+00    0.3595732    0.2298205 -35.04  0.002158268    2.100    0.524
       515  -9.0979    147.1364    245.8348   1.1062389468e+02   8.2701547096e+00    0.2081891    0.1700925  76.71    0.0010636    1.505    0.335
       516  -8.6856     68.0613    245.7995   1.2366424061e+02   1.9115528078e+01    0.2817019    0.1237505  75.76  0.001556933    2.936    0.659
