#   1 NUMBER                 Running object number                                     
#   2 MAG_AUTO               Kron-like elliptical aperture magnitude                    [mag]
#   3 X_IMAGE                Object position along x                                    [pixel]
#   4 Y_IMAGE                Object position along y                                    [pixel]
#   5 X_WORLD                Barycenter position along world x axis                     [deg]
#   6 Y_WORLD                Barycenter position along world y axis                     [deg]
#   7 A_WORLD                Profile RMS along major axis (world units)                 [deg]
#   8 B_WORLD                Profile RMS along minor axis (world units)                 [deg]
#   9 THETA_WORLD            Position angle (CCW/world-x)                               [deg]
#  10 FWHM_WORLD             FWHM assuming a gaussian core                              [deg]
#  11 ELONGATION             A_IMAGE/B_IMAGE                                           
#  12 ELLIPTICITY            1 - B_IMAGE/A_IMAGE                                       
         1 -13.0076    186.0648     22.1929   7.2472358970e+01   3.5630048597e+01     1.973344     1.201376  -7.57   0.00703559    1.875    0.467
         2 -13.0802    192.8725     16.0588   6.9547725808e+01   3.4494434178e+01     1.650958     1.225102 -26.97  0.005894184    1.312    0.238
         3 -12.9773    198.9755      8.7232   6.6452774492e+01   3.3617340756e+01     1.709426    0.7499973  51.82  0.001479767    2.245    0.554
         4 -11.0013     40.2739      6.3274   1.0354845244e+02   6.9563596273e+01    0.4983475    0.1417414 -42.71  0.001994895    2.941    0.660
         5  -9.8690     45.4884      2.4859   9.9224312417e+01   6.9465944580e+01    0.1798138    0.1498677 -55.04   0.00116597    1.549    0.354
         6 -10.9686     78.8118    188.1592   1.3221280043e+02   2.8416107073e+01    0.2327321    0.1975412 -60.86 0.0008512122    1.534    0.348
         7  -9.8332    249.1640    249.9795   1.1224445509e+02  -3.7924886677e+00    0.2971602   0.07757089  41.16  0.001589389    2.609    0.617
         8  -9.7264    163.4592    248.6106   1.2428049010e+02   8.2483701221e+00    0.2232741   0.09910098 -53.36  0.001384203    3.518    0.716
         9 -11.7795    126.3706    243.8106   1.2936982439e+02   1.3942746885e+01    0.3955752    0.2233966  59.88  0.002824491    1.614    0.380
        10 -11.6077    112.9620    250.0196   1.3187878013e+02   1.4986451482e+01    0.4647847    0.3700154 -30.17  0.003843202    2.336    0.572
        11 -11.7880    107.6937    248.5950   1.3254934958e+02   1.5844656583e+01    0.6200588    0.4812644 -11.74  0.004535857    3.039    0.671
        12 -11.4722     98.7526    249.8613   1.3396146779e+02   1.6832096027e+01    0.4116972    0.2341003  56.75  0.002288922    1.298    0.229
        13 -10.9402    101.6012    246.7509   1.3331651563e+02   1.6857827466e+01    0.2404436     0.167848 -75.44  0.001713509    1.756    0.431
        14 -12.4724     52.3277    228.8816   1.3960428900e+02   2.5224313624e+01    0.5074421    0.3170421 -66.11  0.001030991    1.997    0.499
        15 -15.0768     60.2305    215.7674   1.3756997201e+02   2.6277588117e+01     5.230523      2.52719  52.73   0.03115511    1.525    0.344
        16  -8.7213    125.5194    185.4780   1.2340729009e+02   2.2108519315e+01    0.2119286   0.09882504  35.47  0.001030397    2.435    0.589
        17 -10.3797     86.6742    176.0824   1.2953493732e+02   2.9432228416e+01    0.2006934    0.1794099  87.60 0.0003801733    1.210    0.174
        18 -12.4856     74.6693    173.5980   1.3156796298e+02   3.1484416960e+01     0.364437    0.2479346 -44.46  0.001546889    2.252    0.556
        19 -10.5090    117.3366    174.9441   1.2357049834e+02   2.5097024311e+01    0.5607086    0.1173047  46.78  0.001971775    4.070    0.754
        20 -11.7058     56.0489    144.7062   1.3229137084e+02   3.9270987342e+01    0.4527971    0.2691886  60.94  0.002770168    1.550    0.355
        21 -12.6394     58.3560    131.5483   1.3020971822e+02   4.1646902544e+01     2.057557     0.613058 -76.05  0.005839097    7.018    0.858
        22 -12.8986     67.8036    144.5087   1.2972464485e+02   3.7855080343e+01     1.697683     0.766516  82.19  0.006360684    4.424    0.774
        23  -9.5643    134.2009    146.5498   1.1595825757e+02   2.7163140886e+01    0.7924549    0.1505554 -53.34  0.001931458    8.556    0.883
        24  -9.2488    103.9399    150.8349   1.2288758876e+02   3.1462133395e+01    0.2219929    0.2203872  -8.47 0.0009872884    1.311    0.237
        25  -8.6945    106.4972    146.4501   1.2169144289e+02   3.1878046167e+01    0.2782639    0.1647131 -43.21   0.00144266    2.167    0.539
        26 -11.3430     92.9669    150.2027   1.2509379419e+02   3.3255712331e+01    0.2302253    0.2173319  58.61  0.000499139    1.238    0.192
        27 -11.7919     92.7403    167.6664   1.2739938425e+02   3.0066381487e+01     1.122046    0.4182672  52.52   0.00186073    2.551    0.608
        28  -8.2932    192.3326    144.1371   1.0435364725e+02   1.6504577234e+01    0.1688415    0.1188274 -44.76 0.0003928044    1.637    0.389
        29  -9.4687    113.4856    136.0166   1.1848798016e+02   3.2706135695e+01    0.2833388    0.2229345 -20.52  0.001182476    1.932    0.482
        30 -10.0710     71.1524    134.8855   1.2773435254e+02   3.9341053822e+01    0.1950882    0.1427868  78.42 0.0008453319    1.274    0.215
        31  -9.9230    101.0671    133.4209   1.2077918591e+02   3.5252382451e+01    0.2491092    0.2178839 -31.50  0.000876896    1.506    0.336
        32 -11.4754     49.9928    130.0488   1.3195056587e+02   4.2936738831e+01    0.3587267    0.2789559 -38.47  0.001229215    1.864    0.464
        33 -12.0088     44.6149    129.6146   1.3314152220e+02   4.3623283920e+01    0.5997176     0.205268 -75.13  0.002618626    2.969    0.663
        34 -11.8647     40.7441    125.7814   1.3360389999e+02   4.4828307098e+01    0.5631631    0.1661023 -68.95  0.002473911    2.888    0.654
        35  -8.1865    118.6162    128.7041   1.1604668469e+02   3.3220957571e+01    0.1282723    0.1054203   6.18 0.0001335389    1.766    0.434
        36  -9.0218    109.3577    123.3905   1.1712604329e+02   3.5861383500e+01    0.2040711    0.1858653 -66.19 0.0004028319    1.119    0.107
        37 -10.0259    168.4223    113.3796   1.0223923945e+02   2.6228229847e+01    0.3703978    0.2852826 -79.74   0.00140327    1.773    0.436
        38 -10.9864     44.9696    114.7758   1.3122075884e+02   4.6687472494e+01    0.2292848    0.1713962  84.47  0.001520671    1.175    0.149
        39 -15.2734      1.9283    100.1339   1.4055520684e+02   5.3512354671e+01     12.36915          nan -75.44    0.0171647   30.818    0.968
        40 -10.4591    163.3355    226.0876   1.2189777900e+02   1.0734487822e+01    0.2556265    0.1230858  35.23  0.001493267    1.968    0.492
        41 -10.1662    174.7031    221.4003   1.1956000494e+02   9.5467902775e+00     0.207377    0.1101748  38.64  0.001302218    1.512    0.339
        42 -10.4038     32.9321     62.0117   1.2570301831e+02   5.9348060146e+01    0.8721719   0.07758843 -63.66  0.001512076   15.405    0.935
        43 -15.4568      2.1568    232.1319   1.4714651817e+02   2.9743567258e+01     17.38171          nan -77.12     0.038548   27.094    0.963
        44 -15.3156     13.5168    242.8194   1.4587367080e+02   2.7199129242e+01     7.138366    0.3925487 -72.47   0.02958759    8.501    0.882
        45 -10.3008    193.1035    195.0276   1.1303352118e+02   9.6659143755e+00    0.6592101    0.3409821 -60.98  0.002416614    6.682    0.850
        46 -11.0697     74.4679    195.2251   1.3362185083e+02   2.7801110196e+01    0.3118747    0.2298682 -54.06  0.001851248    1.864    0.464
