#   1 NUMBER                 Running object number                                     
#   2 MAG_AUTO               Kron-like elliptical aperture magnitude                    [mag]
#   3 X_IMAGE                Object position along x                                    [pixel]
#   4 Y_IMAGE                Object position along y                                    [pixel]
#   5 X_WORLD                Barycenter position along world x axis                     [deg]
#   6 Y_WORLD                Barycenter position along world y axis                     [deg]
#   7 A_WORLD                Profile RMS along major axis (world units)                 [deg]
#   8 B_WORLD                Profile RMS along minor axis (world units)                 [deg]
#   9 THETA_WORLD            Position angle (CCW/world-x)                               [deg]
#  10 FWHM_WORLD             FWHM assuming a gaussian core                              [deg]
#  11 ELONGATION             A_IMAGE/B_IMAGE                                           
#  12 ELLIPTICITY            1 - B_IMAGE/A_IMAGE                                       
         1 -13.1538    203.9686     21.0629   5.7688872027e+01   3.2242200703e+01    0.7308027    0.3776885 -85.35  0.003649626    2.101    0.524
         2 -12.8742    216.6716     14.9285   5.5204189831e+01   3.0202818937e+01    0.8161541    0.6086963  60.47  0.003474016    1.520    0.342
         3 -12.4602     42.8450     20.6135   9.1960620851e+01   6.5409351016e+01    0.6187806    0.2959395  25.58  0.002156756    2.075    0.518
         4 -12.3405     35.9183     20.6398   9.4722519045e+01   6.6335511291e+01    0.4482094    0.3371222  10.06  0.001936706    1.066    0.062
         5 -13.4587    188.6885      7.7169   5.6430723454e+01   3.7046988090e+01    0.9519102    0.4635971 -78.46  0.004580221    2.436    0.590
         6 -12.3399     58.2100      8.2285   8.1457265222e+01   6.4334152484e+01    0.4887046    0.2911579  33.79  0.002389542    1.374    0.272
         7 -11.5666     53.8623      2.3031   8.0485048013e+01   6.5557278214e+01    0.4170983    0.2614234  51.87  0.002674331    1.702    0.413
         8 -11.9979     44.1121      8.2925   8.6410772378e+01   6.6536064367e+01    0.2476896    0.2103688  10.00 0.0009378424    1.207    0.171
         9  -9.1888     21.2395      8.9921   9.6096309565e+01   6.9464050880e+01     0.130059   0.07677977 -26.03 0.0008684921    1.564    0.361
        10 -10.3777    109.3249      8.5497   6.8273500252e+01   5.4567128066e+01    0.2176982    0.1048015  64.35 0.0009448261    1.909    0.476
        11 -11.6873     65.6258      6.9591   7.8618030723e+01   6.3185936496e+01    0.2201162    0.1508575  48.45 0.0009665044    1.366    0.268
        12 -12.2788    166.5740      2.1833   5.7619424250e+01   4.2488845011e+01      0.64669    0.1643812  67.28  0.002588396    3.003    0.667
        13 -10.6130    149.4911    223.8416   1.1271521722e+02   5.0903417357e+00    0.2705245    0.1546995  56.89  0.001144084    2.225    0.551
        14 -10.2338    233.3131    219.6595   9.4802147611e+01  -7.8514456589e+00    0.1156098     0.103934 -74.59 0.0004971449    1.699    0.411
        15 -10.6204    239.5943    214.7648   9.2757999821e+01  -7.9380901001e+00    0.2320345    0.1136336 -49.23  0.001054466    2.420    0.587
        16 -11.1719    237.5051    211.4983   9.2530211154e+01  -7.0895694069e+00    0.2385379    0.1227511  40.06  0.001171467    2.148    0.535
        17 -11.1609    223.8934    213.6606   9.5454637643e+01  -5.4298557062e+00    0.3203076    0.2218263 -15.46  0.001738215    1.509    0.338
        18 -10.4411    230.2985    213.6569   9.4252967497e+01  -6.3962151790e+00    0.1189456    0.1047274 -71.46 0.0006951938    1.671    0.402
        19 -10.8942    115.9317    209.4060   1.1796715316e+02   1.4109762471e+01    0.3446733    0.1953978 -68.05   0.00146158    2.087    0.521
        20 -10.1776     98.7038    205.6944   1.2142874634e+02   1.7894784333e+01    0.3006743    0.1739909 -86.37  0.001185286    2.554    0.608
        21 -10.3483     49.1176    201.9240   1.3250295335e+02   2.6107858012e+01    0.3159074    0.1652313  69.35  0.001379351    2.298    0.565
        22 -10.0611     41.5710    201.4781   1.3416578636e+02   2.7151528526e+01    0.3035618    0.1010758 -63.28  0.001213161    2.564    0.610
        23 -11.1963      4.9758    199.5099   1.4193704025e+02   3.1470934450e+01    0.3321649    0.1802082  56.89  0.001069749    1.771    0.435
        24 -10.7024    149.2793    198.4419   1.0829320736e+02   1.0564787540e+01    0.2608059    0.1892934 -76.15  0.001192987    1.802    0.445
        25 -10.2646    112.6805    197.8540   1.1683315184e+02   1.7368023814e+01    0.3280004    0.1898019 -86.07  0.001173918    3.023    0.669
        26 -12.6116    160.9528    192.3059   1.0445489423e+02   9.7280717775e+00    0.7957754    0.5842836  66.89  0.002910632    1.756    0.430
        27  -9.5037    129.3265    188.6567   1.1117586134e+02   1.6533394287e+01    0.1598426    0.1175907  77.98 0.0007050926    1.740    0.425
        28  -9.4467    133.6314    196.3092   1.1155575369e+02   1.3952204436e+01    0.1587805       0.1146  72.09  0.000703607    1.761    0.432
        29 -10.4146    183.4178    183.1092   9.7654451564e+01   7.4469085539e+00    0.4247641    0.1353254 -42.83  0.001358494    3.122    0.680
        30 -10.3116    224.2337    183.2892   8.9528639974e+01   5.9090441681e-02     0.221305    0.1031096 -50.87 0.0008904876    2.360    0.576
        31 -10.0508     66.3360    194.6783   1.2754590919e+02   2.5550403037e+01    0.1508637   0.09744211  70.86 0.0007050317    1.709    0.415
        32 -10.1374    192.0041    178.4987   9.4894451020e+01   6.7901111049e+00    0.2025821    0.1295389  66.38 0.0008101739    2.508    0.601
        33  -9.5728     28.6788    176.6850   1.3434948539e+02   3.4629556926e+01    0.1313861   0.09062692 -45.20 0.0003968354    1.658    0.397
        34  -9.7558    159.3241    175.6439   1.0148040684e+02   1.3766685338e+01    0.1597369    0.1225444  87.11 0.0003716401    1.768    0.434
        35  -9.9331    106.0119    175.6757   1.1454557279e+02   2.3925920628e+01    0.2601975    0.1005603  54.75 0.0007051144    4.341    0.770
        36 -10.9852     38.1822    174.8380   1.3178309597e+02   3.4056975663e+01    0.2395085    0.1972374  17.93  0.001332462    1.553    0.356
        37 -10.9059     34.3263    173.6548   1.3259102193e+02   3.4776707565e+01    0.2573847    0.1689509  74.41   0.00108144    1.619    0.382
        38 -10.1233    176.3877    171.5761   9.6784979449e+01   1.1292704665e+01    0.3078998     0.134531 -58.31 0.0009611339    3.361    0.702
        39 -11.6609     55.8265    167.8032   1.2627030762e+02   3.3679978812e+01    0.5741022    0.3027017 -82.23  0.002331509    2.358    0.576
        40  -9.8137    168.3193    169.6295   9.8165285345e+01   1.3329209859e+01    0.1600563    0.1224306 -88.15 0.0005587277    1.795    0.443
        41  -9.9779     44.3155    168.3305   1.2934434242e+02   3.4972208864e+01    0.1401836   0.09664869 -41.00 0.0004531587    1.681    0.405
        42 -11.0159    121.1329    169.2770   1.0944596448e+02   2.2728820611e+01    0.3958042    0.2448163 -86.15  0.001408342    2.830    0.647
        43  -9.9696    151.0000    159.9655   1.0009560115e+02   1.9044816058e+01    0.2687697   0.08780614 -48.45 0.0008102521    2.997    0.666
        44 -11.4497    130.6056    159.9563   1.0510494918e+02   2.3157212576e+01    0.5341018    0.1981734  45.15   0.00174274    2.776    0.640
        45 -10.7645     23.8826    159.4843   1.3342678708e+02   3.9337430218e+01     0.291093    0.1297936 -55.46  0.001338905    1.939    0.484
        46 -11.7636    119.5979    157.3399   1.0736508583e+02   2.5936452001e+01    0.5051116    0.3588594  55.01  0.002095567    1.523    0.344
        47 -11.6876    106.4194    158.1821   1.1100718559e+02   2.8191607893e+01    0.6135345    0.3738545  66.23  0.002362015    2.375    0.579
        48 -11.1865    167.7448    157.2942   9.5619795062e+01   1.6208103051e+01    0.4778543    0.3217202  85.21  0.001826698    2.575    0.612
        49 -10.4220    218.2803    156.4265   8.5119240040e+01   6.3415091957e+00    0.4006474    0.1109394 -47.83  0.001214956    3.626    0.724
        50  -9.1881    237.6757    156.6689   8.1779717153e+01   2.8065647801e+00    0.1384982    0.1025242 -12.09 0.0004244831    1.703    0.413
        51 -10.0124     23.3434    153.9179   1.3283602792e+02   4.0756615525e+01    0.1911226    0.1399145 -70.09 0.0004301929    1.132    0.117
        52 -10.3204    132.8095    152.8122   1.0298840907e+02   2.4431241755e+01    0.3729117    0.2006133 -74.19  0.001054008    4.228    0.763
        53 -10.1862     40.6868    153.0019   1.2803497986e+02   3.9221040782e+01    0.1987824    0.1529763 -70.23 0.0004691583    1.132    0.116
        54 -10.2557    190.1028    150.9100   8.9386261306e+01   1.2998186320e+01    0.3294501    0.2290677 -83.93  0.001366868    2.270    0.559
        55 -11.4759    242.0240    150.2747   7.9769624765e+01   3.2542421629e+00    0.2892054    0.1699781  64.50  0.001301782    2.627    0.619
        56 -10.9402    107.2321    145.6232   1.0811120433e+02   3.1139792659e+01    0.5368941    0.3407242  84.54   0.00193338    2.854    0.650
        57 -10.5543    148.4054    144.7894   9.7306699780e+01   2.3100570550e+01    0.4073473    0.2572644 -76.26  0.001482003    2.594    0.615
        58 -10.2435     56.0073    146.0073   1.2258685921e+02   3.9137920599e+01    0.2956274    0.1531323  70.71 0.0009565787    4.113    0.757
        59 -10.3025     88.0296    144.5414   1.1319795657e+02   3.4785408426e+01      0.31894    0.1882836  85.22  0.001044339    3.575    0.720
        60 -10.2078    181.9864    141.9827   8.9068745733e+01   1.6594500736e+01    0.2513004    0.1892861 -82.38  0.001134212    1.740    0.425
        61  -9.7726      3.4995    140.4944   1.3639663594e+02   4.5598869730e+01    0.1268047   0.09990551 -68.98 -0.0001659557    1.015    0.015
        62  -9.8454    132.3197    132.6420   9.8443428895e+01   2.9283560242e+01    0.1651178     0.124843 -89.37 0.0007044631    1.761    0.432
        63 -10.3733     82.7865    131.2721   1.1182275921e+02   3.8902180873e+01     0.384186    0.1807365 -60.91  0.001438837    2.296    0.565
        64 -11.9551     99.6963    129.2957   1.0647726299e+02   3.6471544727e+01    0.6658694    0.4136527  70.51  0.002478001    2.763    0.638
        65  -9.8181    107.7721    129.3756   1.0422384078e+02   3.4952412426e+01     0.200295    0.1484772  28.55 0.0002077634    1.506    0.336
        66 -10.0822    118.5787    126.4473   1.0054974738e+02   3.3527034133e+01    0.4780164    0.2311915  64.28  0.001164555    5.920    0.831
        67 -10.1881     58.9914    124.4910   1.1748280210e+02   4.4037082879e+01    0.2836627    0.1689856  82.07   0.00102948    3.441    0.709
        68 -10.7956     43.8539    123.8052   1.2200070958e+02   4.6043074429e+01    0.5142826     0.305442  85.31  0.002107112    2.900    0.655
        69 -11.3101     26.2000    119.2302   1.2659801736e+02   4.8896881501e+01    0.3917959    0.2150319  76.43  0.001547648    3.530    0.717
        70 -11.9828    193.5513    118.7544   8.1405934445e+01   1.8945684665e+01     0.591913     0.463627 -86.70  0.001947745    1.490    0.329
        71 -10.0525     71.3385    120.6697   1.1284473524e+02   4.3218786776e+01    0.1473546    0.1131009  78.08 0.0007051898    1.737    0.424
        72 -11.3533    141.1205    115.1943   9.1897431961e+01   3.1305398803e+01    0.7060459    0.2245446 -43.61  0.002163104    3.143    0.682
        73 -10.3756      2.2522    115.6816   1.3335874295e+02   5.1494884155e+01    0.2803113    0.1333707 -76.58  0.001357355    2.069    0.517
        74 -11.0357     16.0972    120.1664   1.2986660882e+02   4.9510048208e+01    0.3521262    0.2154968 -45.71  0.001958743    1.459    0.315
        75 -10.3478    108.6064    113.3751   1.0000407615e+02   3.8469487570e+01    0.3962799    0.1911502 -61.45  0.001312601    3.093    0.677
        76 -10.4123     78.4623    112.2871   1.0864494048e+02   4.4072679420e+01    0.4607933    0.2521723 -74.56  0.001502754    3.906    0.744
        77 -11.0231    174.6008    110.6676   8.3219552062e+01   2.4769164103e+01    0.4868376    0.2808509 -44.08   0.00171442    1.684    0.406
        78 -12.4579    160.0277    110.4611   8.6279039695e+01   2.8096621072e+01    0.8469358    0.4920708 -62.07   0.00329705    2.226    0.551
        79 -11.1098     18.5289    112.5260   1.2779049060e+02   5.1100443509e+01    0.2419376     0.204795 -83.62  0.001169086    1.276    0.216
        80 -11.0871     14.2764    110.7165   1.2881600998e+02   5.1837998788e+01    0.6638865    0.2694682 -70.33  0.002855889    2.473    0.596
        81  -9.7087    233.0457    112.0000   7.3265259290e+01   1.2042152220e+01    0.2054961   0.07893364  54.35 0.0006311451    2.923    0.658
        82 -12.7964    141.9372    104.4068   8.8911643229e+01   3.3393512676e+01    0.7972654    0.5667151 -87.28  0.003397453    2.059    0.514
        83 -11.8156     44.6780    101.4207   1.1690548298e+02   5.1139500808e+01    0.5869823    0.3841564  88.76  0.002621331    2.738    0.635
        84 -12.0995    150.3532    103.6887   8.6740548883e+01   3.1657653677e+01    0.3825376    0.2719218 -89.39  0.001640322    1.994    0.498
        85 -10.1331     91.8500    111.4267   1.0436184212e+02   4.2019949324e+01    0.3468446    0.1766951 -63.16  0.001241521    2.787    0.641
        86 -11.9187    127.6837    101.2646   9.1635243455e+01   3.7151237012e+01     0.520773    0.3884624 -83.67  0.002343003    1.872    0.466
        87 -12.7322    112.2620    100.5944   9.5585961076e+01   4.0502186137e+01     1.507675    0.5217743  50.47   0.00469766    3.476    0.712
        88 -10.4404     82.2511    100.7963   1.0450584443e+02   4.6009460972e+01    0.2418906    0.1949297  46.08 0.0007663813    1.357    0.263
        89 -10.6362     63.2299     96.2309   1.0941060112e+02   4.9919318654e+01    0.3797879    0.2253395 -79.83  0.001300462    4.277    0.766
        90 -12.8137    170.3835     90.9814   7.9193153094e+01   2.9538645558e+01    0.4677634    0.3932029 -68.24  0.001184759    1.202    0.168
        91 -10.2644      4.7122     91.8787   1.2849830201e+02   5.6663869817e+01    0.2493145     0.141669  87.07  0.001161678    3.027    0.670
        92 -11.7507     42.3117     87.9167   1.1439021741e+02   5.4326225336e+01     0.426527    0.2569842  -9.45   0.00136302    2.191    0.544
        93 -10.6262     45.2862     81.9534   1.1175081283e+02   5.5213735353e+01    0.2298408    0.1980024 -85.00  0.000677777    1.614    0.380
        94 -10.7128     33.9748     88.4897   1.1748086693e+02   5.5084860248e+01    0.2451368    0.1733435 -66.55  0.001259866    1.599    0.375
        95 -10.6406     87.2933     87.6560   9.9287725162e+01   4.7870407541e+01    0.3455981    0.2525919  62.58   0.00168259    1.859    0.462
        96 -10.7053    105.3687     84.3782   9.2962912250e+01   4.5112983792e+01    0.3793398    0.2730489  87.96  0.001658366    2.379    0.580
        97 -10.6333      6.9661     84.8371   1.2629158052e+02   5.8027739402e+01    0.2029413    0.1030278 -29.62 0.0006480434    1.999    0.500
        98 -10.3902     24.8507     81.3576   1.1900577392e+02   5.7422260555e+01    0.2879725      0.19841  68.47  0.001483656    2.645    0.622
        99  -9.9159      1.8698     78.3652   1.2676599706e+02   5.9672612643e+01    0.2581937    0.1000686 -47.94  0.001310469    1.881    0.468
       100 -10.7748     82.3412     73.2671   9.6565219264e+01   5.1465124919e+01    0.3312184    0.2373417 -81.12   0.00147172    2.767    0.639
       101 -12.5043    223.7835     70.5393   6.5815528921e+01   2.1090991498e+01    0.2932065    0.2345184  83.49 0.0004609213    1.193    0.162
       102 -10.3242     52.0174     70.5205   1.0603629635e+02   5.6600516557e+01    0.2529736    0.1824798 -38.86 0.0008639931    1.275    0.216
       103 -10.1694     62.4066     69.7882   1.0212694851e+02   5.5293154054e+01    0.1929326    0.1124986 -33.19 0.0009546828    1.680    0.405
       104 -10.5027    196.1432     68.0718   6.9131328448e+01   2.7558314367e+01     0.344222    0.1931315  58.48  0.001642823    1.745    0.427
       105 -11.9424      9.9940     57.6550   1.1852316591e+02   6.3201453515e+01    0.7879714    0.5631688  14.53  0.005358197    1.509    0.337
       106 -11.3308     19.3974     59.6399   1.1527142260e+02   6.2110996816e+01    0.3082238    0.2269041 -10.48  0.001189572    1.256    0.204
       107 -13.6876     30.0656     59.7262   1.1104281060e+02   6.1110799764e+01     1.381475    0.8912094  31.17    0.0055632    1.731    0.422
       108 -11.1462    232.1681     60.4586   6.2714964717e+01   2.0899656492e+01    0.2464992    0.1650632 -49.35    0.0012113    1.346    0.257
       109  -9.9165    100.8499     61.0486   8.7194252813e+01   5.0070522350e+01     0.216591    0.1597353 -67.61  0.001040365    2.029    0.507
       110  -9.9849     72.6723     58.1488   9.4898446500e+01   5.5686584638e+01    0.2508356    0.1142802 -46.48  0.001082365    2.535    0.605
       111  -9.9028    119.0893     56.8351   8.1092413386e+01   4.6920524179e+01    0.2059037    0.1827938  76.97 0.0006144078    1.253    0.202
       112 -11.2198     39.0161     53.4983   1.0554431952e+02   6.1218224948e+01    0.3024446    0.2155211   2.77  0.001094982    1.350    0.259
       113 -12.2613    239.3203     64.2692   6.2665623060e+01   1.8857431643e+01    0.3579217    0.2383446 -76.98  0.002046665    1.452    0.311
       114 -12.7727    149.4855     51.9740   7.3057806548e+01   4.0784739117e+01    0.3310807    0.2591196  58.56  0.000448734    1.168    0.144
       115 -10.4765    162.1071     53.2191   7.1058300295e+01   3.7677490736e+01    0.3202189    0.1727154  68.28  0.001443537    1.892    0.472
       116 -10.5329     82.1769     47.0810   8.8139924719e+01   5.5711403823e+01    0.2187504    0.1869444  49.00 0.0006331714    1.300    0.231
       117 -11.0611     18.8932     46.3528   1.1138918898e+02   6.4477671874e+01    0.3874501    0.1742358  38.43  0.001924897    3.074    0.675
       118 -10.7910    157.0233     44.9255   6.9778665497e+01   4.0002233841e+01    0.2795427    0.1761179  62.28 0.0004758755    1.431    0.301
       119 -11.8445      7.0872     43.2023   1.1546514060e+02   6.5946509511e+01    0.4061599    0.2620237  30.79  0.002559414    1.925    0.480
       120 -11.5465     75.0165     43.1542   8.9044935956e+01   5.7529087206e+01    0.3721011    0.2425807  18.13  0.001791424    1.652    0.395
       121 -11.6030     71.0029     43.0000   9.0297686837e+01   5.8236628906e+01    0.5482872    0.3458049  61.32  0.002656251    2.663    0.624
       122 -12.4918     43.8804     37.1407   9.7924845358e+01   6.3140819247e+01    0.9161286    0.3920466  19.77  0.003786806    3.434    0.709
       123 -11.0127     82.9576     37.8643   8.4742043173e+01   5.6804564260e+01    0.3753591    0.2145705  57.16  0.001862006    2.121    0.528
       124  -9.5874    205.6777     34.9672   6.0453267611e+01   3.0170971038e+01    0.1692745    0.1393714 -69.26  0.000335973    1.107    0.097
       125 -11.2554    120.0704     34.1440   7.3958846976e+01   4.9714519773e+01    0.2959679    0.2448391  64.07 0.0007567105    1.170    0.145
       126 -10.0398    105.4333     34.9824   7.7637890418e+01   5.2734456916e+01    0.3029261    0.1617419  46.86  0.001520712    1.632    0.387
       127 -11.3037    104.5493     30.7869   7.6495654788e+01   5.3402769597e+01    0.6728833    0.2331099  60.10  0.002488005    3.354    0.702
       128 -10.2704     74.3978     33.0512   8.5668809719e+01   5.8948241417e+01    0.3105257    0.1536552  59.34  0.001295136    3.358    0.702
       129 -11.4209    222.1087    248.8394   1.0203438642e+02  -1.0917122059e+01    0.5091625    0.2286192  44.35  0.002333469    2.784    0.641
       130 -12.5216     22.5580    239.8634   1.4155959588e+02   2.0676723183e+01    0.6686388    0.2816687  69.66  0.003107529    2.550    0.608
       131 -10.5662     33.1939    242.3946   1.3974306302e+02   1.8899254860e+01    0.1724351   0.08939353  50.67 0.0009444875    1.660    0.398
       132  -9.9963      7.6878    240.6711   1.4434318890e+02   2.2115298809e+01    0.1043311    0.0808765 -58.79 0.0005646758    1.669    0.401
       133 -11.2474    239.9922     20.6918   5.4290571810e+01   2.4711835650e+01    0.2503244    0.1824289 -83.57 0.0006544362    1.087    0.080
       134  -9.5812     76.9687     21.0000   8.0518352891e+01   5.9842347762e+01    0.2000757   0.05989577  50.31 0.0008031859    2.948    0.661
       135 -10.5487    134.0967     17.9830   6.6422900481e+01   4.8332642567e+01     0.191634    0.1603636  67.02 0.0005146133    1.049    0.047
       136  -9.9630     89.2534     18.1804   7.6111613056e+01   5.7799122141e+01    0.2156435    0.1532709  78.06  0.001217594    2.055    0.513
       137 -10.4846    127.0378     14.9818   6.6820590118e+01   5.0182989742e+01    0.2057601    0.1263044  38.53 0.0007966429    1.694    0.410
       138 -11.2423    109.0005     13.0049   6.9752667479e+01   5.4254401079e+01    0.1856775    0.1432487 -77.47  0.001135889    1.729    0.422
       139 -10.0188      2.5066    240.4714   1.4525501405e+02   2.2684645892e+01    0.1173188   0.08402907  77.20  0.000223296    1.027    0.027
       140 -10.6552     72.2225    229.2045   1.3054813847e+02   1.6597761864e+01     0.246838     0.194266  85.34 0.0006741401    1.176    0.149
       141 -11.0152     12.7958    227.3362   1.4249577927e+02   2.4439204950e+01    0.2395736    0.1668582 -87.08 0.0005746444    1.165    0.142
       142 -10.3694    104.4573    225.4927   1.2300438023e+02   1.2426961406e+01    0.2827197    0.1360544 -60.92  0.001213244    2.197    0.545
       143 -10.9321     95.8916    224.8260   1.2482134453e+02   1.3960099224e+01    0.3485318    0.1844966  63.07  0.001447326    2.385    0.581
       144 -10.3921    185.2963    223.0421   1.0487863510e+02  -9.1318203761e-01    0.2848288    0.1667858  37.16  0.001095205    1.640    0.390
       145 -11.6525    226.7286    221.5849   9.6379619996e+01  -7.2133403274e+00    0.2599702    0.1866394 -40.26   0.00150576    1.394    0.283
