#   1 NUMBER                 Running object number                                     
#   2 MAG_AUTO               Kron-like elliptical aperture magnitude                    [mag]
#   3 X_IMAGE                Object position along x                                    [pixel]
#   4 Y_IMAGE                Object position along y                                    [pixel]
#   5 X_WORLD                Barycenter position along world x axis                     [deg]
#   6 Y_WORLD                Barycenter position along world y axis                     [deg]
#   7 A_WORLD                Profile RMS along major axis (world units)                 [deg]
#   8 B_WORLD                Profile RMS along minor axis (world units)                 [deg]
#   9 THETA_WORLD            Position angle (CCW/world-x)                               [deg]
#  10 FWHM_WORLD             FWHM assuming a gaussian core                              [deg]
#  11 ELONGATION             A_IMAGE/B_IMAGE                                           
#  12 ELLIPTICITY            1 - B_IMAGE/A_IMAGE                                       
         1 -14.4211    148.3784     61.8009   8.7865191022e+01   3.9732671971e+01     1.286697     1.046749 -11.00  0.001113607    1.282    0.220
         2 -14.8324    159.1810     47.1905   8.0768309268e+01   3.9311293340e+01     1.430127     1.041169 -25.55  0.003787129    1.355    0.262
         3 -15.0121    171.6728     16.3419   6.8467345202e+01   3.9868518161e+01     2.046248     1.107908  51.22  0.009230561    1.837    0.456
         4 -14.1887    189.4787     14.5514   6.5829906193e+01   3.5573925376e+01    0.8829058    0.6118796 -79.09  0.003635858    1.592    0.372
         5 -11.4856    151.2548    236.4145   1.2379340457e+02   9.1563295427e+00    0.2249466    0.1584957  23.97 0.0006405712    1.131    0.116
         6 -20.3075     81.1814    177.9205   1.3168086072e+02   2.8244973325e+01     14.22088     7.036268 -67.19   0.07019848    2.266    0.559
         7 -10.9418     20.7358    195.3955   1.4678918672e+02   3.1199360219e+01     0.129746    0.1110208  47.79  0.000537088    1.172    0.147
         8 -12.5072    202.0839    166.3924   1.0315897776e+02   1.1436964038e+01    0.5927893    0.3993086   1.45  0.002702206    1.499    0.333
         9 -13.1695    204.3467    175.4658   1.0445847128e+02   9.8041683391e+00    0.5115454    0.3980466  11.66  0.001160647    1.055    0.052
        10 -12.2903    196.9832    176.5768   1.0603884842e+02   1.0802552888e+01    0.3411022    0.2517459  26.06 0.0009793137    1.192    0.161
        11 -13.8974    192.4415    163.7310   1.0447724264e+02   1.3410626442e+01     1.221183    0.5089988 -46.24  0.002160778    3.335    0.700
        12 -12.1578    163.6943    169.7675   1.1146899848e+02   1.7251387988e+01    0.2705497    0.1682623  43.57  0.001119744    1.619    0.382
        13 -12.3973    230.5026    167.7295   9.8394272587e+01   6.8133611337e+00    0.3882864    0.1755087 -40.63  0.001815424    2.757    0.637
        14 -11.2706    151.9093    250.2106   1.2522604235e+02   7.3350358698e+00    0.1919428    0.1136856  27.42 0.0004054494    1.285    0.222
        15 -10.5676      5.8117    162.1751   1.4858893170e+02   3.9091559292e+01    0.1741931    0.1231298  61.90 0.0007404343    1.182    0.154
        16 -10.7688     28.2807    234.3686   1.4700093778e+02   2.3632315149e+01    0.1086253   0.07602009  77.22 0.0005803709    1.352    0.260
        17 -11.0925     13.4051    239.9840   1.4985664884e+02   2.4029797504e+01    0.1560608     0.104917  84.65  0.001105847    1.464    0.317
        18 -10.2593     21.7220    232.1318   1.4811416604e+02   2.4583404808e+01   0.09229802   0.04580195  43.61 0.0001984713    1.456    0.313
        19 -10.8317    176.8444    155.0006   1.0586995751e+02   1.7444596850e+01    0.1867636    0.1825362  21.28 0.0005650732    1.285    0.222
        20 -13.5673    161.1572    152.9301   1.0880040872e+02   2.0558552093e+01    0.4657012    0.3466972  35.19  0.001636574    1.259    0.205
        21 -10.4010     17.6428    154.1332   1.4524693403e+02   3.9973168369e+01    0.2158155    0.1404289 -53.38 0.0004111307    1.739    0.425
        22 -10.7352     18.2898    149.7158   1.4479164309e+02   4.0905555530e+01    0.3099062    0.1657068 -56.38  0.001441644    1.982    0.495
        23 -12.5473    174.1609    148.6372   1.0512472220e+02   1.8975957142e+01    0.3828409     0.297687 -39.47  0.001264375    1.400    0.286
        24  -6.4302     32.4859    221.6608   1.4565731700e+02   2.5370788823e+01    0.2780668    0.1775855 -48.72  0.001871265    2.272    0.560
        25 -11.4734    218.1495    219.3923   1.0941332264e+02   2.4076007218e+00    0.2504284    0.1361018 -40.34  0.001470044    2.561    0.610
        26 -11.3725    171.6715    137.9929   1.0337037447e+02   2.1247379299e+01    0.1990961    0.1751098 -12.71 0.0004700514    1.084    0.078
        27 -10.8152     24.5572    215.8874   1.4693632696e+02   2.7097842059e+01    0.1425659    0.1101081  41.70  0.001107141    1.187    0.158
        28 -13.1582    160.7124    127.9971   1.0351733490e+02   2.5119535385e+01    0.4598839     0.404678 -55.67  0.001785148    1.375    0.273
        29 -12.4444    115.0301    249.8524   1.3191772220e+02   1.1918467698e+01    0.1568088    0.1453193  19.87 0.0008403754    1.264    0.209
        30 -13.1744     11.5252    205.9124   1.4910681050e+02   2.9994850694e+01    0.3903759    0.2477062  17.55  0.002034121    1.936    0.483
        31 -11.1288    167.5163    112.7951   9.8325566565e+01   2.6503490833e+01    0.3301272    0.2559243 -72.46  0.001229934    1.993    0.498
        32 -13.2715    138.7097    200.3362   1.2167417964e+02   1.6128268239e+01    0.7890144     0.304604  41.87  0.002585347    2.317    0.568
        33 -10.8685    205.4296    110.1723   9.0221896851e+01   1.9234638570e+01    0.2948229    0.1911432  34.94  0.001005956    1.587    0.370
        34 -11.9739     27.3171    105.8217   1.3800142328e+02   5.0590559041e+01    0.3384526    0.2498753  -5.64  0.001102531    1.717    0.418
        35 -13.4886    141.3024    198.4270   1.2086254184e+02   1.6056340642e+01    0.8680971    0.4489513  26.07  0.004350211    1.895    0.472
        36 -12.6974     40.6537     94.7084   1.3163768439e+02   5.2165092012e+01    0.5318192    0.3835671  -5.23  0.001904249    1.755    0.430
        37 -10.6886     24.7740    202.8699   1.4630280094e+02   2.9437209201e+01    0.1386899     0.121793  73.16 0.0002823641    1.168    0.144
        38 -10.7736     29.7459    200.5973   1.4515695912e+02   2.9415806095e+01    0.1445538    0.1287291 -85.60 0.0007757879    1.265    0.209
        39 -11.6789      5.9581     89.0668   1.4355523788e+02   5.6086273879e+01    0.5557858    0.2215622 -15.91  0.002168816    4.196    0.762
        40 -11.1199    103.2529     81.9631   1.0661668388e+02   4.5917159880e+01    0.2432002    0.2110808  36.25 0.0004916894    1.174    0.149
        41 -10.6254    143.0221     81.5206   9.5367914138e+01   3.7535426701e+01    0.2418631    0.2016967 -31.58 0.0005085384    1.172    0.147
        42 -10.0292    155.9104    247.5077   1.2420696121e+02   7.1627954048e+00    0.1517146   0.08114482  32.07 0.0002769238    1.382    0.276
        43 -11.9760    127.5159    246.0799   1.2925843953e+02   1.0899743157e+01    0.2755445     0.158067  41.13  0.001555307    1.404    0.288
        44 -13.2961    163.5075     38.1036   7.6944463729e+01   3.9454184757e+01     0.491298    0.4543987 -33.62 0.0008129584    1.073    0.068
        45 -11.1371     13.3867     59.8808   1.3638793228e+02   6.2900569675e+01    0.1873636    0.1739686  56.98 0.0004619405    1.254    0.203
        46 -11.9820    162.9093    244.6227   1.2261287103e+02   6.6278527622e+00    0.2765408    0.2171407   1.84  0.001136399    1.292    0.226
