#   1 NUMBER                 Running object number                                     
#   2 MAG_AUTO               Kron-like elliptical aperture magnitude                    [mag]
#   3 X_IMAGE                Object position along x                                    [pixel]
#   4 Y_IMAGE                Object position along y                                    [pixel]
#   5 X_WORLD                Barycenter position along world x axis                     [deg]
#   6 Y_WORLD                Barycenter position along world y axis                     [deg]
#   7 A_WORLD                Profile RMS along major axis (world units)                 [deg]
#   8 B_WORLD                Profile RMS along minor axis (world units)                 [deg]
#   9 THETA_WORLD            Position angle (CCW/world-x)                               [deg]
#  10 FWHM_WORLD             FWHM assuming a gaussian core                              [deg]
#  11 ELONGATION             A_IMAGE/B_IMAGE                                           
#  12 ELLIPTICITY            1 - B_IMAGE/A_IMAGE                                       
         1 -14.4231    149.5167     60.3123   8.8428813992e+01   3.9831997093e+01     1.648091     1.219178  16.58  0.004843173    1.498    0.332
         2 -14.7603    161.0513     44.8509   8.0535908749e+01   3.9375842053e+01     1.357486     1.074835  -3.68  0.003888849    1.278    0.218
         3 -14.8048    173.4615     13.5080   6.7119795612e+01   3.9909487849e+01       1.4615      1.34164 -25.35  0.005259661    1.132    0.117
         4 -13.6830    189.0070     13.5074   6.4852796389e+01   3.5738026038e+01    0.7890126    0.5493182 -57.33  0.002879762    1.695    0.410
         5 -12.8827    197.8132      7.1941   6.1666544915e+01   3.3978383601e+01    0.4327376    0.2415326 -56.18  0.001800037    2.206    0.547
         6 -12.6319    125.3770    238.7868   1.2795590996e+02   1.3965424498e+01    0.2541191    0.1781667 -61.77  0.001542836    1.914    0.477
         7 -20.2105     79.5169    177.1542   1.3031525676e+02   2.9527364317e+01     13.36702     6.177231 -68.23    0.0722749    2.327    0.570
         8 -11.7320     12.9375    240.4915   1.4566111026e+02   2.6240388549e+01    0.1329037    0.1017973 -77.23   0.00129554    1.647    0.393
         9 -10.7972    150.9173    239.7645   1.2382682022e+02   1.0336245349e+01    0.1501376     0.127194  40.55 0.0003982956    1.172    0.147
        10 -11.2037    161.2950    238.5672   1.2198076345e+02   9.0062657549e+00    0.2736086    0.1438723  45.33  0.001476324    1.482    0.325
        11 -12.1484    187.8501    174.7199   1.0817625411e+02   1.2857940940e+01    0.3020222    0.2188302 -76.72    0.0014437    3.181    0.686
        12 -11.0969     28.1517    237.5329   1.4333122168e+02   2.5295606067e+01    0.1151209   0.08122645  68.50 0.0002956494    1.106    0.096
        13 -12.0104     21.6659    235.6157   1.4422605227e+02   2.6164831616e+01    0.1447955    0.0929061  81.11  0.001288167    1.338    0.253
        14 -12.4512    230.4013    167.4358   9.9069462483e+01   6.2543621495e+00    0.3864332    0.1974693 -37.48  0.001914028    2.411    0.585
        15 -10.7119     13.3902    236.3162   1.4546777029e+02   2.6794534100e+01   0.08281442   0.05820086  59.56 0.0002639307    1.103    0.093
        16 -11.9839    189.9082    158.1306   1.0469549802e+02   1.4831688299e+01     0.496356    0.3513382   4.42  0.001831651    1.576    0.365
        17 -10.8643    139.7169    249.6365   1.2662517791e+02   1.0726448495e+01    0.2214434    0.1428682 -70.41  0.001597022    2.487    0.598
        18 -11.1366    162.9285    233.4868   1.2113698251e+02   9.3553100970e+00    0.1707603   0.08058608  40.48 0.0005098176    1.551    0.355
        19 -13.2630    162.5031    154.5032   1.0953050070e+02   2.0494376181e+01    0.3702592    0.3054012 -11.27  0.001193306    1.342    0.255
        20 -13.4114    160.3174    152.3087   1.0957323771e+02   2.1259141221e+01    0.4745321    0.3157048  19.75  0.001806261    1.768    0.435
        21 -10.7017      4.7296    233.5135   1.4664470067e+02   2.7928576751e+01   0.08210891    0.0555147  72.52 0.0002391234    1.136    0.119
        22 -10.9673    218.4622    219.9894   1.1005843174e+02   2.5238603095e+00    0.2034633    0.1044443 -37.27  0.001198936    2.637    0.621
        23  -9.7335    176.9710    154.9618   1.0664610821e+02   1.7729753813e+01    0.1622687    0.1386877  26.55 0.0003014986    1.008    0.008
        24 -10.8476     16.5589    154.1753   1.4131296111e+02   4.0356388940e+01    0.2923834    0.2058779 -18.21  0.001956397    2.574    0.611
        25 -12.4950    174.1657    148.6530   1.0597187434e+02   1.9250537670e+01    0.3602042    0.3023942 -40.38  0.001300585    1.366    0.268
        26 -12.4606     27.3915    145.7647   1.3842984252e+02   4.1129718484e+01    0.3636838    0.2642854 -79.20  0.002579476    1.205    0.170
        27 -11.0174     18.2546    220.5804   1.4419617002e+02   2.8699899721e+01    0.1126738   0.07684112  87.13 0.0002539849    1.326    0.246
        28 -12.2065     23.7660    217.2868   1.4319702722e+02   2.8715369150e+01    0.1477079    0.1158541  79.38  0.001195713    1.217    0.178
        29 -11.4542    172.2233    138.8419   1.0434889688e+02   2.1215941903e+01    0.2012517     0.190608  48.93 0.0006020411    1.203    0.169
        30  -9.7575    142.0000    238.0145   1.2512516558e+02   1.1790536187e+01    0.1218971    0.1033914   3.48 0.0003236388    1.546    0.353
        31 -11.8507    136.1897    241.8209   1.2645956751e+02   1.2127893349e+01    0.4530666    0.2283235  39.55    0.0015597    1.469    0.319
        32 -13.0863    160.7548    127.9428   1.0445265069e+02   2.5347701747e+01    0.4361096    0.4117775  81.82  0.001829448    1.280    0.219
        33 -11.2283     30.6708    206.2290   1.4156160940e+02   2.9835422403e+01    0.1527032    0.1405738 -57.17 0.0008306372    1.636    0.389
        34 -11.8802    140.6094    120.5027   1.0740947982e+02   3.0679589836e+01    0.3807185    0.2502585  64.40  0.001289638    2.112    0.526
        35 -13.0268     11.7024    205.9644   1.4469220461e+02   3.1557666655e+01    0.3857739    0.1977928  31.02   0.00277922    2.182    0.542
        36 -11.1179    167.4239    112.5549   9.9348554058e+01   2.6665306147e+01     0.307489    0.2420296  87.26  0.001210508    1.988    0.497
        37  -9.8789     28.8626    201.4873   1.4163222256e+02   3.0781423887e+01    0.2001358   0.09862059 -50.49   0.00117627    3.464    0.711
        38 -10.7667    205.3655    110.2171   9.0950207597e+01   1.8811160606e+01    0.3070778    0.1911737  40.22 0.0008809869    1.519    0.342
        39 -10.4735     21.4287    107.9164   1.3644288633e+02   4.9544066183e+01    0.1539147    0.1407608  78.91 0.0003181142    1.177    0.150
        40 -10.2216      5.4935    104.4862   1.4032133706e+02   5.1314438482e+01    0.1110468    0.0856364 -81.81 8.847279e-05    1.034    0.033
        41 -11.9612     26.8707     98.0626   1.3380762068e+02   5.1308629393e+01    0.3619108     0.313446 -36.53  0.002193921    1.380    0.276
        42 -11.9882    139.4936    199.7577   1.2121726471e+02   1.7286946348e+01    0.3611043     0.239938  40.48  0.001362916    1.221    0.181
        43 -11.8599     44.9086     93.0163   1.2779433646e+02   5.0891294267e+01    0.3540517    0.2410212  -1.57  0.001630601    2.161    0.537
        44 -11.1960     10.0463     87.4505   1.3741499930e+02   5.4773365005e+01    0.2327211    0.1326636  -9.48  0.001324802    2.741    0.635
        45 -12.0546    135.6861    237.0090   1.2607571043e+02   1.2787633030e+01    0.2008076    0.1632934  81.62 0.0006610794    1.573    0.364
        46 -10.9181    121.9852    198.4839   1.2436288140e+02   2.0101925108e+01    0.2267237    0.1665171 -39.83  0.001505514    1.793    0.442
        47 -10.6368    143.3462     81.0006   9.6471560611e+01   3.7608012002e+01    0.2189985    0.1913053 -26.05 0.0005155194    1.120    0.107
        48 -10.9631    127.1764    248.9484   1.2857216055e+02   1.2474321912e+01      0.13451    0.1025803  44.38 0.0003139355    1.079    0.073
        49 -10.7038    163.5292    248.0392   1.2263739360e+02   7.6434798802e+00    0.1180853    0.1051316 -35.22  0.000803582    1.576    0.365
        50 -13.1550    164.6637     36.4437   7.6843515965e+01   3.9600895815e+01      0.45966    0.4021894   8.36  0.000816906    1.098    0.089
        51 -10.8895     13.3549     59.8688   1.3254214574e+02   6.0742764748e+01    0.1692477    0.1506899  81.33 0.0004765822    1.259    0.206
        52 -10.3617    145.4348     34.0652   8.0051189014e+01   4.4848395475e+01    0.2352921    0.1970074  46.65 0.0004299473    1.185    0.156
        53 -11.6446    146.4006    188.6083   1.1839586710e+02   1.7870114815e+01     0.264861    0.1748266   7.44  0.001379708    2.436    0.589
        54 -11.6164     34.5450    187.5432   1.3985903501e+02   3.2622127372e+01    0.2391542    0.2346872  23.30  0.001037543    1.507    0.336
