#   1 NUMBER                 Running object number                                     
#   2 MAG_AUTO               Kron-like elliptical aperture magnitude                    [mag]
#   3 X_IMAGE                Object position along x                                    [pixel]
#   4 Y_IMAGE                Object position along y                                    [pixel]
#   5 X_WORLD                Barycenter position along world x axis                     [deg]
#   6 Y_WORLD                Barycenter position along world y axis                     [deg]
#   7 A_WORLD                Profile RMS along major axis (world units)                 [deg]
#   8 B_WORLD                Profile RMS along minor axis (world units)                 [deg]
#   9 THETA_WORLD            Position angle (CCW/world-x)                               [deg]
#  10 FWHM_WORLD             FWHM assuming a gaussian core                              [deg]
#  11 ELONGATION             A_IMAGE/B_IMAGE                                           
#  12 ELLIPTICITY            1 - B_IMAGE/A_IMAGE                                       
         1 -12.3253    192.7776     33.7626   5.6576562798e+01   3.2347477037e+01     1.054279    0.9748771  52.48  0.003445053    1.086    0.080
         2 -12.6662    202.2227     21.7506   5.1688313514e+01   3.1284723843e+01     1.057517    0.8063234  12.79  0.002061403    1.573    0.364
         3  -9.3002     37.2041      8.4072   8.8482822707e+01   7.0064757525e+01    0.1523122    0.1125096  41.91 0.0009515767    1.752    0.429
         4  -9.9016     49.8820      2.4015   7.9390307019e+01   6.9170313248e+01    0.4168835    0.1882433 -14.48  0.001596271    3.618    0.724
         5  -7.5114     86.2798    238.3490   1.2014979017e+02   1.7916576630e+01   0.08732496   0.08079585  20.29 0.0007011559    1.643    0.391
         6 -18.2997      8.2529    142.4832   1.2797787437e+02   4.4282760452e+01     16.53285     2.826774 -78.94   0.05432605    5.575    0.821
         7  -8.0552    115.0000    193.9813   1.1047680281e+02   2.0976417192e+01    0.1787218   0.06949182 -57.23 0.0008042815    2.955    0.662
         8  -9.2064     72.1130    189.4511   1.1848602729e+02   2.8037329239e+01    0.2552125    0.1892435  58.71  0.001735838    1.111    0.100
         9 -10.0135     92.6733    235.6002   1.1885106752e+02   1.7477212195e+01    0.2164761    0.1575713  78.31 0.0005308021    1.359    0.264
        10 -10.4844     74.7099    180.1138   1.1700419851e+02   2.9467714691e+01    0.3761033    0.2511925 -44.52  0.001793275    2.153    0.535
        11 -10.5170     78.9697    174.5192   1.1549032904e+02   2.9975729618e+01    0.2944396    0.2815338  62.81  0.001719429    1.271    0.213
        12  -8.2040     99.1179    180.5469   1.1199616447e+02   2.5877495927e+01    0.1869313    0.1078091  43.14  0.001015232    1.551    0.355
        13  -8.6231    182.4731    234.4427   1.0335274517e+02   4.2824168334e+00    0.1146319   0.08549076  36.16 0.0002190433    1.008    0.008
        14 -10.6519     44.8093    173.1855   1.2252214182e+02   3.4519558773e+01    0.4010003    0.2086962  52.61  0.002370782    1.664    0.399
        15  -8.4751    104.3364    171.9084   1.0975082535e+02   2.6712677090e+01    0.2405419    0.1166465 -68.03  0.001096095    2.519    0.603
        16  -8.5704    196.0480    170.3205   9.0837575418e+01   1.0476767286e+01    0.2420212    0.1748321   5.13  0.001042437    1.620    0.383
        17 -11.3995     86.0835    164.4384   1.1270660628e+02   3.0971429326e+01    0.9305573    0.3426782  55.17  0.001077688    3.264    0.694
        18 -12.4517     58.3623    130.7455   1.1464843967e+02   4.1897692049e+01     1.356626    0.4622329 -75.28  0.004520351    4.362    0.771
        19  -7.8975    140.8876    157.8116   9.9605908662e+01   2.3073281455e+01    0.1815248    0.1482828  67.81 0.0004004673    1.294    0.227
        20  -9.2764    169.7524    233.2597   1.0535887001e+02   6.4022589209e+00    0.2117763    0.1095346  43.22 0.0008764825    1.475    0.322
        21  -8.1216    174.6851    149.3139   9.0865302547e+01   1.7990833664e+01     0.136028    0.1112848  83.99 0.0003368823    1.641    0.391
        22  -8.3169    134.6735    149.3220   9.9407620256e+01   2.5847935221e+01    0.2219511    0.1438687 -55.47  0.001100365    1.683    0.406
        23  -9.3529    105.4374    141.5536   1.0473774603e+02   3.2649433257e+01      0.45675    0.2799296 -28.19  0.001911234    3.007    0.667
        24 -10.4820     93.1984    142.1566   1.0777369728e+02   3.4517866245e+01    0.2524339    0.2327057 -50.67 0.0004369408    1.244    0.196
        25  -9.6704     84.3942    234.0921   1.2013630748e+02   1.8810172685e+01    0.2081581     0.166048  75.30 0.0007313938    1.198    0.166
        26  -8.5475     71.3158    229.9760   1.2204969243e+02   2.1137389401e+01     0.149914    0.1112343  63.63 0.0007026969    1.042    0.040
        27 -10.6729     72.4955    134.8419   1.1168851277e+02   3.9155240005e+01    0.3576015    0.3076186  75.06  0.002271031    1.068    0.064
        28 -10.9528    163.0899    226.3833   1.0564587366e+02   8.3256357897e+00    0.3276601    0.2200107  39.29   0.00160133    1.166    0.142
        29 -10.5672     92.7518    157.6044   1.1026920813e+02   3.1362983383e+01    0.4936438    0.3448064 -32.53  0.001945618    2.218    0.549
        30  -9.5327    113.4698    131.6145   1.0093946771e+02   3.3335375688e+01     0.275357    0.2369208   5.48 0.0008339924    1.505    0.336
        31  -9.2538    101.0802    127.9041   1.0328289409e+02   3.6286569717e+01    0.2732285     0.204709 -40.36 0.0006667803    1.535    0.348
        32  -9.3719     71.8158    127.1779   1.1064373883e+02   4.0939283978e+01    0.1779308    0.1517181 -44.68  0.001082417    1.360    0.265
        33  -8.6276    105.9688    131.0176   1.0266432758e+02   3.4783862535e+01    0.2217537    0.1996205  81.96  0.001306046    1.070    0.066
        34  -8.9764    115.0000    122.9215   9.8778269087e+01   3.4888931466e+01    0.2323798   0.07951946 -50.92 0.0007697316    2.942    0.660
        35  -8.4786    109.1600    120.0931   9.9648860268e+01   3.6555859183e+01    0.2004961     0.189176 -23.48 0.0003295078    1.211    0.175
        36 -12.0565     74.8091    160.5047   1.1470777888e+02   3.3371514625e+01    0.5419682    0.4016651 -57.83  0.001234988    1.470    0.320
        37  -8.1096    168.1042    112.7336   8.3958116440e+01   2.5897606673e+01    0.2552868    0.1697504 -83.15 0.0009531728    2.923    0.658
        38  -9.0694    119.9491    111.4782   9.4965838901e+01   3.6364878622e+01    0.2286411    0.1408438  45.54  0.001041235    1.620    0.383
        39  -8.2475    205.4231    110.2645   7.5951147940e+01   1.7885848775e+01     0.196526    0.1349144 -40.68 0.0007006213    1.504    0.335
        40 -10.4678    151.7665    228.3130   1.0786246440e+02   9.8500964058e+00    0.2783825    0.1853941  46.68  0.001846516    1.181    0.153
        41  -7.9041     66.5477    225.5580   1.2254691207e+02   2.2442047023e+01    0.1582553   0.09138118  63.56 0.0004749313    1.424    0.298
        42 -12.3225     68.1742    144.3760   1.1413139103e+02   3.7666277077e+01    0.9271477    0.5519682  78.90  0.004063927    1.962    0.490
        43  -8.5878     63.4896    223.5338   1.2293004090e+02   2.3149490572e+01    0.1917484   0.09321488  50.72 0.0005716435    1.549    0.355
        44  -8.1905    110.0000    222.9870   1.1467743472e+02   1.6969766213e+01    0.1577838   0.06402987 -59.94  0.000811336    3.004    0.667
        45  -8.0928     65.2426     70.3835   1.0044466989e+02   5.4538204044e+01    0.1773405    0.1240118  48.27  0.000671637    1.652    0.394
        46  -9.2808     71.6373    204.2118   1.1994078154e+02   2.5413649472e+01     0.162642    0.1151974  60.01 0.0007125448    1.112    0.101
        47  -9.4523    161.2719     62.6485   7.1265391996e+01   3.6380937668e+01    0.3284219    0.2760139 -89.41 0.0008781272    1.404    0.288
        48  -9.5813    194.1626    194.4062   9.5437868358e+01   7.4161125608e+00    0.4067231    0.2964939 -28.42  0.002513828    1.574    0.365
        49 -11.8240    182.9480     41.4273   6.0474397534e+01   3.3940974138e+01     1.037427    0.5905867 -15.64  0.003026868    2.070    0.517
        50  -8.9974    139.3910    249.2007   1.1225428922e+02   8.9827779393e+00    0.1248661   0.09809614 -87.96 0.0005850842    1.691    0.409
        51  -9.1019    133.6122    246.6764   1.1296160548e+02   1.0147080078e+01    0.1658272    0.1036193 -48.57  0.001138715    2.205    0.546
        52  -8.7587    102.6006    239.7632   1.1752125118e+02   1.5506578233e+01    0.1328855   0.09191469  87.32 0.0009494582    1.652    0.395
