#   1 NUMBER                 Running object number                                     
#   2 MAG_AUTO               Kron-like elliptical aperture magnitude                    [mag]
#   3 X_IMAGE                Object position along x                                    [pixel]
#   4 Y_IMAGE                Object position along y                                    [pixel]
#   5 X_WORLD                Barycenter position along world x axis                     [deg]
#   6 Y_WORLD                Barycenter position along world y axis                     [deg]
#   7 A_WORLD                Profile RMS along major axis (world units)                 [deg]
#   8 B_WORLD                Profile RMS along minor axis (world units)                 [deg]
#   9 THETA_WORLD            Position angle (CCW/world-x)                               [deg]
#  10 FWHM_WORLD             FWHM assuming a gaussian core                              [deg]
#  11 ELONGATION             A_IMAGE/B_IMAGE                                           
#  12 ELLIPTICITY            1 - B_IMAGE/A_IMAGE                                       
         1 -12.5688    248.8309    132.8046   8.2877102745e+01   6.7047028056e+00     1.072636    0.5965654 -26.18    0.0058795    1.526    0.345
         2 -13.0652    194.8968     31.7294   6.5121541145e+01   3.1874835995e+01     1.064392    0.9126468   9.80  0.005961305    1.442    0.307
         3 -13.8834    209.0096     14.7839   5.9076078080e+01   3.0327340693e+01      1.41996     1.042744  23.84  0.007644062    1.914    0.477
         4 -11.9155      2.2475      4.9604   1.2951556809e+02   7.8444499391e+01    0.7622133     0.267835 -54.68  0.003616648    2.083    0.520
         5 -10.2695    222.9800    244.5129   1.0668618328e+02  -3.2536956078e+00    0.1637598    0.0793011  27.72 0.0006095879    1.567    0.362
         6 -11.1252    185.1058    250.3078   1.1415734481e+02   7.0952658791e-01    0.4025546    0.1168941  33.91   0.00188392    2.542    0.607
         7 -11.7593    149.7065    248.1886   1.2064634565e+02   5.5476961824e+00    0.3907238    0.3180242 -33.67  0.002918817    1.603    0.376
         8 -11.4046    133.7844    248.7621   1.2386443217e+02   7.5727320590e+00    0.5387349    0.1922677  35.21  0.002675332    1.983    0.496
         9 -13.0270    124.8247    243.0002   1.2508590022e+02   9.5850145706e+00    0.8731629    0.6885837   7.60  0.006104624    1.400    0.286
        10 -11.1918    109.6733    247.2675   1.2859578930e+02   1.0948269729e+01    0.3850661    0.3185526 -80.66  0.002158723    1.668    0.401
        11  -9.9887    102.9378    247.3202   1.2997725791e+02   1.1808578470e+01    0.2583743    0.1999308  37.92 0.0009728845    1.071    0.066
        12 -10.7481     98.8541    246.8827   1.3077695140e+02   1.2397125864e+01    0.4301542    0.2534584  72.67  0.002457589    2.523    0.604
        13 -11.1186     87.9075    248.4168   1.3313744247e+02   1.3533369994e+01    0.4731654    0.2385613  39.07  0.001074248    1.393    0.282
        14 -10.3128     81.5707    246.7116   1.3430892932e+02   1.4581056767e+01    0.3667145    0.2139727  71.23  0.002214832    2.137    0.532
        15 -12.7279     62.1681    245.2581   1.3818355273e+02   1.7117175067e+01     1.571213    0.5686475  30.57  0.007608421    2.202    0.546
        16 -12.4009     63.2096    221.4140   1.3644994023e+02   2.1171661302e+01      1.63856    0.6037767 -82.10  0.006984766    3.948    0.747
        17 -13.3801     11.9881    212.8113   1.4731254875e+02   2.8154832423e+01     1.152883     0.949759  29.38  0.005953626    1.375    0.272
        18 -13.4406     11.8508    205.7455   1.4714052196e+02   2.9557561584e+01     1.608339     1.031206  40.26   0.01068465    1.270    0.213
        19 -13.0364     13.9257    238.8751   1.4759385465e+02   2.3192797861e+01    0.6724424    0.4689618  41.34  0.001335485    1.174    0.148
        20 -13.6121     27.9017    247.0517   1.4510201820e+02   2.0474289197e+01     1.218463    0.7093756  54.42  0.008588525    1.255    0.203
        21 -13.4650     40.3301    243.8764   1.4253036812e+02   1.9747079485e+01     0.960786    0.7415023  57.29  0.007399996    1.145    0.126
        22 -13.1920     35.7560    227.9506   1.4278575538e+02   2.3023878022e+01    0.5556062    0.4171111  34.48   0.00230205    1.259    0.206
        23 -14.7315     42.9743    218.6425   1.4077532685e+02   2.3998479875e+01     4.945378        1.671  58.41   0.02209632    2.824    0.646
        24 -10.2597     91.4312    241.5389   1.3187597057e+02   1.4181466553e+01    0.2702386    0.1757733  58.07  0.001217391    1.548    0.354
        25 -10.4237     90.0463    238.1584   1.3189259489e+02   1.4906491125e+01    0.2252389    0.1935405 -71.67 0.0008204304    1.514    0.339
        26 -10.7436     79.5802    226.0328   1.3316758830e+02   1.8311040576e+01     0.373642     0.290431  83.68  0.001793275    1.483    0.326
        27  -9.9536     77.2963    220.9079   1.3325987903e+02   1.9524989690e+01    0.2323979    0.1692961  45.47 0.0004909959    1.068    0.064
        28 -12.4884    135.5462    241.0300   1.2268617932e+02   8.4281302199e+00    0.5650995    0.3298938  23.58  0.001975444    1.484    0.326
        29 -11.7936    135.0741    236.7396   1.2230769553e+02   9.1158039442e+00    0.5013095    0.2329947  23.85  0.001841097    2.110    0.526
        30 -12.1873    134.1691    232.5251   1.2201795206e+02   9.8682495475e+00    0.4570799    0.2831262 -32.69  0.002122808    2.180    0.541
        31 -11.7732    165.4745    241.6893   1.1679407054e+02   4.3016101676e+00    0.4555005    0.1785199  40.98  0.002244934    2.306    0.566
        32  -9.5850     84.4673    241.9732   1.3336306894e+02   1.4986556810e+01    0.2626146    0.1786113  12.07  0.001608486    1.860    0.462
        33  -8.5469     83.6336    238.2905   1.3325747946e+02   1.5695150816e+01     0.128139   0.06473423  50.62 0.0007025594    1.708    0.415
        34 -10.6152    245.1315    240.8365   1.0252899024e+02  -5.3797195417e+00    0.1548686   0.08879134   6.77  0.001084477    1.343    0.255
        35 -10.5778    173.0615    240.7146   1.1520473781e+02   3.4166078360e+00    0.1882311     0.153717  48.27  0.001327005    1.691    0.409
        36 -10.6478    116.6018    238.6828   1.2635230168e+02   1.1336081194e+01    0.3364526    0.2332121 -20.65  0.001851481    2.131    0.531
        37 -10.8182    143.3843    249.4396   1.2202915652e+02   6.2149965518e+00    0.2816163    0.1639298  46.66  0.001312979    1.768    0.434
        38 -11.3712    104.4641    238.1787   1.2885113785e+02   1.3031573708e+01    0.5684695    0.3576455 -24.12  0.003089129    2.783    0.641
        39  -9.5460    172.9874    235.8148   1.1458459139e+02   4.0513427825e+00     0.161277    0.1188865  20.23 0.0002356107    1.021    0.021
        40 -10.6680    166.0062    235.1386   1.1586208670e+02   5.0878868777e+00    0.1898395    0.1632312  -3.03  0.001393856    1.282    0.220
        41 -10.5843    115.4565    250.4862   1.2771427089e+02   9.7252425246e+00    0.4064424    0.1389101  34.09 0.0008861808    2.062    0.515
        42 -11.7438    122.4438    233.3656   1.2457615147e+02   1.1363748613e+01    0.3569155    0.2806441  33.28  0.002129512    1.047    0.045
        43  -9.2121     78.0601    233.4909   1.3407840876e+02   1.7200072964e+01    0.1592588    0.1376809  57.18 0.0003443341    1.197    0.164
        44 -10.6998     62.9609    233.0145   1.3727567196e+02   1.9108498811e+01     0.182186    0.1364905  42.75            0    1.048    0.046
        45 -10.8967    156.7581    231.6691   1.1726437053e+02   6.8380910071e+00    0.2229319    0.1878731  -1.85  0.000388788    1.269    0.212
        46 -10.8416    142.0721    229.7255   1.2003829223e+02   9.1800005894e+00    0.3419017    0.2037758 -28.53  0.001901162    2.309    0.567
        47 -11.0584     98.8179    232.3634   1.2952070298e+02   1.4722527231e+01    0.4068564    0.2661452 -89.24  0.002133281    2.197    0.545
        48  -9.1901    180.0715    228.6514   1.1224282016e+02   4.0162880387e+00    0.2222454    0.1600629  69.78  0.001092842    3.879    0.742
        49 -10.7605     84.8596    234.3640   1.3268925459e+02   1.6197713099e+01    0.3742187     0.209762  55.11  0.001033686    1.695    0.410
        50  -9.5485    196.8057    226.1747   1.0871126115e+02   2.0636211215e+00    0.1746437    0.1322534  62.57 0.0009753475    3.060    0.673
        51 -10.0577     92.3690    225.9891   1.3034472214e+02   1.6659236828e+01    0.2712503    0.1422246  38.11 0.0008287958    1.427    0.299
        52 -10.3235     84.8085    229.5152   1.3230638754e+02   1.7033104236e+01     0.218729    0.1769856  32.34 0.0006755084    1.161    0.139
        53  -8.6216    147.2644    225.3236   1.1840807352e+02   9.0991894352e+00    0.1181287    0.0836095   4.56 0.0002332096    1.561    0.359
        54 -10.3967    129.5589    221.2982   1.2168230277e+02   1.2275557948e+01    0.2387925    0.1774007  64.62  0.001435691    1.780    0.438
        55 -10.1756    117.3358    224.2749   1.2468777655e+02   1.3531878271e+01    0.2265182    0.1749337  35.44 0.0002352962    1.014    0.014
        56 -11.0628     99.3091    223.3347   1.2856025508e+02   1.6188897257e+01    0.4041063    0.2134757  38.42  0.001058841    1.433    0.302
        57 -10.7929    160.4478    223.5483   1.1544867813e+02   7.4696801567e+00    0.2728688    0.1725642  19.44 0.0008558611    1.406    0.289
        58 -10.8777    137.9663    214.3358   1.1897544980e+02   1.2173964369e+01     0.440173    0.3083745  28.58  0.001305908    1.154    0.133
        59 -10.9071     73.0107    209.7948   1.3331633953e+02   2.2164983038e+01    0.4801212    0.2686476  16.70  0.001902531    2.315    0.568
        60 -10.5790     70.4863    218.4753   1.3460072860e+02   2.0831107010e+01    0.3838367    0.2624363 -85.90  0.001984962    1.710    0.415
        61  -9.3515     68.2382    214.6385   1.3481524539e+02   2.1833818473e+01    0.1853197    0.1498974  63.05 0.0005259233    1.174    0.148
        62 -10.6661    245.8959    219.9644   9.9262431574e+01  -3.3913751688e+00    0.2907883    0.1128114 -19.97  0.001467633    2.821    0.646
        63 -11.3352    142.3132    221.6301   1.1898120999e+02   1.0375602978e+01    0.4011531    0.2049395  33.05  0.001099318    1.524    0.344
        64  -8.9913    173.0248    218.9787   1.1226210588e+02   6.3123536327e+00    0.1463866    0.1169906  15.68 0.0003392184    1.063    0.060
        65  -9.5931    104.9137    218.8771   1.2685749095e+02   1.6193855271e+01    0.1875429    0.1470438  39.10 0.0003328097    1.020    0.020
        66 -10.2889     99.8395    217.5043   1.2785880329e+02   1.7142084242e+01    0.2238748    0.1572342 -34.49  0.001285166    1.994    0.498
        67  -9.0163     89.2814    218.3221   1.3032983479e+02   1.8431899140e+01    0.1129398   0.09266029  -1.67 0.0004367747    1.589    0.371
        68  -9.5678    110.7601    221.3049   1.2581135735e+02   1.4955224063e+01    0.2816623   0.09004605 -51.80  0.001180144    3.813    0.738
        69  -8.8117    119.1925    217.4085   1.2350101937e+02   1.4418157162e+01    0.1782028   0.09406076  40.74 0.0003000072    1.523    0.343
        70  -8.6721    159.6681    213.7905   1.1425445607e+02   9.0231726742e+00    0.1414438     0.120468 -49.55 0.0004042781    1.588    0.370
        71  -9.7874     88.1264    212.8627   1.3007747852e+02   1.9592537430e+01    0.2143142    0.1786621  85.63  0.000779342    1.381    0.276
        72  -8.5313     78.7107    214.6877   1.3241486631e+02   2.0496652460e+01       0.1119   0.09388178  -3.26 0.0005741206    1.585    0.369
        73 -10.3976    107.1653    209.5410   1.2532211859e+02   1.7542990118e+01    0.3641594     0.233049  -6.05  0.001417122    2.765    0.638
        74 -10.3501    112.4586    208.3166   1.2395639267e+02   1.6994501557e+01    0.2469742    0.1912018  41.22 0.0003557121    1.084    0.078
        75  -9.0668    134.5661    208.1952   1.1891243356e+02   1.3706335715e+01      0.16627    0.1185043 -29.63 0.0008428007    1.744    0.427
        76 -11.1391     93.1529    204.4990   1.2805162585e+02   2.0487004510e+01    0.7000303    0.3889465  46.24  0.002218175    1.528    0.345
        77 -11.1751    246.9549    206.3420   9.6901337214e+01  -2.0644509853e+00    0.3957193    0.1832212  20.26   0.00219909    2.066    0.516
        78 -11.5611     96.9150    239.7363   1.3057742562e+02   1.3768560868e+01    0.4546926     0.365793 -24.13  0.003134843    1.756    0.430
        79  -9.0693    148.8549    204.7496   1.1526644994e+02   1.2089681201e+01    0.2231386    0.1308986  -0.37 0.0009586603    2.879    0.653
        80  -8.9313    125.5461    205.5350   1.2059948043e+02   1.5537024432e+01    0.1331811    0.1079734  32.66 0.0001321482    1.004    0.004
        81 -10.0155    103.0169    202.9507   1.2553492579e+02   1.9371549722e+01    0.3430594    0.1970034  41.65  0.001456976    1.421    0.296
        82  -9.3206     74.9384    203.4374   1.3230059140e+02   2.3166000312e+01    0.3105077    0.1880907   7.31 0.0008845527    2.649    0.623
        83  -9.0341    132.9919    202.7157   1.1852092120e+02   1.4891675277e+01    0.1866595    0.1488847  31.27 0.0004500396    1.021    0.020
        84 -10.3899     84.2939    201.6339   1.2987612870e+02   2.2274856679e+01    0.2876418    0.2140563 -30.08  0.001269374    1.912    0.477
        85  -9.2994     85.9781    195.7321   1.2885032931e+02   2.3226240520e+01     0.258428    0.1830661  88.24 0.0004863077    1.683    0.406
        86 -11.3605     32.7775    201.7328   1.4221398143e+02   2.8411979107e+01    0.3553298    0.1841622  32.24 0.0002874534    1.651    0.394
        87  -8.6680    183.0228    200.2691   1.0738187234e+02   7.5152052477e+00    0.1585812   0.09381725  30.98 0.0002989128    1.414    0.293
        88  -9.0876    127.8126    199.8191   1.1931069720e+02   1.6209065395e+01    0.1715977    0.1385044  50.08 0.0004093024    1.265    0.210
        89  -9.7511    115.0908    200.1698   1.2233463476e+02   1.8099381530e+01    0.1896363    0.1583346  21.80 0.0002698331    1.171    0.146
        90 -11.1699    112.8695    230.3169   1.2629781185e+02   1.3163490704e+01    0.5115518     0.253904  30.11  0.001876009    1.637    0.389
        91  -9.3462    120.0353    199.4767   1.2107930280e+02   1.7473351594e+01    0.2044855    0.1110228  35.15 1.712129e-05    1.507    0.336
        92  -9.6890     57.5462    199.0156   1.3612867653e+02   2.6241312002e+01    0.3960642    0.1599032  48.90  0.001125921    2.053    0.513
        93 -11.3388     62.5904    194.8016   1.3455039154e+02   2.6504915880e+01    0.5233513    0.3313361  15.15  0.001385288    1.972    0.493
        94  -9.9167     57.8411    193.9475   1.3565702266e+02   2.7264502035e+01    0.7109645    0.4320076 -19.79  0.003090428    3.499    0.714
        95  -8.4593    149.7511    198.7213   1.1417414039e+02   1.2950638064e+01    0.1236754   0.09194717   4.47 0.0001747688    1.457    0.314
        96  -9.3016    134.0037    197.9609   1.1762001533e+02   1.5573036976e+01     0.198755    0.1470521  57.56 0.0005006169    1.600    0.375
        97  -9.5868     97.7227    196.3197   1.2603392345e+02   2.1430256810e+01    0.4437485    0.1889106  43.52     0.001384    1.971    0.493
        98  -9.6366    102.8347    196.0476   1.2475585493e+02   2.0730682214e+01    0.2013644    0.1730663  42.70 0.0006452816    1.044    0.043
        99 -14.0735      5.8962    245.2885   1.4926787332e+02   2.2811868754e+01     1.672254    0.8391719  89.40   0.01129512    2.056    0.514
       100  -9.1491    168.7919    196.4005   1.0968581799e+02   1.0311954357e+01    0.1778085     0.105913  25.52 0.0002408916    1.492    0.330
       101  -9.2859     38.5709    195.7643   1.4050874137e+02   2.9055044341e+01    0.2625138    0.1402717  72.61  0.001030522    1.839    0.456
       102  -8.9410     38.5560    192.4328   1.4031217503e+02   2.9762783681e+01    0.1519602    0.1443173 -45.84 9.848334e-05    1.396    0.284
       103 -10.8727     42.1604    190.1615   1.3927738028e+02   2.9865467575e+01    0.4357832    0.2306905  71.11  0.001364594    1.891    0.471
       104  -9.8753    112.9107    193.5974   1.2199843263e+02   1.9681575111e+01    0.3830379    0.2064603 -62.50  0.001385624    2.345    0.574
       105 -11.2092    105.2574    228.5424   1.2776506838e+02   1.4494383543e+01    0.4664419    0.2429236  26.50  0.001707409    1.745    0.427
       106  -8.9007    159.7294    194.3265   1.1129568431e+02   1.2090573031e+01    0.1207004    0.1008125  58.60 0.0002170337    1.578    0.366
       107  -9.1768    119.6681    193.2112   1.2031842031e+02   1.8704464734e+01    0.2746742    0.1776896  -3.83  0.001174767    2.533    0.605
       108  -9.3994     72.7853    192.9249   1.3184127074e+02   2.5596022368e+01    0.1770127    0.1623666  30.44 0.0003044858    1.202    0.168
       109  -9.4574     25.6722    192.3888   1.4344211499e+02   3.1060507241e+01    0.2278944    0.1417562  56.15 0.0008862019    1.279    0.218
       110  -9.8177    191.4473    191.4576   1.0422642032e+02   7.5113749069e+00    0.2249295    0.1812306  11.21 0.0006483187    1.014    0.014
       111  -8.9459     84.7648    192.2289   1.2877213591e+02   2.4113170688e+01    0.1633891    0.1462679  15.20 0.0002840032    1.273    0.215
       112  -9.3922     20.2205    191.5604   1.4471362876e+02   3.1741396810e+01    0.2481516    0.1263797  56.14  0.001378631    1.565    0.361
       113 -11.3741     51.1824    189.5889   1.3697854060e+02   2.8980330015e+01    0.2360621     0.203518  53.94 0.0003615402    1.076    0.070
       114  -9.1192    135.1393    189.9786   1.1617800616e+02   1.6835317506e+01    0.1963984    0.1619038  47.19 0.0003543403    1.227    0.185
       115  -9.2775    117.9878    190.0169   1.2027904685e+02   1.9581864353e+01    0.1577048     0.140068  36.40 0.0003204858    1.056    0.053
       116  -9.2015     15.1801    190.1088   1.4586035486e+02   3.2494924596e+01    0.1621361    0.1462042  78.32  0.000616526    1.233    0.189
       117 -10.7660    249.8491    188.0071   9.3319635386e+01  -3.6029464778e-01    0.2840544    0.1804088  -3.15  0.001840577    1.331    0.249
       118 -10.0295     76.5856    188.8009   1.3046888699e+02   2.5957672498e+01    0.3004576    0.2041555  23.95 0.0006854458    1.517    0.341
       119 -11.6752     68.2546    187.3359   1.3244728674e+02   2.7374669446e+01    0.2809772    0.2478736 -32.24 0.0005379115    1.474    0.322
       120  -9.9481     32.5864    189.7406   1.4162232169e+02   3.0953198262e+01    0.3380798    0.2396248  40.67  0.002109478    1.210    0.173
       121  -9.6665     30.1516    184.2529   1.4192220662e+02   3.2388382535e+01    0.2482501    0.1972984 -62.09  0.001354303    1.507    0.337
       122  -9.9638    140.9944    183.6198   1.1380566135e+02   1.7040481445e+01    0.4558513    0.2208785  50.18   0.00106468    2.449    0.592
       123  -9.3336    111.1992    187.6140   1.2160942730e+02   2.1122040231e+01    0.2071856    0.1836126  77.64 0.0006735347    1.288    0.224
       124 -11.0195    249.5195    194.1899   9.4447122778e+01  -1.0268466796e+00     0.292663    0.1938729   4.96  0.001985025    1.210    0.174
       125  -9.6049     24.3722    184.1648   1.4336445510e+02   3.2957638736e+01    0.2167629    0.1528989  36.22 0.0006174376    1.297    0.229
       126 -12.7934    248.1180    172.2025   9.0732655955e+01   1.7527774184e+00    0.9444882     0.397502 -32.34  0.004863299    2.136    0.532
       127 -12.0532    245.1469    162.0054   8.9266016287e+01   3.4455223869e+00    0.4375213    0.3594949   9.06  0.002649453    1.161    0.139
       128 -12.3419    246.9403    157.9621   8.8209624456e+01   3.7030887749e+00     1.077854    0.8541874 -78.01  0.005811248    3.247    0.692
       129 -11.0535    249.6021    150.9104   8.6429080821e+01   4.2189389846e+00    0.4515327    0.2811278 -28.77  0.002712982    1.391    0.281
       130 -12.2203    247.8686    142.4870   8.5000101682e+01   5.5737723317e+00    0.8354069     0.682743  48.73  0.005503151    1.650    0.394
       131 -10.6337    193.9226    245.1641   1.1188051806e+02   1.8961429438e-01    0.1917131    0.1419193 -19.22 0.0003368018    1.497    0.332
       132 -10.1748     20.0307    179.1225   1.4421390451e+02   3.4463595638e+01    0.1893029    0.1503342  73.31 0.0002646268    1.104    0.094
       133 -12.7561    247.8011    101.1699   7.6223963569e+01   1.1130272497e+01    0.8663248    0.4567418 -27.92  0.004449059    1.625    0.385
       134  -8.9067     47.9461    179.7960   1.3704827872e+02   3.1505293596e+01    0.1716096     0.093413  29.98 0.0006780542    1.700    0.412
       135  -9.8581     12.2297    178.5839   1.4615215530e+02   3.5243137541e+01    0.2395787    0.1995976 -37.70  0.001044043    1.660    0.398
       136 -11.0519     11.5805    174.1888   1.4614996654e+02   3.6274305387e+01    0.3914298    0.1867512 -58.58  0.001667342    2.487    0.598
       137  -9.2918     92.7942    178.1658   1.2503145243e+02   2.5919162618e+01    0.2004258    0.1626844  52.71 0.0002208231    1.127    0.112
       138  -8.7774    182.3148    176.6638   1.0343435908e+02   1.1254937691e+01    0.1227874    0.1086041  68.76 0.0007047131    1.693    0.409
       139 -11.5672     77.7188    175.1087   1.2865563411e+02   2.8785818971e+01    0.2857066    0.2680804  16.22 0.0005168851    1.224    0.183
       140  -9.2770     68.6400    175.8310   1.3117752143e+02   2.9859896884e+01    0.2247101    0.1581891  88.67 0.0004040727    1.533    0.348
       141 -11.5512     64.6837    173.3905   1.3198861886e+02   3.0930192384e+01    0.5554088    0.2830486 -48.02  0.001071647    2.520    0.603
       142 -10.0650     68.7633    166.7909   1.3013738784e+02   3.1914804993e+01    0.2035907    0.1808345 -70.67 0.0005765614    1.232    0.188
       143 -11.3428    107.8770    172.9124   1.2034013489e+02   2.4682889658e+01    0.2617099    0.2293081  42.77 0.0002975152    1.019    0.019
       144 -10.4601     19.3121    172.6530   1.4409292963e+02   3.5981326718e+01     0.476282    0.1748664  49.59  0.002200419    2.158    0.537
       145 -10.5981     12.9450    161.8116   1.4528103272e+02   3.9002257308e+01    0.2817447    0.1323553  55.60  0.001420751    1.786    0.440
       146 -10.4219     12.1811    166.9245   1.4570546420e+02   3.7876609760e+01    0.2697574     0.170898  66.66  0.001505748    1.313    0.239
       147 -10.8878     15.5974    165.7754   1.4474759370e+02   3.7870195694e+01    0.3023243    0.2177158  80.29  0.001467447    1.214    0.176
       148  -8.8137     95.2831    172.6528   1.2362961937e+02   2.6738840958e+01    0.1461178   0.09903807  63.62  0.000701631    1.646    0.393
       149  -9.3187     45.9787    172.3518   1.3697190239e+02   3.3419874106e+01     0.242121    0.1385371  47.19 0.0003034004    1.478    0.323
       150 -10.4291     43.5112    169.0130   1.3737151515e+02   3.4466352867e+01    0.3250069    0.2189915 -41.50  0.001709119    2.001    0.500
       151 -10.4001     44.9931    164.9747   1.3662098052e+02   3.5252585117e+01    0.2788422    0.2518763 -21.83 0.0003625265    1.427    0.299
       152  -8.7187     52.5161    170.9381   1.3506841384e+02   3.2997368784e+01    0.1722321    0.1258131 -79.49 -1.215704e-05    1.402    0.287
       153  -8.3416    150.7330    170.2893   1.0922772155e+02   1.7840560320e+01    0.1297875     0.109001  63.78 0.0001613261    1.502    0.334
       154 -12.1417     85.8805    166.6822   1.2536093266e+02   2.9506782251e+01     0.625729    0.4862105  33.54  0.003400968    1.202    0.168
       155  -9.1614    126.3797    167.6519   1.1471492597e+02   2.2660820136e+01    0.2197278    0.1627222  63.67  0.001084617    1.649    0.393
       156  -8.7781     58.4849    167.4807   1.3308368518e+02   3.3080726440e+01    0.1393262    0.1166163  57.30 0.0001121962    1.032    0.031
       157  -8.6182     65.8189    182.1404   1.3257188488e+02   2.8821106075e+01     0.161379    0.1510757  15.03 0.0002996699    1.271    0.213
       158  -8.4305     32.7169    164.6699   1.4001959135e+02   3.6601592843e+01    0.1218597    0.0954771 -45.75 0.0002770504    1.609    0.379
       159 -10.9783     24.1773    162.1158   1.4221857187e+02   3.7999969692e+01    0.2258461    0.2027199  46.49 0.0003660329    1.168    0.143
       160  -8.5178    118.6472    162.7500   1.1587381330e+02   2.5038988820e+01    0.1445429    0.1098461   7.77 0.0002563415    1.594    0.373
       161 -10.2792     89.8322    160.1805   1.2333295433e+02   3.0395944310e+01    0.2408846    0.2092548  47.42  0.000324175    1.029    0.028
       162  -9.1237     73.6934    159.3432   1.2782147478e+02   3.2988756999e+01    0.1923879    0.1303466 -59.56 0.0006376586    1.583    0.368
       163  -9.4678     71.8254    156.6557   1.2801186104e+02   3.3892045010e+01    0.3709638    0.1946783  11.40  0.001343363    3.266    0.694
       164  -8.8305     52.4880    158.4550   1.3386447264e+02   3.5954272315e+01    0.1372847    0.1207759  60.55  0.000120136    1.019    0.019
       165  -9.5597     23.5484    149.4790   1.4159746124e+02   4.1096187762e+01    0.1620586    0.1270725  10.02 5.058033e-05    1.551    0.355
       166 -10.7052     31.8849    155.7484   1.3960696827e+02   3.8815315189e+01     0.397702    0.2287198 -53.68  0.001637251    2.000    0.500
       167 -11.6644     23.4565    154.4654   1.4194965074e+02   3.9891097452e+01    0.5761843    0.2917757  54.23   0.00286734    1.735    0.424
       168  -8.3692    112.3000    157.7007   1.1669865593e+02   2.7243714179e+01    0.1486397     0.108738  63.63  0.000296933    1.580    0.367
       169 -10.1008     28.6744    170.6792   1.4151357614e+02   3.5588319000e+01      0.38647    0.2704256  66.52  0.001788964    1.227    0.185
       170 -10.3861     84.1482    155.4909   1.2426259577e+02   3.2369747097e+01     0.390759    0.2313987  21.08 0.0007412422    1.983    0.496
       171 -13.4959      5.5186    142.6916   1.4654709887e+02   4.4089339498e+01     1.394735    0.5932843  83.41  0.006465633    2.124    0.529
       172 -11.4288     13.1963    153.3855   1.4481783516e+02   4.0976742112e+01    0.3145507    0.2407718  39.76  0.001140437    1.256    0.204
       173 -10.5839     11.0123    150.0564   1.4528022652e+02   4.1936325742e+01    0.2315044    0.2135899  50.86 0.0003518249    1.182    0.154
       174 -10.9757     98.0680    151.1416   1.1955035626e+02   3.1167736146e+01    0.3911139    0.3443951 -13.57  0.002101371    1.353    0.261
       175  -9.4833    101.4560    146.5422   1.1776951761e+02   3.1667732706e+01    0.3247184    0.2044616 -26.32  0.001094937    2.475    0.596
       176  -9.9887    113.8604    150.7677   1.1502954374e+02   2.8513076237e+01    0.3306048    0.2669798 -59.84 0.0007021321    1.365    0.267
       177  -9.1989    228.3804    155.2855   9.0637606812e+01   6.8779550492e+00    0.1713326    0.1071307 -36.21 0.0005836937    1.610    0.379
       178 -10.5284     85.9098    149.2029   1.2278239555e+02   3.3597659103e+01    0.4304189    0.2454013  85.82  0.001376186    2.796    0.642
       179 -10.0538     55.5104    150.4754   1.3209765702e+02   3.7539427268e+01    0.2586853    0.1937928  74.21 0.0009814563    1.300    0.231
       180 -10.0420     57.6818    148.3199   1.3118231802e+02   3.7804301284e+01    0.1906984    0.1363589  18.29 0.0008845762    1.593    0.372
       181  -9.1381     31.0717    150.5277   1.3944527303e+02   4.0166428662e+01    0.1996343     0.125192  26.53  0.001042581    1.627    0.386
       182 -12.3743     68.2526    144.3797   1.2740993778e+02   3.7390677200e+01    0.7218135    0.5029567  69.77  0.002224816    1.526    0.345
       183 -11.2409     73.1536    139.5187   1.2515397282e+02   3.7907752242e+01    0.4156376    0.3604468 -44.85  0.001203193    1.298    0.230
       184  -9.6488     76.9857    146.9857   1.2511530241e+02   3.5495519730e+01    0.2111902    0.1954428  53.60  0.001193068    1.032    0.031
       185 -10.4494    236.3651    145.9746   8.7457868815e+01   6.8973559386e+00    0.2385589    0.1808453  29.57 0.0007560731    1.353    0.261
       186  -9.4612     39.7555    146.6112   1.3648638553e+02   4.0280632172e+01    0.1973981    0.1068679  40.60 0.0003444981    1.655    0.396
       187 -10.3867    133.3644    141.4762   1.0790637718e+02   2.6890830928e+01    0.5553454    0.2680151 -51.78  0.002144461    2.310    0.567
       188  -9.6775     32.6155    145.1866   1.3854455355e+02   4.1343682708e+01    0.1917938    0.1101512 -65.40  0.000641449    1.716    0.417
       189 -10.6401     32.6985    140.8100   1.3813778521e+02   4.2433658603e+01     0.314713    0.1686634  67.39    0.0013019    1.882    0.469
       190  -9.4281     37.1836    140.4036   1.3668828905e+02   4.2101835953e+01    0.1966728    0.1094706  40.43 0.0006448493    1.640    0.390
       191 -10.2125     56.1703    138.9053   1.3046719738e+02   4.0357766396e+01    0.2347463    0.2279876  52.45 0.0003522638    1.118    0.106
       192 -11.2263     60.8026    136.9769   1.2871531071e+02   4.0257897456e+01    0.3779601    0.2721849  82.04  0.001891642    1.457    0.314
       193 -10.1145     46.0414    138.5139   1.3366738052e+02   4.1649001927e+01    0.2272505    0.1777029 -83.24  0.001246589    1.224    0.183
       194 -10.0379    109.9309    136.3358   1.1334590503e+02   3.2538947072e+01    0.3611139    0.2735091   1.62  0.001124566    1.764    0.433
       195 -11.3331     45.0562    131.3601   1.3314377734e+02   4.3593231664e+01    0.4380369    0.3460955  71.13  0.002406595    1.198    0.165
       196 -11.2489      9.1676    136.8085   1.4517685439e+02   4.5300755081e+01    0.2396959     0.213067 -26.36 0.0008551319    1.418    0.295
       197 -11.5732     17.5634    139.2255   1.4273069053e+02   4.4112026797e+01    0.4127285     0.236183  42.41  0.001469113    1.590    0.371
       198 -11.5792     33.2317    130.8247   1.3702069590e+02   4.4929613209e+01    0.5070331    0.2247722 -73.32  0.002181784    2.083    0.520
       199 -11.6103     67.2759    128.8060   1.2534179636e+02   4.1469423018e+01    0.4834993    0.3532389 -88.96  0.002026864    1.470    0.320
       200  -9.6300    115.8045    129.0349   1.1008350934e+02   3.3118352683e+01    0.2596918    0.1827237 -19.51  0.001088119    2.004    0.501
       201  -8.7031     80.3081    129.6549   1.2119380043e+02   3.9301397692e+01     0.161173    0.1103244  67.67 0.0006478369    1.698    0.411
       202  -9.8948     59.4970    128.4862   1.2790147196e+02   4.2607065936e+01    0.1459052    0.1347366  71.51 -8.43747e-05    1.001    0.001
       203 -10.4272    209.8785    125.8271   8.7511400603e+01   1.4489866281e+01    0.2896683    0.2087232 -22.97 0.0005117864    1.300    0.231
       204 -11.7633     24.1125    127.1624   1.3972020155e+02   4.6663098916e+01    0.3088634    0.2511076 -57.87 0.0009819713    1.303    0.232
       205 -12.4785     30.9208    118.9001   1.3655982780e+02   4.8239269956e+01    0.5811649    0.4884929 -44.29  0.003361678    1.329    0.247
       206 -12.4608     10.0190    120.4524   1.4397056313e+02   4.9367734520e+01    0.5456359    0.3041553   9.46  0.002738274    2.175    0.540
       207 -10.1255     54.5759    120.7186   1.2840095302e+02   4.5255624503e+01    0.3071212    0.2170882  15.52  0.001260921    1.650    0.394
       208  -9.8958    231.9797    116.3589   8.1789650771e+01   1.1820288622e+01    0.1817398    0.1603826  -3.64  0.000655228    1.077    0.071
       209 -12.3178     15.3026    114.8193   1.4173216099e+02   5.0492290410e+01    0.3672507     0.319193  -3.35  0.002239607    1.387    0.279
       210 -10.1748     66.2131    115.4078   1.2335364901e+02   4.5091077433e+01    0.2854875    0.1184503  41.97  0.001045036    2.325    0.570
       211 -10.7855    168.0552    113.2250   9.2730808135e+01   2.5342139313e+01     0.349971     0.301498 -86.35 0.0008789115    1.483    0.326
       212  -9.3630    203.9400    111.0697   8.5092565253e+01   1.8026056623e+01    0.2374702    0.1669859   8.30   0.00113666    1.773    0.436
       213 -10.7801     12.8160    137.1898   1.4407358973e+02   4.4962021206e+01    0.2269002     0.190242  87.68 0.0007072423    1.081    0.075
       214  -9.3760     44.7225    105.2012   1.2955608044e+02   5.0508722762e+01    0.2409759    0.1816541  43.97 0.0005681688    1.333    0.250
       215  -9.8066    115.4162    177.6353   1.1911309957e+02   2.2464374128e+01    0.3763304    0.2047065 -58.73  0.001715186    2.177    0.541
       216  -9.6334     59.5470    104.5105   1.2371088662e+02   4.8877323825e+01    0.1482269    0.1407492  89.94 0.0008087014    1.007    0.007
       217 -11.3571     14.8421    103.8851   1.4097049754e+02   5.3372453934e+01    0.2899553    0.1883148  26.78  0.001550039    1.646    0.393
       218 -10.6440     17.2442     99.0588   1.3956609255e+02   5.4493565391e+01    0.2231641    0.1885862  41.53 0.0002734414    1.249    0.199
       219 -12.8223    248.3714    114.1851   7.8997938775e+01   9.2753071630e+00     1.222607    0.7422453  -6.68  0.006316566    1.964    0.491
       220  -9.7996     21.2538     92.2336   1.3714646760e+02   5.6036734130e+01    0.2136628   0.08746333  32.74 0.0008879452    2.420    0.587
       221 -10.4240    250.1519     86.8581   7.2747436574e+01   1.2625493303e+01    0.1971292    0.1491233 -42.02 0.0005772592    1.216    0.178
       222 -10.8274    169.9415    248.2991   1.1674564515e+02   2.8831341734e+00    0.3189268    0.1738072   9.73 0.0008278899    2.162    0.537
       223 -11.8911    199.8135    246.3834   1.1097808159e+02  -6.7915284490e-01    0.4333378    0.1686031  35.63  0.002343466    2.095    0.523
