#   1 NUMBER                 Running object number                                     
#   2 MAG_AUTO               Kron-like elliptical aperture magnitude                    [mag]
#   3 X_IMAGE                Object position along x                                    [pixel]
#   4 Y_IMAGE                Object position along y                                    [pixel]
#   5 X_WORLD                Barycenter position along world x axis                     [deg]
#   6 Y_WORLD                Barycenter position along world y axis                     [deg]
#   7 A_WORLD                Profile RMS along major axis (world units)                 [deg]
#   8 B_WORLD                Profile RMS along minor axis (world units)                 [deg]
#   9 THETA_WORLD            Position angle (CCW/world-x)                               [deg]
#  10 FWHM_WORLD             FWHM assuming a gaussian core                              [deg]
#  11 ELONGATION             A_IMAGE/B_IMAGE                                           
#  12 ELLIPTICITY            1 - B_IMAGE/A_IMAGE                                       
         1 -12.5633    119.7999     37.7413   3.9487389896e+01   5.0265006011e+01    0.9108721    0.5360075 -51.32  0.001950815    1.934    0.483
         2 -12.1924    164.2789     27.6902   2.8067944768e+01   4.0215474678e+01    0.3251294     0.280896 -48.43 0.0003974481    1.105    0.095
         3 -11.7841    105.8847     20.9282   3.5950826008e+01   5.6134828795e+01    0.4862063    0.3719323 -80.20  0.001926208    1.517    0.341
         4 -11.9232     26.6012     28.0422   7.5454619467e+01   7.1297401970e+01    0.5483114    0.4130544 -45.73  0.001685415    1.248    0.199
         5 -11.9265     35.5915     17.8415   6.3896453937e+01   7.2156136161e+01     0.763113    0.2906722 -36.27  0.002138658    3.048    0.672
         6 -12.3530     20.2910     21.7560   7.7300167070e+01   7.3354010880e+01    0.5879422    0.3047217 -49.89  0.001416286    1.753    0.430
         7 -10.9476    121.1466     11.8409   2.8937739450e+01   5.3150452038e+01    0.4760979    0.2081289  66.78  0.001455456    2.074    0.518
         8 -12.5097    135.6182     22.6434   3.0616306123e+01   4.8145445269e+01     1.021228    0.3809777  53.74  0.003801171    2.508    0.601
         9 -11.0507    127.1574     11.7119   2.7871381309e+01   5.1569031740e+01     0.372723    0.2393829 -63.90  0.001704478    1.736    0.424
        10 -11.6505    134.5017     14.9140   2.7932944945e+01   4.9296702283e+01    0.6876057    0.3338366  64.76  0.002951517    1.875    0.467
        11 -11.3153    179.4338     20.4023   2.4098162891e+01   3.7318971611e+01    0.5346456    0.2554109  41.60  0.002190163    2.914    0.657
        12 -11.7888     67.7993     18.2618   4.6769674158e+01   6.5833591339e+01    0.5139027    0.4591198  60.53  0.001964505    1.182    0.154
        13 -12.8023    164.3127     18.5185   2.5173646269e+01   4.1228248271e+01    0.5396536    0.3035201  42.64  0.002450331    2.163    0.538
        14 -12.1807     15.9691     14.1880   7.7139058760e+01   7.5400337333e+01    0.6740185    0.3518624 -34.94  0.002864382    1.908    0.476
        15 -11.9185     22.7320     11.2328   6.9627638814e+01   7.5237223800e+01    0.4798591    0.3252566  -2.53   0.00164811    1.649    0.393
        16 -11.1223     13.2646      9.5800   7.7090460447e+01   7.6617582058e+01    0.4399928    0.3262986  86.07  0.002372506    2.168    0.539
        17 -12.3781    227.5956     15.4121   1.8946119586e+01   2.7210681495e+01    0.4221088    0.2545704 -66.82  0.002488336    1.629    0.386
        18 -10.8471    148.3079     16.1730   2.6395903618e+01   4.5555253573e+01    0.3722461    0.2165012  40.70  0.001501241    2.053    0.513
        19 -11.2749     85.9002     14.3823   3.8269430546e+01   6.2036565530e+01    0.4711196    0.3130231 -24.41  0.001629359    1.624    0.384
        20 -12.2827    104.9708     13.0229   3.2653067680e+01   5.7298462230e+01    0.5462462    0.3913589 -23.04  0.001796214    1.515    0.340
        21 -11.9250     48.5209     12.7465   5.2789354403e+01   7.0741193404e+01    0.6155682    0.3256798  46.33  0.002330778    1.825    0.452
        22 -12.1607    192.1293      8.5382   1.9612300566e+01   3.5516217032e+01    0.5904744    0.3425351   4.61   0.00273353    2.724    0.633
        23 -10.8264      4.8536     11.0760   8.6039088646e+01   7.6945739558e+01     0.431587     0.236506 -43.24  0.002105745    1.568    0.362
        24 -11.6395    211.9975      9.1756   1.8408414002e+01   3.1037146943e+01    0.5461015    0.3048573  -0.33  0.002580549    2.843    0.648
        25 -11.6664    169.4531      9.1899   2.1720004283e+01   4.0884963419e+01    0.4428207    0.2145454  56.23  0.001332919    2.116    0.527
        26 -11.2319    163.4337      7.0143   2.1620337599e+01   4.2591793809e+01    0.4588773    0.2211316 -16.31  0.001596226    2.423    0.587
        27 -11.0154    145.4211      9.6148   2.4485785301e+01   4.6965736791e+01    0.2646631    0.2192935  42.29 0.0004456239    1.331    0.249
        28  -9.9539     65.3858     10.3515   4.3257178892e+01   6.7472649102e+01    0.2722298    0.1611298  56.82   0.00104525    1.636    0.389
        29 -10.2425     88.8536      7.4472   3.3894204458e+01   6.2075913671e+01    0.2909676    0.2119826  37.54 0.0008559035    1.386    0.278
        30  -9.8706      1.2489      8.1341   8.8436875366e+01   7.7785614278e+01    0.2544734    0.0765416 -59.88  0.001056295    2.596    0.615
        31 -11.5730    158.0340      2.4384   2.0666973489e+01   4.4369227423e+01    0.3584866    0.3130863 -16.65  0.002164419    1.287    0.223
        32 -10.7554    232.6344      7.3410   1.6787375311e+01   2.6979564574e+01    0.2065919    0.1261005 -73.30  0.001258041    1.619    0.382
        33 -11.4903    236.5919      4.8119   1.6017005716e+01   2.6442101846e+01    0.2268586     0.181428 -44.82   0.00160625    1.048    0.046
        34 -11.0922    233.1676      2.6010   1.5679183841e+01   2.7305814026e+01     0.228892    0.1615824 -56.84 0.0004942513    1.182    0.154
        35 -12.1849    184.1418      5.7111   1.9429412101e+01   3.7647441939e+01    0.5416774    0.4362043  49.32  0.003285541    1.440    0.306
        36 -11.7524    177.0092      5.8435   2.0038367676e+01   3.9345270839e+01    0.3834172    0.2194165  89.48 0.0007021279    1.748    0.428
        37 -11.4811    122.1988      5.2846   2.6092396954e+01   5.3506499067e+01    0.2588266    0.2326766 -16.14 0.0004381393    1.235    0.191
        38  -9.1571     78.2901      7.6609   3.7068228833e+01   6.4713049966e+01    0.1408825    0.1065831 -64.04 0.0007023351    1.643    0.391
        39 -10.0793     62.3712      7.0074   4.2476341562e+01   6.8585090418e+01    0.2564556    0.1754708  30.09  0.001295122    1.511    0.338
        40 -10.7583    247.1598      6.1414   1.5819670735e+01   2.4334706802e+01    0.1654689    0.1008473 -52.21  0.000656647    1.326    0.246
        41 -11.8474    206.3826      3.1565   1.7230631271e+01   3.2806680708e+01    0.4536133     0.276451  89.60  0.002586791    1.641    0.390
        42 -12.2457    133.3831      2.7594   2.3512150033e+01   5.0758350051e+01    0.6324145    0.3297227  80.79  0.002619685    1.867    0.464
        43 -11.2692    140.8116      3.3926   2.2828146314e+01   4.8744112322e+01    0.3546661    0.2292969  63.19  0.001620189    1.449    0.310
        44 -10.2637     41.3401      4.3372   5.1341368889e+01   7.3394464929e+01    0.3022433    0.2002829  13.18  0.001279182    1.809    0.447
        45 -11.0013    218.7193      3.7088   1.6667650043e+01   3.0123085734e+01    0.2366999     0.207945 -75.52 0.0007343086    1.145    0.126
        46 -11.1535    223.9767      2.5157   1.6107241979e+01   2.9147973374e+01    0.2250126    0.1827265 -46.52 0.0006437268    1.050    0.048
        47 -11.2530    105.6998      2.6907   2.7804117776e+01   5.8131424820e+01    0.4474537    0.3389962  79.79  0.001717315    1.265    0.209
        48 -11.1664    116.5042      2.4885   2.5832343158e+01   5.5273691559e+01    0.2629694    0.2349055  73.35  0.001517396    1.021    0.021
        49  -9.7834     21.9552      3.5129   6.5112570787e+01   7.6767850390e+01     0.227865    0.1778561 -57.18  0.001324329    1.639    0.390
        50 -11.1248      2.6279      1.9179   8.3873755282e+01   7.9046643502e+01    0.3226431    0.1875637 -10.64  0.001382482    1.753    0.430
        51 -10.3970    152.2519      1.4119   2.0889524445e+01   4.5938333446e+01     0.297746    0.1250862  79.53 0.0008367992    2.305    0.566
        52  -9.7587     82.1672      1.2498   3.2396747558e+01   6.4397522597e+01    0.1915625    0.1141421  71.73 0.0003393759    1.675    0.403
        53  -9.2311     33.4832      1.4965   5.4407687838e+01   7.5264276845e+01     0.132903     0.115494  10.47 5.796006e-05    1.019    0.019
        54  -9.9522     13.1703      1.6267   7.2133741489e+01   7.8200271530e+01    0.1783312    0.1103285  10.21 0.0007226124    1.684    0.406
        55 -10.9038     74.6760      3.5776   3.5912817703e+01   6.6044834884e+01    0.5752176      0.21994  60.44  0.002236445    2.332    0.571
        56 -12.4083    103.9098    122.4427   6.9858303621e+01   3.6906957325e+01    0.3429902    0.3097678  23.37 0.0004380226    1.097    0.088
        57 -11.3005    248.3039    249.2620   6.1633584882e+01  -2.9856786226e+00    0.2473419    0.1780003  41.56  0.001757735    3.189    0.686
        58 -10.8568     44.3218    117.9345   8.9058235754e+01   4.6888892322e+01    0.5227101    0.2525212 -86.37  0.001831392    2.654    0.623
        59 -11.3822      4.6077    104.9852   1.0278643179e+02   5.3426657948e+01    0.4076984    0.3599756   3.63  0.002550199    1.279    0.218
        60 -10.3945      7.4713    114.5413   1.0234750572e+02   5.0817990003e+01    0.2799686    0.2039205 -75.00 0.0008574917    1.279    0.218
        61 -12.3309      2.4202    111.9884   1.0405680488e+02   5.1732511517e+01    0.4116408    0.2626084  87.45 0.0006272693    1.430    0.301
        62  -9.8828     79.0951    114.6680   7.6101903301e+01   4.2980810047e+01    0.2495794     0.210748 -77.44  0.001091792    1.280    0.219
        63 -12.2893     18.0852    100.7684   9.7013028166e+01   5.3736066640e+01    0.5006953    0.3638242  35.87 0.0009280528    1.388    0.280
        64 -11.5494     25.1349    107.5255   9.4959203239e+01   5.1437577090e+01    0.7132655     0.406488 -38.63  0.003267161    2.041    0.510
        65 -11.4276     21.6319    114.3687   9.7055459230e+01   4.9931252320e+01    0.4515486    0.2785155  -5.74  0.001506228    2.063    0.515
        66 -10.8171     28.0519    113.1287   9.4494885191e+01   4.9733094137e+01    0.2943737    0.2164489  29.00 0.0006159215    1.369    0.270
        67  -9.4260     67.3491    114.6716   8.0181560883e+01   4.4774732930e+01    0.1603334    0.1076454  63.03 0.0007048963    1.761    0.432
        68 -10.8216    249.5027    112.4893   3.8405530129e+01   1.2037458942e+01    0.2166988   0.09565166 -21.67   0.00103791    2.307    0.567
        69 -10.0175     48.8905    112.1932   8.6475320379e+01   4.7844354718e+01    0.2288516    0.1868097  56.82   0.00105093    1.228    0.186
        70  -9.5919     66.0022    110.7498   7.9894899437e+01   4.5953423283e+01    0.1937571    0.1239561  31.17  0.000570258    1.540    0.351
        71 -11.2871     79.9901    108.1073   7.4370891292e+01   4.4433326506e+01    0.4758832    0.3017729  27.03 0.0006556718    1.665    0.399
        72 -10.3255     34.3038    103.8475   9.0825764328e+01   5.1586584436e+01    0.2802503    0.1689773 -21.10  0.001218634    2.245    0.555
        73 -10.7312     51.6067     99.5408   8.3138083068e+01   5.0772693645e+01    0.6281866      0.16856 -51.43  0.001944897    3.522    0.716
        74 -12.2314      9.2913     97.4085   1.0030514238e+02   5.5155258507e+01    0.5375476     0.415907   5.07            0    1.451    0.311
        75 -11.6197     22.5066     94.4909   9.4397363453e+01   5.5063828680e+01    0.3517411    0.2927902 -12.61  0.001285131    1.349    0.259
        76 -12.0816     18.2980     90.9868   9.5765890213e+01   5.6289888940e+01    0.7190319    0.3637349 -72.70  0.002558231    1.807    0.447
        77  -9.9500     28.4842     99.5225   9.2571289176e+01   5.3253890544e+01    0.2557461    0.1661309 -39.02  0.000668733    1.700    0.412
        78 -10.5606     30.5320     96.4899   9.1271149944e+01   5.3868526690e+01    0.3633701    0.1903291 -70.94  0.001609837    1.811    0.448
        79 -11.3938     68.7108     95.6989   7.5600386153e+01   4.9308908560e+01    0.3381386    0.2810217  22.22 0.0005743971    1.256    0.204
        80 -12.0087    125.6655     94.9479   5.6781460808e+01   3.8559847923e+01    0.2718894    0.2581154  13.96 0.0002361068    1.063    0.059
        81 -10.0153     82.9829     93.2636   6.9698830542e+01   4.7491495549e+01    0.2621511    0.1997259  31.54 0.0003844562    1.325    0.245
        82 -10.8214     78.3114     92.6397   7.1232157122e+01   4.8466446365e+01    0.4834743     0.378879 -57.80  0.002387406    1.306    0.234
        83 -10.6456     42.9927     94.6274   8.5707985590e+01   5.3082945449e+01    0.3336807    0.2820479 -63.20  0.001263666    1.147    0.129
        84 -11.1884     35.1785     92.3807   8.8619262367e+01   5.4503803629e+01    0.5776199    0.3014197 -85.45  0.001868431    2.295    0.564
        85 -11.5068     27.6117     85.4128   9.0775603950e+01   5.7034998713e+01    0.5811343    0.4672829 -45.62  0.002335147    1.243    0.195
        86 -11.5517     44.5485     84.9313   8.3060397183e+01   5.5411004478e+01    0.5069541    0.3711833   9.09  0.002058518    1.551    0.355
        87 -10.2907     37.2722     85.9183   8.6502756896e+01   5.5976085447e+01    0.2868827    0.2038647  19.63 0.0007641418    1.489    0.329
        88 -10.9647     89.4614     90.3053   6.6614649663e+01   4.6985964935e+01    0.4234829    0.2827819 -48.28  0.001410803    1.520    0.342
        89 -10.5109     49.4757     91.3790   8.2334314122e+01   5.3143749628e+01    0.2796029    0.2381083  38.83  0.001501291    1.181    0.153
        90 -10.8646     98.5186     91.0010   6.3757734728e+01   4.5061250562e+01    0.2819916    0.2177013  40.48  0.001355615    1.269    0.212
        91 -11.7513      6.9145     88.7426   1.0052914077e+02   5.7539796208e+01    0.5620029    0.3986024   6.93   0.00240373    1.576    0.366
        92  -9.4575     66.6992     88.6425   7.4641953439e+01   5.1373434502e+01    0.1578325    0.1140732 -24.94 0.0007037221    1.711    0.416
        93  -9.4223    104.3471     87.3074   6.0832805727e+01   4.4687579966e+01    0.1587618    0.1226601   2.40 0.0007043415    1.702    0.412
        94 -10.7726    143.1798     84.6955   4.9490279086e+01   3.6677572378e+01     0.245771    0.2240462 -27.32 0.0003238477    1.103    0.094
        95 -10.5937     80.2650     83.9160   6.8126362928e+01   5.0191554012e+01    0.3617706    0.2753737 -34.81  0.001728274    1.429    0.300
        96 -10.4287    112.9150     82.5300   5.6802434507e+01   4.3870132609e+01    0.3190864    0.2943439 -80.71  0.001067233    1.191    0.160
        97 -10.1713     66.6367     81.6807   7.2820457544e+01   5.3089990069e+01    0.4331079    0.2483667  24.76  0.001784071    1.980    0.495
        98 -10.7906     76.4360     78.4365   6.7982077683e+01   5.2172694413e+01     0.565869    0.3049028 -61.49  0.002201559    2.215    0.548
        99 -10.4316     72.7731     78.3672   6.9401071218e+01   5.2844118041e+01    0.3837544    0.2635407  69.45  0.001630758    2.056    0.514
       100 -10.8883     58.3177     77.8888   7.5276505757e+01   5.5325376837e+01    0.4205056    0.3111699 -76.26  0.001956304    1.559    0.358
       101 -11.2912     53.3886     76.3136   7.7020463267e+01   5.6437278781e+01    0.4971761    0.3600243 -63.09  0.002437772    1.396    0.284
       102 -11.8451     13.7966     74.6035   9.5648177355e+01   6.0873905192e+01    0.5608401    0.4301186 -83.60  0.003138383    1.249    0.199
       103 -10.6072     14.6378     67.4940   9.4115180530e+01   6.2673374352e+01    0.4350356    0.2287628   2.41  0.001964361    2.217    0.549
       104 -11.4746    248.8766     76.3286   3.0941785905e+01   1.6545539873e+01    0.2252175      0.13288 -37.84  0.001350572    1.385    0.278
       105 -10.8180     95.3339     76.5620   6.0525686657e+01   4.8895084268e+01    0.3910444    0.2635284  50.18  0.001153135    1.513    0.339
       106 -11.5527     84.5746     73.6308   6.3405746531e+01   5.1725130249e+01    0.7900153    0.3307577  37.46  0.002783569    2.472    0.596
       107 -11.1032      1.9977     71.7337   1.0118675672e+02   6.2174076087e+01    0.4159721    0.1897293 -71.12  0.001668201    1.879    0.468
       108 -10.2187     92.0537     71.9673   6.0177911705e+01   5.0569052773e+01    0.2628983    0.2243405  27.53 0.0003747219    1.216    0.178
       109 -10.7400     24.3889     73.5270   9.0190525845e+01   6.0410144763e+01     0.271498    0.2396678  -5.16 0.0008252392    1.211    0.174
       110 -11.0665    187.1433     70.9801   3.7294837999e+01   2.9075782480e+01    0.4637482    0.2460252 -36.46  0.002141963    1.716    0.417
       111 -11.5283     40.0502     70.2116   8.1674305337e+01   5.9703084614e+01    0.5061278    0.3610409 -86.32  0.001512128    1.659    0.397
       112 -11.0691    122.9685     68.9295   4.9713071159e+01   4.4257914041e+01    0.4367406    0.2617251  44.53  0.001278119    1.672    0.402
       113 -11.4994     35.3179     71.6659   8.4361692842e+01   5.9863193450e+01    0.5257627    0.2648346  22.49  0.002245292    2.081    0.519
       114 -10.7447     79.4244     68.1291   6.3557416622e+01   5.3958705483e+01     0.512416    0.2934957  52.76  0.002079683    1.991    0.498
       115 -10.6577    220.1100     66.8519   3.1879654405e+01   2.2866719431e+01    0.3618967     0.189022  69.50  0.001773119    2.453    0.592
       116 -12.6577      6.2802     62.2997   9.7811504337e+01   6.4449008411e+01    0.7223253    0.4556521 -11.71  0.003744397    1.767    0.434
       117 -10.0251     13.5246     56.4617   9.2737131358e+01   6.5576759030e+01    0.2571949    0.1644195 -50.20 0.0005843916    1.418    0.295
       118  -9.3502     25.6290     65.1019   8.7825174339e+01   6.2479549184e+01    0.2048807    0.1098081 -54.75 0.0009257299    1.682    0.405
       119 -10.9498     92.4250     63.0598   5.7017623121e+01   5.2357450778e+01    0.5725174    0.2939176  60.14  0.002009742    2.748    0.636
       120 -10.4936     59.1638     63.4260   7.0551261252e+01   5.8674198166e+01    0.3291805    0.2618764  74.04 0.0009695165    1.595    0.373
       121  -9.2511    156.6309     63.7418   4.0466913147e+01   3.7127598461e+01    0.1486038    0.1093901  28.81 0.0005387408    1.643    0.391
       122 -11.0920     40.8393     57.0298   7.7537294898e+01   6.2870531178e+01    0.4306191    0.2259635  37.76  0.001753026    1.949    0.487
       123 -11.1587     43.4707     62.4461   7.7825746123e+01   6.1213611594e+01    0.2946119    0.2532276 -57.03 0.0008042167    1.139    0.122
       124 -10.4374     50.7939     61.5558   7.3904011545e+01   6.0414847008e+01    0.3532402     0.251805  40.15  0.001737304    1.438    0.305
       125 -11.2012     46.1888     59.1696   7.5435238575e+01   6.1643364519e+01    0.3428266    0.3060089  61.24  0.001112875    1.250    0.200
       126 -11.0607    234.8072     60.7808   2.8906948588e+01   2.0852995635e+01    0.2367093    0.2066585 -85.49  0.001639631    1.329    0.248
       127 -11.7664     74.0000     50.9906   5.9499664083e+01   5.8695241735e+01    0.9333999    0.3136436 -50.68  0.002883798    3.568    0.720
       128 -11.8354     25.3043     57.9502   8.6321911011e+01   6.4324056983e+01    0.7997032    0.6195346  40.24   0.00416967    1.387    0.279
       129 -10.3705     34.1508     52.1572   7.9678256872e+01   6.4858986573e+01    0.4826587    0.2609214  -7.70  0.001837235    2.970    0.663
       130  -9.7276    106.3137     58.6459   5.0926748392e+01   5.0085128307e+01    0.1584955    0.1212712 -78.59 0.0007045289    1.735    0.424
       131 -10.0374     87.6392     56.9490   5.6500024270e+01   5.4631212116e+01    0.3445517    0.1447942 -42.22  0.001234045    2.441    0.590
       132 -10.0286     91.6479     57.1510   5.5148959984e+01   5.3714155952e+01    0.2640164    0.2056163  59.99 0.0006595809    1.379    0.275
       133 -10.0023     51.0527     56.6321   7.2142120043e+01   6.1538563780e+01    0.2123339    0.1841755  18.43  0.001146114    1.172    0.147
       134 -11.9942     75.6809     54.3660   6.0121976036e+01   5.7660571292e+01      0.58479    0.3052653 -47.97  0.002060008    1.983    0.496
       135  -9.8960    158.2492     55.4041   3.7638950874e+01   3.8016588848e+01    0.2928166     0.254953 -61.86  0.001604552    1.168    0.144
       136 -11.2886    117.2552     54.9992   4.6506503205e+01   4.8130745615e+01     1.345368    0.7693609 -76.68  0.003896332    4.735    0.789
       137 -10.4564    116.0314     48.4824   4.4468905888e+01   4.9535394773e+01    0.3969192     0.242005  38.83  0.001138641    1.821    0.451
       138 -11.7458    117.6566     43.8514   4.2325068417e+01   4.9878184432e+01    0.6154853     0.464138  76.28  0.002175473    1.472    0.320
       139 -10.7364     50.8006    249.6087   9.8523524709e+01   1.8159118841e+01    0.1708796   0.06694659  36.15 0.0009593114    1.712    0.416
       140  -9.5723     67.1607     54.8840   6.3930674959e+01   5.9203718966e+01    0.2055842    0.1731763 -16.94  0.001051834    1.298    0.230
       141  -9.9747      7.5863     54.5228   9.5863552470e+01   6.6383965389e+01    0.2502833    0.1527084 -78.28  0.001268491    1.557    0.358
       142 -11.4806     60.7593     48.1004   6.4219229641e+01   6.1834279820e+01    0.8524912    0.3296134 -42.58  0.003041598    2.686    0.628
       143 -11.5714     45.5086     48.0311   7.1935853407e+01   6.4347839942e+01    0.5806786    0.3826071 -46.49  0.002829989    1.469    0.319
       144 -11.9003     42.7017     44.0547   7.1965353706e+01   6.5654575232e+01    0.6775052    0.2954519  30.79 0.0004646107    2.329    0.571
       145 -10.3283     51.7940     48.3380   6.8738980701e+01   6.3313256484e+01    0.2694139    0.2320962 -29.12 0.0007432948    1.157    0.136
       146  -9.9760      1.8927     48.8842   9.8403679558e+01   6.8034016098e+01    0.2063677    0.1577258 -46.20 0.0008295905    1.194    0.162
       147  -9.9622    146.2793     47.2602   3.7260661875e+01   4.2159943643e+01    0.2581717    0.1805448 -28.25   0.00110393    1.486    0.327
       148 -10.2317     13.0053     47.1958   9.1076204171e+01   6.7944643167e+01    0.3411374    0.1233445 -52.42  0.001387403    2.288    0.563
       149  -9.6802     82.8849     46.8825   5.4325732692e+01   5.7631366032e+01    0.2331831    0.2012679  14.17 0.0008933927    1.258    0.205
       150 -11.3358     20.7108     46.0036   8.5885189731e+01   6.7686384847e+01    0.3103866     0.236552 -42.61 0.0004233101    1.215    0.177
       151 -10.0175    138.7849     44.0757   3.7653064641e+01   4.4507795507e+01    0.4442182    0.2028645  34.98   0.00140033    3.784    0.736
       152  -9.7271    133.8625     45.6738   3.9224400824e+01   4.5514282305e+01    0.2169897    0.1804087  66.34 0.0004289748    1.187    0.158
       153 -10.5414    155.8569     42.3268   3.3959795464e+01   4.0466829542e+01    0.2663967    0.2303672  -6.74 0.0008177703    1.314    0.239
       154 -10.3037    108.7699     41.9809   4.3948414806e+01   5.2392532296e+01    0.2957785    0.2715005 -13.48 0.0009392902    1.169    0.144
       155  -9.9068    110.2980     38.3516   4.2101517705e+01   5.2580338679e+01    0.2943814    0.2012389  -7.97 0.0009285932    1.967    0.492
       156 -10.9609     26.6063     42.6878   8.1126562392e+01   6.7945496852e+01    0.2729497    0.2437727 -40.90 0.0008423054    1.037    0.036
       157 -10.5811     22.4248     37.1595   8.1975932447e+01   6.9660288582e+01    0.5467836    0.2302062  40.12  0.002216964    2.716    0.632
       158 -11.4708      4.4470     36.3730   9.4373531224e+01   7.1055534898e+01     0.459265    0.3146434 -24.34  0.002578053    1.446    0.309
       159  -9.7453     17.6461     41.6804   8.6627401561e+01   6.8985069859e+01    0.2285021    0.1298383 -36.27  0.001088694    1.749    0.428
       160 -10.5372    231.5971     39.1525   2.4218215805e+01   2.3948961974e+01    0.2559338    0.1429544 -35.35  0.001265306    1.455    0.313
       161 -10.4013     79.3177     38.7422   5.2224747918e+01   5.9916832038e+01    0.4981647     0.328198  85.14  0.001894558    2.940    0.660
       162 -11.1969     79.6187     32.8906   4.9459529984e+01   6.0860304616e+01    0.6020116    0.3558321  28.46   0.00246658    2.200    0.546
       163 -11.2046     61.0183     36.2191   5.8963778083e+01   6.4198979990e+01     0.432145    0.3055692 -27.68   0.00132367    1.543    0.352
       164  -7.6634     66.8696     31.9440   5.4233745154e+01   6.3812689403e+01    0.5887769    0.4788561 -72.18  0.003011622    1.630    0.387
       165  -9.9077     43.2235     28.0217   6.4530612909e+01   6.8978294211e+01    0.2049265     0.173258  -8.78            0    1.186    0.157
       166 -11.8043     57.4887     30.5537   5.7976804746e+01   6.5950972639e+01    0.4657757    0.3902015 -20.34 0.0009886522    1.225    0.184
       167 -11.4088     48.2370     30.6060   6.2910172589e+01   6.7629581811e+01    0.7630256    0.3680241  27.15  0.002977938    2.564    0.610
       168 -10.2224     92.7593     41.6994   4.8682254638e+01   5.6319435462e+01    0.3622344    0.2060676  54.38  0.001532924    1.734    0.423
       169 -10.1552    176.7325     35.8657   2.8944916507e+01   3.6200016606e+01    0.2649455    0.1596705 -47.35 0.0008979195    1.584    0.369
       170  -9.3796    132.3302     36.6471   3.6338970945e+01   4.7210119709e+01    0.1596362    0.1080138 -65.97 0.0007046662    1.776    0.437
       171 -12.4673    160.0497     29.6994   2.9277512033e+01   4.1034413506e+01    0.4442348     0.411395 -34.29 0.0004233004    1.117    0.105
       172  -9.2651    229.3065    248.3412   6.4396443602e+01  -1.1144799707e+00    0.1060588   0.05565206   1.05 0.0007042275    1.685    0.407
       173 -10.0179     49.7009    123.0134   8.7867737780e+01   4.4976377793e+01    0.2891192     0.192478  -2.99  0.001320962    2.007    0.502
       174 -11.4717    107.4821     31.1761   3.9923240383e+01   5.4354577861e+01    0.5690549    0.3438446  16.04  0.002168888    2.780    0.640
       175 -11.9864    113.2829     25.3551   3.6086952281e+01   5.3654283227e+01    0.7270793    0.2971447  54.46  0.002217983    2.206    0.547
       176 -10.8530     32.5035     31.0360   7.2746456409e+01   6.9922409068e+01    0.3057462    0.2073508 -62.98  0.001096964    1.687    0.407
       177 -11.4708    126.4718    241.9882   8.2255249597e+01   1.1023481549e+01    0.2744229    0.1509191  37.05  0.001680049    1.492    0.330
       178 -10.2824     38.6137     22.2190   6.4357110732e+01   7.0850230385e+01    0.2502691    0.2053994  10.02 0.0005873991    1.205    0.170
       179 -11.0571     67.4768    240.9944   9.4533270982e+01   1.7855771766e+01    0.2117135    0.1370644  15.79 0.0008168017    1.568    0.362
       180 -10.5303     11.9282     29.9675   8.7080286479e+01   7.2197581928e+01    0.3532114    0.1964956 -40.11  0.001509169    1.655    0.396
       181 -10.3473      7.4890     30.4859   9.0630733144e+01   7.2339087069e+01    0.3339985    0.1724128 -12.86  0.001562238    2.164    0.538
       182 -12.1739    125.9829     28.4453   3.4577210123e+01   4.9950450623e+01    0.5424711    0.4277387  86.23  0.002788321    1.326    0.246
       183  -9.4683     86.2491     30.3518   4.5903081819e+01   5.9725134637e+01    0.1468466    0.1122462  12.00 0.0003739904    1.591    0.371
       184 -10.1347    197.0292     29.2787   2.4831649241e+01   3.2259931405e+01     0.181553    0.1592426 -76.15 0.0006280081    1.112    0.101
       185 -10.7850    189.0693     27.8653   2.5241256537e+01   3.4232721738e+01    0.3228656    0.2484924  17.35  0.001765918    1.704    0.413
       186  -9.3939     89.5805     29.4720   4.4389564595e+01   5.9060489090e+01    0.1444578    0.1401043  69.28 0.0003223843    1.065    0.061
       187  -9.8857    230.5144     26.4962   2.1350716429e+01   2.5516407640e+01    0.1204061   0.09919649 -45.49 0.0008105013    1.006    0.006
       188 -11.4714    182.8919     25.5623   2.5234326282e+01   3.5934637161e+01    0.2993551    0.2391893  68.60  0.001240643    1.286    0.222
       189  -9.7401     56.3106    121.9528   8.5372202368e+01   4.4439365923e+01    0.1949918    0.1817775 -84.83 0.0004317007    1.069    0.065
       190 -11.6047    143.7383     24.9809   3.0125865938e+01   4.5757341021e+01    0.3661036    0.2024288  63.32  0.001507134    1.705    0.414
       191 -10.8959     72.9974    237.7341   9.3127824642e+01   1.7798994352e+01    0.2287215    0.1378348  33.31   0.00145643    1.234    0.190
       192 -10.7406    146.5954    237.7431   7.7745849830e+01   9.2197808681e+00     0.239726    0.1796009  61.67  0.001544857    2.258    0.557
       193  -9.4632    249.3246    230.3217   5.8870788362e+01  -1.3223091386e+00    0.1065527   0.05550694   0.60    0.0007047    1.681    0.405
       194 -10.2055    248.8532    223.9636   5.8022163851e+01  -6.5708490463e-01    0.1739329   0.08430234  -6.45  0.001020704    2.044    0.511
       195 -10.1368    127.5089     16.3670   2.9630325613e+01   5.0986521294e+01    0.2874121    0.2118419  54.97 0.0009412633    1.308    0.236
       196 -10.2046    240.0930     32.6862   2.2090319281e+01   2.3039272097e+01    0.2148305    0.1684571  22.53  0.001406989    1.729    0.422
       197 -11.6898    154.0118     24.1711   2.8320880250e+01   4.3210144108e+01    0.4050932    0.2048381  88.74  0.001598824    2.526    0.604
       198 -10.0000     59.6701     23.8795   5.3465358588e+01   6.6699178507e+01    0.1961538    0.1719798 -35.54 0.0005222182    1.193    0.162
       199  -9.5925     75.4685    224.5153   9.1582061482e+01   1.9762749529e+01    0.1208372     0.093522  36.39 0.0001970708    1.015    0.015
       200  -9.5246     13.8152     23.2297   8.3142652997e+01   7.3616200403e+01    0.1836691    0.1319487 -32.02 0.0005981029    1.289    0.224
       201  -9.5690    223.5343     22.4400   2.0884919321e+01   2.7325190826e+01     0.122781   0.09964778 -49.82 0.0001147588    1.033    0.032
       202 -10.6980     90.8820     22.1239   4.0558943319e+01   5.9796489651e+01    0.3734284    0.2915573 -17.64  0.001924962    1.410    0.291
       203  -9.8608      6.2362     21.2414   8.8744144032e+01   7.4576555061e+01     0.375882    0.1249107 -47.26  0.001560122    2.434    0.589
       204 -10.0511    164.5286    211.9538   7.0836649312e+01   1.0578776846e+01    0.1828598     0.133177  21.51  0.000514817    1.101    0.091
       205  -9.4306    216.5159     20.5216   2.0922791219e+01   2.8965944706e+01    0.1227307    0.1051136 -49.39 4.218168e-05    1.023    0.023
       206  -9.4384    242.6608    211.6763   5.7110646423e+01   1.2312364085e+00    0.1126464   0.06096191   0.62 0.0007051033    1.722    0.419
       207  -9.8524     74.5607     19.7224   4.4875265811e+01   6.4072764129e+01    0.2481016    0.1833661  49.39 0.0005125907    1.265    0.209
       208 -10.1945     47.0193     19.3961   5.7636944070e+01   6.9928543104e+01    0.2587346    0.2393074 -11.90  0.001549006    1.066    0.062
       209 -10.5598    152.4622    206.8957   7.2578695533e+01   1.2930595915e+01    0.2515357    0.2138419  78.70  0.001465749    1.983    0.496
       210  -8.9718     61.5073    206.4951   9.3399477393e+01   2.4639486474e+01    0.1243293    0.1010929  39.34 -0.0001282137    1.009    0.008
       211 -10.6372    139.1221    198.8670   7.4293560559e+01   1.6042428021e+01    0.1955876    0.1583076  39.18  0.001237186    1.272    0.214
       212  -9.8109    234.0000    196.0042   5.5971165917e+01   3.9202361326e+00     0.171337   0.05298003 -33.41 0.0008079176    2.981    0.664
       213  -9.6020    223.4724    191.0384   5.6831406448e+01   5.7706072832e+00    0.1624954   0.07909536 -12.55 0.0008092026    2.483    0.597
       214 -11.4737      5.0067    185.8031   1.0627647301e+02   3.4118339438e+01     0.311209    0.2591315  33.69  0.001904412    1.182    0.154
       215  -9.7967     89.5079     16.5131   3.8260663352e+01   6.0870046613e+01    0.2666383    0.2067931  48.95 0.0009163744    1.200    0.166
       216 -10.2299    117.2870     16.5580   3.1593175426e+01   5.3665873174e+01    0.3447579    0.1273749  63.93 0.0009050817    2.423    0.587
       217 -10.5668    186.8447     14.9830   2.1836687299e+01   3.6119486490e+01    0.2156295    0.1814444 -88.11 0.0004932079    1.152    0.132
       218  -9.8993     86.0974    185.5003   8.5197335534e+01   2.5839702880e+01    0.2072229    0.1152261  29.47  0.001023789    1.567    0.362
       219  -9.9907     42.0132     14.9828   5.8004390661e+01   7.1594497555e+01    0.1905648      0.16925  84.53 0.0004136998    1.566    0.361
       220  -9.3453    175.7319    179.9981   6.3575234534e+01   1.3775012127e+01     0.153286    0.1044595 -33.28  0.000885113    1.506    0.336
       221  -9.6439    113.4163    175.8223   7.6943426338e+01   2.3938559315e+01    0.1805394    0.1212969 -36.29 0.0009302003    1.726    0.421
       222  -9.5142    198.3767    167.7761   5.7079253421e+01   1.2250981970e+01    0.1690768    0.1030261 -22.92 0.0005659763    1.586    0.369
       223 -10.7619      9.3624    167.1023   1.0448220100e+02   3.7909626164e+01    0.2422111    0.1549671  36.72 0.0008409275    1.361    0.265
       224  -9.4169    152.4997    166.5281   6.6104363779e+01   1.9574215440e+01    0.1355757    0.1176325  13.11  8.83134e-05    1.006    0.006
       225 -10.8962    205.0228    163.3495   5.5076560073e+01   1.1904321522e+01    0.2242424    0.1645004 -30.02 0.0006961508    1.328    0.247
       226  -9.9303    215.7951    157.1594   5.2081907177e+01   1.1187965314e+01    0.1750067    0.1234445   2.64 0.0008507251    1.346    0.257
       227 -10.5524    104.6490    154.4247   7.5815965987e+01   2.9688927768e+01    0.3417403    0.2607225   1.74  0.001751329    1.560    0.359
       228  -9.6149      9.4827    155.5044   1.0394967815e+02   4.0580573214e+01    0.1264509    0.1079094  61.20  5.66041e-05    1.001    0.001
       229 -10.4709    141.3739    152.2365   6.6005040160e+01   2.4033352983e+01    0.2768123    0.2092981  43.51 0.0008528933    1.340    0.254
       230  -9.8755     30.3359    152.3095   9.7506901873e+01   3.9680574269e+01    0.1307958   0.09673197 -34.77 0.0005600775    1.679    0.405
       231 -12.2708     23.2407    148.7910   9.9419985023e+01   4.1143344389e+01     0.446671    0.2757437 -37.23  0.001685939    2.088    0.521
       232 -10.8936     46.5573    147.2934   9.2008808809e+01   3.9277308686e+01    0.5379706    0.3034006 -42.59  0.002454983    2.193    0.544
       233 -10.0742     65.5746    149.4780   8.6388613195e+01   3.6485296470e+01    0.3062478    0.1339909   8.90  0.000809416    5.904    0.831
       234 -10.7703     16.2195    147.9207   1.0152809068e+02   4.1905029644e+01    0.2748939    0.2023273  35.82 0.0005462244    1.269    0.212
       235  -9.8335      3.2334    147.7486   1.0547548087e+02   4.2823260685e+01    0.1648431    0.1386785 -56.58  0.001051981    1.347    0.258
       236  -9.5257     74.1807    145.8760   8.3250556218e+01   3.6184068744e+01    0.1885385    0.1644953 -25.76 0.0004563386    1.313    0.239
       237 -11.1119     33.1577    144.5002   9.5962478910e+01   4.1317596646e+01    0.2768797    0.2254513  47.83  0.000690243    1.121    0.108
       238 -10.6887      5.9335    142.0846   1.0440615698e+02   4.4020782060e+01    0.2276432    0.1641386  77.14 0.0003019109    1.249    0.199
       239 -11.0337      1.9729    140.7889   1.0558604517e+02   4.4570513991e+01    0.3813742    0.2160287  87.68  0.001123269    1.626    0.385
       240 -10.3305     40.5302    138.1371   9.2937444373e+01   4.2168350104e+01    0.2722601     0.182274  57.54 0.0007963493    1.468    0.319
       241  -9.8247    217.4613    138.5516   4.8171688468e+01   1.3510345992e+01    0.1245393    0.1033062  -9.73 9.196586e-05    1.002    0.002
       242  -9.8781     79.1353    137.9190   8.0457541586e+01   3.7359483943e+01    0.2264989     0.189623  64.04 0.0009883486    1.247    0.198
       243 -11.2259     22.2636    136.1839   9.8785115033e+01   4.4322959213e+01    0.5639289    0.2988107  34.72  0.002760743    1.722    0.419
       244 -10.9798     29.9133    133.1670   9.5963329254e+01   4.4433640144e+01    0.3756998    0.2387104 -33.51 0.0008883265    1.993    0.498
       245 -10.0627     32.3065    137.5728   9.5589577933e+01   4.3111509759e+01    0.2485777    0.1168833  29.00  0.001060875    1.963    0.491
       246 -10.9889     12.5308    135.8711   1.0196392252e+02   4.5118557770e+01    0.4243985    0.2415117 -47.58    0.0021098    2.016    0.504
       247 -10.2079     73.3513    133.4762   8.1540193627e+01   3.9268605187e+01    0.2774079    0.1853983 -67.76   0.00109735    1.600    0.375
       248 -10.7552    248.4913    133.4915   4.2687362815e+01   9.5897229010e+00    0.1163949   0.09084447 -16.10 0.0001076672    1.012    0.011
       249  -9.4654     39.4963    133.4950   9.2761823088e+01   4.3435894413e+01    0.1358533    0.1287834  67.83 -2.896628e-05    1.034    0.033
       250  -9.6738     93.0008    129.7715   7.4682735355e+01   3.7106486387e+01    0.2173613    0.1685755  83.71  0.001052193    1.621    0.383
       251  -9.4374     22.9404    126.9415   9.7776097621e+01   4.6598773586e+01    0.1555844     0.143244  70.51 0.0002908951    1.014    0.014
       252 -10.7833     11.0308    126.9441   1.0190125553e+02   4.7450330758e+01    0.2036744    0.1780416  69.55 0.0008365608    1.027    0.027
       253  -9.8490      2.1342    125.8998   1.0488363094e+02   4.8228334946e+01    0.2086588    0.1497061  60.81 0.0007390321    1.264    0.209
