#   1 NUMBER                 Running object number                                     
#   2 MAG_AUTO               Kron-like elliptical aperture magnitude                    [mag]
#   3 X_IMAGE                Object position along x                                    [pixel]
#   4 Y_IMAGE                Object position along y                                    [pixel]
#   5 X_WORLD                Barycenter position along world x axis                     [deg]
#   6 Y_WORLD                Barycenter position along world y axis                     [deg]
#   7 A_WORLD                Profile RMS along major axis (world units)                 [deg]
#   8 B_WORLD                Profile RMS along minor axis (world units)                 [deg]
#   9 THETA_WORLD            Position angle (CCW/world-x)                               [deg]
#  10 FWHM_WORLD             FWHM assuming a gaussian core                              [deg]
#  11 ELONGATION             A_IMAGE/B_IMAGE                                           
#  12 ELLIPTICITY            1 - B_IMAGE/A_IMAGE                                       
         1  -9.6954     97.6086     14.1932   5.4783804831e+01   5.8083567838e+01    0.3464505    0.1506877 -27.84  0.001556927    2.399    0.583
         2  -9.7164     40.9067     13.9793   7.4934151357e+01   6.8379413430e+01    0.1854672    0.1412345  -0.03 0.0003114559    1.039    0.038
         3 -11.0481    246.9602    248.1752   8.1960233134e+01  -1.0528826314e+01    0.2831043    0.2238729  -2.23  0.001495133    1.199    0.166
         4 -11.4152    166.0033    248.6882   9.7088430196e+01   6.1070089153e-01    0.3297099    0.2520976  20.34  0.001302775    1.160    0.138
         5 -10.9404    249.1717    237.3736   7.9790129569e+01  -9.5081692708e+00    0.2502148    0.1977376   8.33  0.001545348    1.180    0.152
         6 -10.4232    167.9776    242.4792   9.5821303838e+01   1.2615310735e+00    0.1796484    0.1598613   9.87 0.0004846976    1.116    0.104
         7 -10.9203    237.2913    240.2934   8.2359030850e+01  -8.3474176813e+00    0.3577146     0.169754  31.47  0.001651825    1.861    0.463
         8  -9.4341    108.0136    237.2759   1.0725600383e+02   1.1169534588e+01    0.2215026    0.1177855  72.16 0.0009058191    3.511    0.715
         9  -8.6328    165.2923    234.3143   9.5161429269e+01   2.9646577957e+00    0.1264061   0.09099538   3.17 0.0004490323    1.595    0.373
        10  -9.6766    169.4588    232.4717   9.4040458459e+01   2.6150542762e+00    0.2441022    0.2055495  54.21  0.001452149    1.438    0.304
        11  -9.7745    236.8344    231.7054   8.0994274765e+01  -7.1855523414e+00    0.2083042    0.1343056 -38.10   0.00125349    1.825    0.452
        12 -10.7969    174.1392    244.9296   9.4961467191e+01  -3.7328877265e-02    0.3051324    0.2155072 -66.76  0.001697151    2.464    0.594
        13  -9.5484    171.0529    225.6672   9.2657710643e+01   3.4782276516e+00    0.1948409    0.1819074 -67.56 0.0003577869    1.417    0.294
        14 -11.2114    164.5356    226.3334   9.4101470801e+01   4.4025493619e+00    0.5036151    0.3357866  20.67  0.002741331    1.504    0.335
        15  -9.9046    160.6141    227.2137   9.5046257386e+01   4.8766489051e+00    0.2674415    0.1910052 -26.87  0.001433242    1.616    0.381
        16  -9.0952    185.2203    226.9402   8.9993236394e+01   1.0417660663e+00    0.1558667    0.1037316 -39.25 0.0008670705    1.659    0.397
        17  -9.7870    116.9293    227.0442   1.0417279476e+02   1.1742009399e+01    0.1951959    0.1748617  41.17 0.0005975317    1.046    0.044
        18 -10.8339     99.2715    226.3515   1.0780082589e+02   1.4491503549e+01    0.3827099    0.2501444  29.84  0.001273563    1.571    0.364
        19 -10.6686     88.4951    224.6697   1.0986771591e+02   1.6352528595e+01    0.4140946    0.1154062 -60.99  0.001582664    3.743    0.733
        20 -11.0093    126.0394    220.9094   1.0141814212e+02   1.1497801285e+01    0.3263769    0.2597328  50.76 0.0007120548    1.194    0.162
        21  -9.7282    108.3382    223.2476   1.0551122061e+02   1.3760775943e+01     0.253943    0.2062364  -9.77  0.001398336    1.676    0.403
        22  -9.2302     19.3906    222.8329   1.2351461427e+02   2.4942051280e+01     0.155068   0.08582942 -68.41 0.0009501929    1.773    0.436
        23  -8.9401    157.4429    221.7539   9.4864884074e+01   6.3266393192e+00    0.1640888    0.1229476 -28.10 0.0004355286    1.505    0.336
        24  -8.8133    148.6354    220.7677   9.6571696835e+01   7.9233900551e+00    0.1641641    0.1278744 -61.96 0.0004124426    1.591    0.371
        25 -10.1992    132.4689    220.8092   1.0002571175e+02   1.0503467695e+01    0.3544881     0.271844  80.87  0.001978563    1.733    0.423
        26  -9.4698    131.0488    214.9387   9.9482019412e+01   1.1846143180e+01    0.2280788    0.1946506 -45.85 0.0009583102    1.300    0.231
        27  -9.1546    114.8311    221.1394   1.0385411389e+02   1.3188523972e+01    0.1694593    0.1490281   7.86 0.0005030843    1.324    0.245
        28  -9.6676     75.1920    219.8662   1.1214442506e+02   1.9130450380e+01    0.1556911    0.1474777  17.34 0.0005934322    1.321    0.243
        29 -10.0826     98.8447    217.4427   1.0682684773e+02   1.6315122990e+01    0.3000169    0.1937438 -78.89  0.001585701    1.858    0.462
        30 -10.1615    123.4937    223.9673   1.0237971742e+02   1.1315845700e+01    0.2691853     0.183966 -86.55  0.001389386    2.124    0.529
        31  -9.2579    191.5214    217.4742   8.7142163768e+01   1.5625718849e+00    0.1334424    0.1114747  11.07 0.0001505941    1.024    0.023
        32  -8.9283    143.5423    216.9494   9.7077959665e+01   9.4469103195e+00    0.1833302    0.1328353 -48.82 0.0005710906    1.541    0.351
        33  -8.5915    175.6721    216.3243   9.0180340324e+01   4.3071780584e+00    0.1268341     0.104339  64.67 0.0007049553    1.696    0.410
        34 -10.4163     79.1645    211.1662   1.1035737506e+02   2.0398538060e+01    0.2526768    0.1589872  34.40  0.001013232    1.577    0.366
        35  -8.7517    135.8062    208.8666   9.7520086704e+01   1.2252809151e+01     0.180034    0.1498467  59.02 0.0003999099    1.289    0.224
        36  -8.2855    193.6952    207.6755   8.4974467797e+01   2.8222267036e+00    0.1390904   0.09515215  -0.04 0.0005905908    1.643    0.391
        37  -9.1470     56.9838    206.0000   1.1462507135e+02   2.4362867813e+01    0.1943523   0.06629793  32.97 0.0005371922    2.905    0.656
        38  -8.8101     48.6764    202.3158   1.1606644513e+02   2.6144654789e+01    0.1329552   0.07851765  65.80 0.0007042629    1.665    0.399
        39 -10.5522    250.3439    198.8227   7.2667717606e+01  -4.5228742655e+00    0.3132321    0.1280336 -29.18  0.001423555    2.290    0.563
        40  -9.7452    126.8145    197.3208   9.7721078672e+01   1.6071934698e+01    0.2547607    0.2197376 -25.91 0.0008593731    1.311    0.237
        41 -10.5462    173.1713    195.1160   8.6962470759e+01   8.5179882365e+00    0.4731684     0.273162 -40.46  0.001952549    1.799    0.444
        42  -9.8223     66.8012    194.9922   1.1127211985e+02   2.5556020115e+01    0.2262061    0.1321293  75.69  0.001082934    2.041    0.510
        43  -9.5874     43.3402    192.8523   1.1634328704e+02   2.8840528646e+01    0.2563932    0.1063383 -81.50  0.001093344    2.647    0.622
        44  -8.9046    138.7982    190.5589   9.3824625315e+01   1.5440645373e+01    0.2058889    0.1268375  46.52 0.0008756006    1.621    0.383
        45 -11.7274     95.5034    187.2658   1.0352145534e+02   2.3266867844e+01    0.7306842    0.2650503  51.02  0.002470779    3.489    0.713
        46  -9.8998     87.2235    189.4333   1.0580579751e+02   2.4007724782e+01    0.1946045    0.1147604  47.95 0.0006762498    1.642    0.391
        47  -8.4999    156.5004    188.4436   8.9399631021e+01   1.2752836107e+01    0.1426241    0.1324124  21.04 0.0008079235    1.015    0.015
        48 -10.9047    109.1144    185.8449   1.0003623962e+02   2.1452869098e+01    0.5093635    0.2745371  65.05  0.001894855    3.093    0.677
        49  -8.8034     34.3457    187.6543   1.1786586837e+02   3.0966749487e+01    0.1369825   0.07643379  66.48  0.000704421    1.800    0.444
        50 -10.0550     74.8324    184.6744   1.0811835896e+02   2.6836255949e+01    0.2710489    0.1621013  80.01  0.001235677    2.156    0.536
        51 -10.0686     14.6655    184.2569   1.2191928728e+02   3.3579118056e+01    0.4142732    0.2458627 -19.14  0.002030304    3.492    0.714
        52  -9.6769    211.3466    182.8652   7.6691743002e+01   4.0801809242e+00    0.3232456    0.2262094  12.29  0.001679255    1.502    0.334
        53 -10.3576     89.2806    199.6757   1.0670320180e+02   2.1438468014e+01    0.2923445    0.1913397  66.54  0.001167104    1.708    0.415
        54  -8.8979     44.3529    182.6783   1.1509979062e+02   3.1045370997e+01    0.1390039   0.08204723  66.09 0.0007047379    1.753    0.430
        55  -8.1741    197.6407    181.6859   7.9196205178e+01   6.6706013086e+00    0.1507057    0.1027204   1.76 0.0005727801    1.750    0.428
        56  -8.7439    148.4508    181.5466   8.9948556483e+01   1.5605133723e+01    0.1432725    0.1368266  42.01 0.0008054287    1.082    0.076
        57  -9.9323     54.8586    186.7724   1.1309571965e+02   2.8900862800e+01    0.2621486    0.1458099  76.68  0.001172178    2.136    0.532
        58  -9.7406    204.9894    176.1405   7.6576101218e+01   6.3625988436e+00    0.3076718     0.210078 -22.73  0.001428937    1.462    0.316
        59 -10.1207     88.8613    177.3517   1.0365324895e+02   2.6537243888e+01    0.2888268     0.108394  42.24  0.001096134    2.558    0.609
        60 -12.0485     77.4547    175.7668   1.0625228418e+02   2.8549936809e+01    0.5004066    0.3892126 -72.38  0.002794051    1.240    0.193
        61 -10.1494     60.2117    177.1492   1.1068707705e+02   3.0487509426e+01    0.2724069    0.1432764  57.94  0.001240189    2.125    0.529
        62 -10.7390    106.1545    175.6831   9.9088037826e+01   2.4230002252e+01    0.2910717    0.2078576  61.96  0.001267228    1.582    0.368
        63 -10.5054     93.6930    173.8722   1.0190278379e+02   2.6619551295e+01    0.2725526     0.176589  16.57  0.001229156    2.103    0.525
        64  -9.6430    122.2099    170.3848   9.4151332411e+01   2.2725763307e+01    0.2989275    0.2139358  64.71  0.001259828    1.728    0.421
        65  -9.4588    207.3163    170.4319   7.4921769341e+01   6.9679644637e+00    0.2580495    0.1324312  35.84 0.0009962276    1.997    0.499
        66 -10.6969    111.8338    167.0153   9.6133364576e+01   2.5287511553e+01    0.4170038    0.2612304 -69.13  0.001830952    1.917    0.478
        67  -9.9955     54.8805    169.7261   1.1106885039e+02   3.2891756756e+01    0.2728572    0.1552953  79.14  0.001237684    2.184    0.542
        68 -10.9269     99.7768    166.6109   9.9141050941e+01   2.7371309242e+01    0.4001873    0.2178989  53.51  0.001663353    2.138    0.532
        69  -9.0242    219.3074    166.0479   7.1673506506e+01   5.6068434509e+00    0.2669062    0.1883159  70.09  0.001185552    2.753    0.637
        70  -9.0522    140.2206    165.8426   8.8832190623e+01   2.0481080437e+01    0.2544766    0.1671834  77.61 0.0009513882    2.888    0.654
        71 -11.1205     79.9003    163.9930   1.0384920400e+02   3.1010235696e+01    0.5098292    0.2857521  87.85  0.001952541    2.912    0.657
        72  -9.0270     37.6248    164.7840   1.1478342920e+02   3.5964482876e+01    0.1864943    0.1073037 -85.24 0.0004346862    1.694    0.410
        73  -8.9036    148.7821    163.8798   8.6362757047e+01   1.9297259427e+01    0.2046659    0.1792763  68.44  0.001030672    1.340    0.254
        74  -8.6112    152.3083    161.6411   8.5050908565e+01   1.9105425567e+01    0.1519831     0.122255  87.03 0.0007041277    1.733    0.423
        75 -10.8141     93.4444    160.7737   9.9762547552e+01   2.9760994592e+01    0.3590787    0.2297818  63.17  0.001597442    1.958    0.489
        76  -9.3434     61.4537    160.2297   1.0810087432e+02   3.4386125134e+01    0.1977014    0.1232194 -81.06 0.0009493188    1.689    0.408
        77  -8.4566    144.5353    159.5067   8.6470239777e+01   2.1060272282e+01    0.1505483    0.1449659  -1.60 0.0002828882    1.014    0.014
        78 -10.8503    105.9520    158.4398   9.6049616204e+01   2.8291167730e+01     0.377167    0.2398176  62.05  0.001445373    2.037    0.509
        79  -9.9193    219.1333    156.0637   6.9554737691e+01   7.3892072838e+00    0.2297447     0.201417 -15.16 0.0003523153    1.007    0.007
        80 -10.2357    120.1675    156.0687   9.1879194881e+01   2.6375517739e+01    0.3421843    0.2347044  86.77  0.001404017    2.327    0.570
        81 -11.4774     82.2730    155.2404   1.0176875496e+02   3.2788159174e+01    0.5236632    0.3416141 -79.96  0.002394055    1.798    0.444
        82 -10.3130     49.9640    155.3417   1.1044089251e+02   3.6936521905e+01    0.3893809    0.2152583  70.57  0.001711438    2.374    0.579
        83  -9.9881    134.3486    153.8484   8.7791540305e+01   2.4263723115e+01    0.4051737    0.2394304  58.15  0.001589536    2.279    0.561
        84 -10.4005     67.9177    153.7846   1.0540201497e+02   3.5135916287e+01    0.3286077     0.186821  63.86  0.001396707    2.337    0.572
        85 -10.2245     98.7360    151.3187   9.6604833642e+01   3.1189365109e+01    0.2785678    0.1839856 -70.81 0.0009251043    1.729    0.422
        86  -8.9464    189.8369    149.2732   7.3854089879e+01   1.4249584347e+01    0.3941859     0.104806 -39.21  0.001137087    3.740    0.733
        87  -9.3125     28.6559    149.8353   1.1536555633e+02   4.0420154731e+01    0.2858736    0.1330477  80.71  0.001142072    2.996    0.666
        88 -10.8341     56.4164    145.8624   1.0730465031e+02   3.8524668981e+01    0.5569853     0.299224  68.62  0.002234009    2.811    0.644
        89  -9.6891     39.5006    147.5623   1.1219261192e+02   3.9950866340e+01    0.3697624    0.1990288  69.39  0.001640566    2.424    0.587
        90  -9.9719    149.4988    145.6697   8.2208321786e+01   2.3131067771e+01    0.4725894    0.3257461  84.31  0.001802202    2.722    0.633
        91 -11.5315    107.5610    145.3351   9.3008333461e+01   3.1138616576e+01    0.6421352    0.3899021  70.01  0.002364316    2.880    0.653
        92  -9.4009    213.0374    155.6835   7.0626439599e+01   8.5777080445e+00    0.1980866    0.1778147  19.91 0.0004330539    1.139    0.122
        93  -8.7999     13.4711    146.5211   1.1895721259e+02   4.2450524504e+01    0.1266148    0.1002034  89.47 0.0008077114    1.099    0.090
        94 -10.9487     88.3174    143.9923   9.8046717364e+01   3.4627330631e+01    0.3536206    0.2579633  87.25  0.001148095    1.733    0.423
        95 -10.7037    197.1266    143.0133   7.0907258735e+01   1.4006333908e+01    0.2857503    0.2689633 -42.00 0.0004883884    1.149    0.130
        96 -10.6775    125.3117    143.2269   8.7799598181e+01   2.8411542151e+01    0.4407978    0.3152138 -89.25  0.001844162    2.162    0.537
        97 -10.6476     69.6628    140.5690   1.0268148293e+02   3.8165082051e+01    0.4276501    0.2419316  88.52  0.001599415    2.954    0.661
        98 -10.5385     69.1014    134.6177   1.0175129902e+02   3.9714603590e+01    0.4053809    0.2426317 -32.23  0.001759726    2.163    0.538
        99  -9.8248     81.4779    139.4731   9.9100963637e+01   3.6771133495e+01    0.2677669    0.1395243 -70.89  0.001029228    2.379    0.580
       100  -9.7907     23.2881    138.1188   1.1541393831e+02   4.3725008024e+01    0.4498004    0.1952342  66.95  0.001689983    3.705    0.730
       101 -10.1555     56.3119    137.5889   1.0599667309e+02   4.0587134683e+01    0.3369247    0.1636989 -38.90  0.001347725    2.608    0.617
       102  -9.7897     39.2095    136.1625   1.1068494270e+02   4.2786311071e+01    0.2509618    0.1490504  58.83 0.0009095543    2.008    0.502
       103 -10.6959    113.1493    133.7727   8.8940345502e+01   3.2893565476e+01     0.428962    0.2739262  68.20   0.00165378    2.510    0.602
       104 -10.6638    132.6393    132.0504   8.3276743137e+01   2.9557021503e+01    0.4011613    0.2968409 -88.33  0.001403965    2.056    0.514
       105 -11.4184     83.5311    131.7721   9.6957521614e+01   3.8357113284e+01    0.4994529    0.3691848  80.61  0.001435922    1.762    0.432
       106  -9.3291    143.8169    132.2666   8.0452665534e+01   2.7243867345e+01    0.2522236    0.2040581  67.70   0.00118358    1.521    0.342
       107  -9.2755    153.6118    130.2505   7.7530398450e+01   2.5647298970e+01    0.2474147    0.1937216 -82.78   0.00109968    1.805    0.446
       108 -11.3924     99.2999    128.1468   9.1567788450e+01   3.6691961801e+01    0.6820986    0.4030114 -77.53  0.002074177    2.970    0.663
       109 -11.1700     73.2928    128.6576   9.9349066559e+01   4.0615997082e+01    0.6207079    0.3077099 -66.47  0.002473358    2.205    0.546
       110  -9.5527     12.7123    129.3277   1.1730800810e+02   4.6641220152e+01     0.334047    0.1778745  72.10  0.001624658    2.271    0.560
       111 -10.8702    118.2599    125.6729   8.5605095568e+01   3.3836550046e+01    0.5171574    0.3476435  81.19  0.001942011    2.733    0.634
       112 -10.7879     59.7220    124.4487   1.0262341577e+02   4.3436825106e+01    0.6528341    0.3754623  79.60  0.002476358    3.151    0.683
       113 -10.9377     43.9896    122.1738   1.0703372461e+02   4.5767789096e+01     1.030257    0.5037712  88.02  0.003419071    4.229    0.764
       114  -8.6720    180.0112    125.4780   7.0280675942e+01   2.1001771005e+01    0.2103859    0.1397897  73.48 0.0008089778    2.525    0.604
       115 -10.4716     28.6169    122.4077   1.1175512078e+02   4.7134242039e+01    0.7085541    0.3242915  74.92  0.002335463    4.748    0.789
       116 -10.0494     84.0807    122.7596   9.4846408857e+01   4.0476202072e+01    0.3027889    0.1745446 -33.26  0.001232997    2.129    0.530
       117  -9.0305    158.5867    121.7763   7.4200147927e+01   2.6392941052e+01    0.2249092    0.1452278 -52.65 0.0007332584    1.694    0.410
       118 -10.2206    142.2218    119.7894   7.7723531873e+01   3.0323952473e+01    0.4816706    0.2963041 -64.94  0.001664554    2.429    0.588
       119 -10.7450     71.2129    119.4502   9.8059213499e+01   4.3169498813e+01    0.4796781    0.2547041 -72.35  0.001829997    2.514    0.602
       120 -10.3929    131.1684    118.8364   8.0365669761e+01   3.2836686323e+01    0.3628268    0.2535186 -69.06  0.001486927    1.958    0.489
       121  -9.7824      2.7024    116.5566   1.1870477187e+02   5.0311486715e+01     0.468148    0.1891554  81.78  0.001765845    3.812    0.738
       122 -10.6223    109.3366    114.1658   8.5247860903e+01   3.8195307152e+01    0.4873621    0.3272117 -75.89  0.001948163    2.322    0.569
       123 -10.8097     79.3132    112.8144   9.4023328195e+01   4.3610591924e+01    0.6171747    0.3913768 -84.95  0.002269173    2.699    0.630
       124 -10.8326     92.8770    112.5958   8.9759958368e+01   4.1496065532e+01    0.4953199    0.3500378 -82.08  0.001533863    2.082    0.520
       125  -9.9608    122.1653    112.6930   8.1211623492e+01   3.6039836372e+01    0.2764654     0.214305 -56.65 0.0007657211    1.376    0.273
       126 -10.7746     66.9837    111.1537   9.7563734335e+01   4.5767117028e+01    0.3606009    0.2451471  74.07  0.001409251    2.235    0.553
       127 -10.7355     14.3031    109.6963   1.1429012110e+02   5.1278903545e+01    0.4843403    0.2708011 -81.73  0.001918893    1.745    0.427
       128 -10.3551    133.2118    109.0767   7.7231318684e+01   3.4561817490e+01    0.4732851    0.3000677 -79.42  0.001531033    3.630    0.725
       129  -9.7574     59.5719    109.7766   9.9658004068e+01   4.7056181638e+01    0.1988763    0.1293434 -69.15 0.0006639703    1.617    0.382
       130 -10.1005    109.1838    106.6854   8.3316910678e+01   3.9934798421e+01    0.2244881    0.1953227 -50.74  0.001142155    1.151    0.131
       131 -10.0897     92.9550    104.5734   8.7670512081e+01   4.3358681396e+01    0.4045817     0.221901 -30.32  0.001546258    2.338    0.572
       132  -9.6527     60.8356    106.3603   9.8480964037e+01   4.7724798003e+01    0.1905645     0.134977   9.62 0.0009460896    1.720    0.419
       133 -11.3690     45.9242    102.6738   1.0265556073e+02   5.0334885210e+01    0.7739401    0.4254842  69.01  0.002820376    3.893    0.743
       134 -11.0567     22.9478    102.6122   1.1037342537e+02   5.2391233031e+01    0.6604359    0.3486414  72.99  0.002731098    3.274    0.695
       135  -9.4647    139.8348    105.1015   7.4404723904e+01   3.3992278103e+01    0.2458116    0.2170908 -78.41 0.0007733711    1.349    0.259
       136  -9.8537    150.1740    103.6272   7.1400231265e+01   3.2019561142e+01    0.3378986    0.2415569 -64.45  0.001125733    1.819    0.450
       137  -9.4226      6.7179    103.1434   1.1576645409e+02   5.3292720910e+01    0.2026004      0.13662  89.13  0.001182853    1.523    0.343
       138  -9.9564    128.2911    102.1193   7.6632426092e+01   3.7099328564e+01    0.2945049    0.2123305  74.31  0.001174552    2.088    0.521
       139 -11.2367    109.6812     99.3201   8.1133273011e+01   4.1483350662e+01    0.7692921    0.4908997  74.26  0.002671415    3.345    0.701
       140  -9.6620    107.4002     92.7813   7.9931009438e+01   4.3348840276e+01    0.3687355    0.2313954   7.63  0.001371542    2.690    0.628
       141  -9.9278     82.1518    100.0897   8.9921668213e+01   4.6179128519e+01    0.3326809    0.2308711 -85.65  0.001232729    2.392    0.582
       142  -9.3353    129.3200     98.3005   7.5269179271e+01   3.7691056804e+01    0.1592027    0.1222053   1.40 0.0002248165    1.623    0.384
       143 -10.0366     95.1372     97.4965   8.5059752541e+01   4.4591512069e+01    0.2827654    0.2410183 -80.07 0.0007828376    1.473    0.321
       144 -10.9145     64.0417     96.3488   9.4998024340e+01   4.9689490873e+01    0.5160236    0.3383489  83.58  0.002102125    2.903    0.655
       145 -10.1516     43.8228     92.7846   1.0119339603e+02   5.2908089409e+01    0.3098852    0.1852308 -31.49  0.001419422    1.793    0.442
       146 -10.0865     20.6432     93.2631   1.0948972662e+02   5.4784354826e+01    0.3672461    0.1257372 -42.38  0.001480347    2.781    0.640
       147  -9.1322    139.1528     92.4957   7.0997409782e+01   3.6735588846e+01    0.3510792    0.2233464 -89.59  0.001082074    4.097    0.756
       148  -9.8574    124.4886     91.0095   7.4466849430e+01   4.0236109907e+01     0.366188    0.2652916 -69.25 0.0009781797    1.959    0.490
       149 -10.5694     34.5832     89.1129   1.0367423655e+02   5.4656913504e+01    0.5792983    0.2779379 -75.46  0.002296717    2.946    0.661
       150  -9.8298     36.4533     81.4212   1.0118767888e+02   5.6264191354e+01    0.3809509    0.1523041 -36.20  0.001496514    2.779    0.640
       151 -10.0143      4.8469     91.4926   1.1466636024e+02   5.6135662323e+01    0.3298864    0.1791805  73.76  0.001579978    2.685    0.628
       152 -10.6958     86.9109     87.0948   8.4716323446e+01   4.8321813812e+01    0.4476504     0.297545  66.12  0.001579407    2.593    0.614
       153 -10.0422     64.3867     87.4560   9.2534474832e+01   5.1691401822e+01    0.3450536    0.1902111  -9.17  0.001219968    3.539    0.717
       154 -10.4923     48.8103     84.8246   9.7447088047e+01   5.4220035979e+01    0.4154097    0.2822456  74.04  0.001903175    2.581    0.612
       155 -10.2463      7.8695     84.1459   1.1238377932e+02   5.7690440927e+01    0.4785374    0.2314104 -24.13  0.001937483    2.490    0.598
       156  -9.4434      8.3705     80.7097   1.1157990565e+02   5.8455102123e+01    0.2848143    0.1276159  40.45  0.001322079    2.987    0.665
       157 -10.1733    104.6431     83.1273   7.7858239690e+01   4.5916673176e+01     0.391758    0.2867981 -78.24  0.001605481    2.253    0.556
       158  -9.2429    140.8096     83.2255   6.7830630616e+01   3.8170254791e+01    0.2539877    0.1701158 -77.64 0.0009428375    2.746    0.636
       159 -10.5612     24.5205     80.5385   1.0549053394e+02   5.7469008049e+01    0.4735166     0.266798 -84.72  0.002078459    2.700    0.630
       160 -10.0220     25.9777     72.7791   1.0310986914e+02   5.9111795861e+01    0.5405598    0.2095242 -24.16  0.001785801    4.808    0.792
       161  -9.5316     74.8047     80.9777   8.7003829077e+01   5.1614197723e+01    0.2283743    0.1712189 -78.34  0.001075256    2.031    0.508
       162  -8.4312    184.3691     77.6968   5.6810938713e+01   2.8929845304e+01    0.1556722     0.114006 -74.00 0.0007033549    1.747    0.428
       163  -9.4717     61.5847     76.8074   9.0504611046e+01   5.4431081255e+01    0.2002048    0.1282754 -58.87 0.0009557341    1.718    0.418
       164  -9.7746     49.5469     76.9431   9.5050948386e+01   5.5908049141e+01    0.2092914   0.08759319 -36.89 0.0008084095    2.526    0.604
       165  -9.1561    128.1735     75.7930   6.8800550925e+01   4.2415987931e+01    0.2526897    0.1709894 -78.81 0.0007711923    2.844    0.648
       166  -9.2965      9.9937     74.7051   1.0980330649e+02   5.9735210499e+01    0.1637709    0.1380463 -42.47 0.0003391202    1.109    0.098
       167  -9.2833    105.8132     71.8065   7.3883555398e+01   4.7927062814e+01    0.2333616    0.1788684 -83.30 0.0008923245    2.137    0.532
       168  -9.4080     95.5989     71.8590   7.7098472732e+01   4.9914691324e+01    0.2933658    0.1830844 -54.15  0.001280168    1.955    0.488
       169 -10.3608     51.4404     69.5790   9.2172952314e+01   5.7280748338e+01    0.4802839    0.2482421 -67.28  0.001806779    3.404    0.706
       170 -10.0699     82.4872     72.9730   8.1832488029e+01   5.2046846809e+01    0.3400508    0.2552955 -73.03  0.001159339    2.062    0.515
       171  -9.8228     16.9015     70.5060   1.0617829880e+02   6.0266531867e+01    0.2303257    0.1640793 -77.54 0.0009711292    1.599    0.375
       172  -8.5970      1.3176     69.3109   1.1211559597e+02   6.1363968505e+01    0.1307305   0.06520993 -42.37 0.0006445838    1.641    0.391
       173 -10.1079     37.4819     64.4868   9.6219606717e+01   5.9899555774e+01    0.2620023     0.195166  74.98  0.001130622    2.341    0.573
       174  -9.3710     17.8266     62.9587   1.0396488923e+02   6.1861529737e+01    0.2282449   0.09337547 -40.74  0.001067725    2.041    0.510
       175  -9.8704     73.3590     59.9687   8.0677513679e+01   5.6111912860e+01    0.3584757    0.2429757 -53.08  0.001293648    1.758    0.431
       176  -9.8132     24.7353     59.1655   1.0001119238e+02   6.2164517344e+01    0.2518915    0.1464352 -58.74  0.001094509    1.616    0.381
       177 -10.6961      7.3720     57.0936   1.0694696341e+02   6.3744398924e+01    0.3645589    0.1915627 -70.30  0.001903622    2.010    0.502
       178  -8.6808    119.6304     56.3310   6.4685712903e+01   4.7713664893e+01    0.1491583    0.1179987 -78.51 0.0007031182    1.827    0.453
       179  -9.6836     54.3924     54.4673   8.6032480573e+01   5.9962552205e+01    0.3557163    0.1859263 -58.43  0.001474756    2.851    0.649
       180  -9.4179     43.9111     55.7776   9.0802661570e+01   6.1004162323e+01    0.2265607    0.1753722 -76.93   0.00121667    2.059    0.514
       181  -9.4469     62.8025     54.9556   8.2872142263e+01   5.8689537068e+01    0.2422182    0.1853143 -54.73 0.0009836034    1.610    0.379
       182  -9.3955    100.5422     54.2359   6.9444955101e+01   5.2136733103e+01    0.2401819    0.1891983  37.96 0.0003172858    1.239    0.193
       183 -10.0691     31.4310     51.9693   9.4901788802e+01   6.3062855093e+01    0.2984556    0.2295648  79.49   0.00162624    2.410    0.585
       184  -9.2778     92.7316     51.2491   7.0818833416e+01   5.4189570857e+01    0.3102822    0.1908346 -55.58  0.001326236    2.470    0.595
       185  -9.5570     45.7624     49.1966   8.7727311537e+01   6.2061262637e+01    0.1890155    0.1326964 -15.60 0.0009149722    1.363    0.266
       186  -9.2747     22.8911     47.0732   9.7145026277e+01   6.4784901524e+01    0.2425007    0.1298181 -16.86   0.00122632    2.098    0.523
       187  -9.1622     82.1688     47.1825   7.2826401224e+01   5.6854117229e+01    0.1794251    0.1662639 -45.36 0.0005758732    1.334    0.250
       188  -9.8826     16.6981     44.7373   9.9267259016e+01   6.5719623788e+01    0.2739383    0.1638235 -65.72  0.001480458    2.037    0.509
       189 -10.2900      5.0350     41.3451   1.0377575764e+02   6.7115268287e+01    0.4596943     0.182241 -66.46  0.002015938    3.054    0.673
       190  -9.6344     58.4796     42.9766   8.0079797610e+01   6.1474239934e+01    0.2135706    0.1922937 -81.15  0.001271718    1.791    0.442
       191  -8.8326    106.6397     42.3234   6.3277783577e+01   5.2709204455e+01     0.138998    0.1139396 -77.25 0.0007042934    1.778    0.438
       192  -9.3851     69.5351     41.8956   7.5329696739e+01   5.9920378824e+01    0.2524083    0.1830626  56.72  0.001303306    2.035    0.509
       193  -8.8302    113.7682     41.4374   6.0993133384e+01   5.1272922108e+01    0.1939832      0.12279  39.83 0.0002949251    1.506    0.336
       194  -9.3883     37.0351     41.0510   8.8545344145e+01   6.4579054154e+01    0.1717813    0.1613326 -87.70 0.0007708714    1.667    0.400
       195  -9.3333     83.9754     39.8172   6.9340518051e+01   5.7676071779e+01    0.2135539    0.1659025  11.34 0.0005009819    1.238    0.192
       196  -8.9475     96.6293     39.3376   6.5090420343e+01   5.5246926760e+01    0.1363088    0.1126297 -76.99 0.0007024896    1.851    0.460
       197  -8.9246    106.0323     36.7127   6.1348144296e+01   5.3624121689e+01    0.1955345    0.1691091  36.24 0.0003645078    1.081    0.075
       198  -9.3761     26.4207     36.7384   9.1863270631e+01   6.6445035779e+01    0.2278492    0.1087389 -52.18  0.001123876    2.116    0.527
       199  -8.8858     21.3223     34.6680   9.3561714595e+01   6.7278071285e+01    0.1038266    0.0975305  84.34 0.0003559413    1.701    0.412
       200  -8.6222    119.5024     33.5368   5.6663491492e+01   5.1026182096e+01    0.1385312    0.1288502  36.60 0.0001829639    1.045    0.043
       201  -9.4285     60.9535     33.0203   7.5013306968e+01   6.2706788317e+01    0.1837524    0.1699565 -79.73  0.001131254    1.753    0.430
       202  -9.2592     49.8561     33.0604   7.9639280947e+01   6.4349616203e+01    0.1882819    0.1490081 -59.20  0.001070447    2.024    0.506
       203  -9.0367     72.3576     31.6881   7.0094177740e+01   6.0991411290e+01    0.1205439    0.1095351 -82.78 0.0006358629    1.740    0.425
       204  -9.5500     12.8893     31.2019   9.6508810514e+01   6.8573329443e+01    0.1693923    0.1481242 -35.01  0.000775889    1.271    0.213
       205  -8.9062    102.6306     30.3030   5.9840124983e+01   5.5194217031e+01     0.132357    0.1097012 -78.57 0.0007033274    1.747    0.428
       206  -9.4313     82.2169     28.2376   6.5211300845e+01   5.9637658968e+01    0.2593859    0.1969953 -74.04  0.001277281    2.556    0.609
       207  -8.8222     91.9822     26.9822   6.1603152098e+01   5.7850872140e+01    0.2470732    0.1601294 -70.39 0.0009428172    4.000    0.750
       208  -9.2731      3.4270     27.2236   1.0001442293e+02   6.9909119012e+01    0.1529213   0.09901617 -60.24 0.0009473117    1.706    0.414
       209  -9.7618     64.6757     21.8994   6.8685020810e+01   6.3657453014e+01    0.3563423    0.2497111  74.28  0.001579675    3.646    0.726
       210  -8.7839     58.6965     22.6297   7.1354212930e+01   6.4557532103e+01    0.1374147   0.08568618   3.43 0.0007032933    1.751    0.429
       211  -9.5531     48.7531     21.8235   7.5149095116e+01   6.6196625125e+01    0.1564805    0.1451509  -3.50 0.0008028706    1.364    0.267
       212  -9.6297     12.8031     21.4104   9.2710085912e+01   7.0308555852e+01    0.2125784    0.1690461 -10.73  0.000917587    1.151    0.131
       213  -9.0604     40.4573     20.5976   7.8317591702e+01   6.7522779746e+01    0.2591758    0.1882935 -51.69 0.0009552815    2.159    0.537
       214  -9.3826     74.0271     19.9896   6.4432631353e+01   6.2220390293e+01    0.1875659    0.1652678 -67.72  0.001132574    1.783    0.439
       215  -9.5628     30.8173     17.1885   8.1363353763e+01   6.9219917104e+01    0.2524452   0.08250067 -44.64  0.001020618    3.514    0.715
       216  -8.3091    107.6244    248.6901   1.0859232287e+02   9.2005997246e+00    0.1161998   0.09044193   4.65 0.0007030159    1.783    0.439
