#   1 NUMBER                 Running object number                                     
#   2 MAG_AUTO               Kron-like elliptical aperture magnitude                    [mag]
#   3 X_IMAGE                Object position along x                                    [pixel]
#   4 Y_IMAGE                Object position along y                                    [pixel]
#   5 X_WORLD                Barycenter position along world x axis                     [deg]
#   6 Y_WORLD                Barycenter position along world y axis                     [deg]
#   7 A_WORLD                Profile RMS along major axis (world units)                 [deg]
#   8 B_WORLD                Profile RMS along minor axis (world units)                 [deg]
#   9 THETA_WORLD            Position angle (CCW/world-x)                               [deg]
#  10 FWHM_WORLD             FWHM assuming a gaussian core                              [deg]
#  11 ELONGATION             A_IMAGE/B_IMAGE                                           
#  12 ELLIPTICITY            1 - B_IMAGE/A_IMAGE                                       
         1 -13.7473    192.2500     44.3996   4.2199920578e+01   3.1671739500e+01     1.251866    0.9531436  35.49  0.004233595    1.691    0.409
         2 -13.5700    218.2327     14.3825   3.2293182569e+01   2.9403672325e+01    0.8614445    0.7290772 -67.74  0.003732834    1.090    0.083
         3 -12.0189    236.8567      2.8606   2.8539625882e+01   2.6704143791e+01    0.4544576    0.1773239  82.59  0.002244906    2.477    0.596
         4 -12.0101     59.5207      3.5301   5.6950667223e+01   6.6564882091e+01    0.4381053    0.1661788  37.56  0.002004063    2.300    0.565
         5  -8.2071     56.5493    243.8207   1.1481372551e+02   1.5696726324e+01    0.1087338   0.08422474  19.16 0.0002652111    1.692    0.409
         6 -12.6769    246.8129    246.4046   7.6709140093e+01  -1.1624477047e+01    0.8762795    0.4959406 -13.14  0.005282042    1.621    0.383
         7 -11.4829     47.9071    239.4754   1.1620517783e+02   1.7624252093e+01    0.1921272    0.1466328  80.45 0.0002992744    1.181    0.153
         8  -9.3375     87.6803    207.0916   1.0417271674e+02   1.9232830355e+01    0.1874293    0.1596386 -72.12 0.0005676298    1.209    0.173
         9  -9.9483     55.3284    205.6824   1.1159943954e+02   2.3996083013e+01    0.2150021    0.1355916 -79.04  0.001136965    1.554    0.357
        10  -8.6497     83.3039    239.2548   1.0887985064e+02   1.3056079272e+01    0.1117113   0.09679714   5.38 0.0003177396    1.509    0.337
        11 -11.3748     62.2005    199.8869   1.0935735893e+02   2.4457478947e+01    0.3182753     0.183166 -59.31 0.0004226104    1.744    0.427
        12  -9.8211     66.1130    194.7836   1.0781037804e+02   2.5140079885e+01    0.4474398    0.2025479  35.13  0.001945171    2.129    0.530
        13 -10.7383     38.8394    199.6269   1.1480723077e+02   2.7348992113e+01    0.2009655    0.1508163  78.99 0.0005288576    1.181    0.153
        14 -10.4155    192.7431    194.5061   7.7752763363e+01   4.1352103497e+00    0.7036844    0.3627611 -62.09  0.002018164    6.064    0.835
        15  -9.2561     93.1159    197.6329   1.0156495276e+02   2.0566877327e+01    0.2309909    0.1585136  55.79 0.0008452605    1.476    0.322
        16  -9.5178     51.9730    196.9574   1.1146951638e+02   2.6438719300e+01     0.183557    0.1522409 -28.05 0.0005177109    1.629    0.386
        17  -9.7504     82.9557    194.8339   1.0367432819e+02   2.2754105958e+01     0.284251    0.1797214  32.66  0.001004492    1.600    0.375
        18 -11.6431     57.2452    190.3593   1.0945464788e+02   2.7352070742e+01     0.421025    0.2669854 -40.08   0.00128938    2.077    0.519
        19 -19.4759     20.4816    145.5148   1.1386033423e+02   4.2395029590e+01     20.10814     5.807364 -75.20   0.06923211    3.375    0.704
        20 -11.0513    145.2612    183.8122   8.6384352380e+01   1.4791897855e+01    0.2607169    0.2475473  31.31  0.000649871    1.045    0.043
        21 -10.3254     80.6653    182.8554   1.0254523615e+02   2.5959939374e+01    0.3994955    0.2687368  19.40  0.001389558    1.838    0.456
        22 -10.4712     85.3650    179.1601   1.0076299251e+02   2.6156911662e+01    0.5460277    0.3192262  79.93  0.001732309    2.679    0.627
        23 -10.0820    183.9865    179.5566   7.6632365629e+01   8.5365536723e+00    0.4867522     0.205792 -51.92   0.00170007    3.060    0.673
        24  -9.3335     90.3637    181.9129   9.9893461617e+01   2.4716128325e+01    0.2017303    0.1808754 -69.46 0.0007400829    1.110    0.099
        25  -9.6767     93.1030    179.1322   9.8735152625e+01   2.4959475989e+01    0.2351327    0.1882898  67.36 0.0007506493    1.322    0.244
        26 -12.1129    136.9493    173.7516   8.6458763648e+01   1.8579380760e+01    0.5416527    0.3635868 -63.30  0.002386994    1.781    0.439
        27  -9.7047     77.0236    231.1786   1.0939046362e+02   1.5559607450e+01    0.3722151    0.1877909 -51.05  0.001261364    2.388    0.581
        28 -10.0266    179.9894    174.5464   7.6468105569e+01   1.0275670912e+01    0.2616521    0.2099755 -57.72 0.0005664166    1.491    0.329
        29 -10.4944     54.1027    240.0247   1.1500062361e+02   1.6757081301e+01    0.1691095    0.1354831  67.79 0.0003502772    1.051    0.048
        30 -10.4038    238.4925    173.0177   6.4624212392e+01   4.1006684450e-01    0.1993708    0.1008076 -19.76 0.0008105223    2.586    0.613
        31 -10.6737    247.5079    171.1657   6.2718615404e+01  -6.6790660776e-01    0.2131311     0.165952  68.95  0.001163613    2.295    0.564
        32 -10.3788    191.7042    166.8049   7.2297713645e+01   9.6315497161e+00    0.3986067    0.2840444 -50.00  0.001427544    1.528    0.345
        33  -9.9275    230.3365    167.3122   6.4890296555e+01   2.6982686528e+00    0.1421714    0.0974302  -4.74 0.0007045561    1.687    0.407
        34 -10.1417    186.6614    165.1899   7.3022622672e+01   1.0906036464e+01    0.3425907    0.2146253 -29.01  0.001060084    1.679    0.404
        35  -9.5467    119.8063    164.5907   8.9036022385e+01   2.3906264372e+01    0.2212032    0.1391886  48.84 0.0006731686    1.675    0.403
        36  -8.9015    113.2724    163.3017   9.0518786583e+01   2.5403705196e+01    0.1509582    0.1195852 -19.54 0.0002014248    1.533    0.348
        37  -9.7713    167.1370    225.2424   8.8750729588e+01   2.7880361515e+00    0.2205842     0.169896 -24.88 0.0005539018    1.377    0.274
        38 -11.0024     89.2830    155.0453   9.5541284690e+01   3.1558909063e+01    0.2934811    0.2753337 -35.32 0.0004438691    1.122    0.108
        39 -11.8653    133.8254    145.5441   8.1219407271e+01   2.5750336421e+01     1.340905    0.3470996 -54.38  0.002976351    5.974    0.833
        40 -10.2992    112.8865    150.9120   8.8077200273e+01   2.8501330858e+01     0.418328    0.2624884  76.56  0.001394587    2.981    0.665
        41 -12.1794     95.3411    148.5189   9.2527373565e+01   3.2204825781e+01    0.6878559    0.5025381 -34.40   0.00318753    1.534    0.348
        42  -9.4932    174.8531    149.0577   7.2015695035e+01   1.6567244674e+01    0.2336028     0.213626 -74.81 0.0006719516    1.287    0.223
        43 -11.5390    107.1162    135.4259   8.6268536755e+01   3.3379700181e+01    0.5234414    0.3676627 -35.06  0.001821192    1.543    0.352
        44 -10.7897    105.6479    130.6003   8.5565168352e+01   3.4837515417e+01    0.4324645    0.3478588 -59.25  0.001095491    1.268    0.212
        45  -9.7758    150.7824    135.8370   7.4567951729e+01   2.4477178868e+01    0.2573918    0.2297465  67.52 0.0005619103    1.264    0.209
        46 -11.5579     95.1895    135.0823   8.9701741254e+01   3.5606782387e+01    0.2942448    0.2786565 -26.69 0.0003560007    1.077    0.072
        47 -10.4509    117.1607    133.6962   8.2984576864e+01   3.1885784047e+01    0.3698138    0.2620649 -78.53  0.001143833    1.996    0.499
        48  -9.2643     88.8599    131.8828   9.0896785500e+01   3.7485436365e+01    0.2032584    0.1799922  80.81 0.0002727328    1.262    0.207
        49 -10.4906    136.0000    129.4919   7.6792494627e+01   2.9046593893e+01    0.5404601   0.09017363 -46.59  0.001153191    5.903    0.831
        50 -10.5754    113.8643    128.1248   8.2574194506e+01   3.3871886755e+01    0.3962557    0.2904173  16.20  0.001401015    1.677    0.404
        51 -10.1984    102.2451    123.1870   8.4781009989e+01   3.7279585115e+01     0.304851    0.2476412 -13.64 0.0009740672    1.433    0.302
        52 -10.5544    135.1239    120.3495   7.4692482658e+01   3.1320979270e+01    0.4773915      0.10241 -44.96  0.001155354    4.585    0.782
        53  -8.9464    233.4992    119.0336   5.3946027586e+01   1.0669193471e+01    0.2054553    0.1201815 -40.09 0.0003573982    1.475    0.322
        54  -9.4553    109.9161    117.4641   8.1034468745e+01   3.7188924418e+01    0.2329524    0.2058125 -46.23 0.0002859849    1.108    0.097
        55 -11.2075     46.0929    223.7519   1.1532355859e+02   2.1112553299e+01    0.2134854    0.1434024  80.24 0.0004256848    1.393    0.282
        56 -11.9329    118.3450    109.6711   7.6488916147e+01   3.7293220068e+01    0.6001077    0.4598471  81.70  0.002615064    1.861    0.463
        57  -9.1463    163.6500    111.2917   6.5252621039e+01   2.6947485058e+01    0.1590271    0.1254233 -85.89 0.0007028733    1.671    0.402
        58 -10.5585    134.1839    106.4882   7.1219063908e+01   3.4599287587e+01     0.297832     0.226987 -44.79 0.0008739895    1.303    0.232
        59  -9.7530    205.5443    110.3176   5.6563765333e+01   1.7851858764e+01    0.2415176    0.2291286 -86.14 0.0005665544    1.133    0.117
        60  -9.2865     49.1425    217.6473   1.1413990295e+02   2.2071947446e+01     0.429267    0.2036348  18.66  0.001738448    3.577    0.720
        61  -9.4280     72.2176    216.7938   1.0892222181e+02   1.9282421365e+01    0.1822477    0.1417484  82.01 0.0004897533    1.263    0.208
        62  -9.2969     59.5224    217.5993   1.1185154794e+02   2.0789117005e+01    0.1329875    0.1047723  63.66 0.0004378575    1.109    0.098
        63 -11.1663     57.1035    211.0765   1.1174392854e+02   2.2547596938e+01    0.2254845    0.2027977  67.34 0.0007750482    1.080    0.074
        64 -12.6292    176.5754     57.6440   4.8070113745e+01   3.3535500682e+01    0.4951929    0.4838017  12.76 0.0008696415    1.163    0.140
        65  -9.3433     95.4462     58.4755   6.7503631818e+01   5.2394161889e+01    0.2607095    0.1371736  56.24  0.001028131    2.427    0.588
        66 -12.2037     52.8520    245.9216   1.1571464950e+02   1.5742320029e+01    0.2116538     0.153648 -80.22 0.0009950021    1.406    0.289
        67 -12.4095    197.3951     38.7585   4.0115303025e+01   3.1210860046e+01    0.5007668    0.4143196  71.61    0.0012159    1.173    0.148
        68 -11.8693     28.8461    209.7053   1.1788512719e+02   2.6132592891e+01    0.2069273    0.1619904  66.87 0.0004642759    1.080    0.074
        69 -11.7596     45.2805    245.5147   1.1717123402e+02   1.6737070982e+01     0.213555    0.1310432 -69.16  0.001063965    1.720    0.419
        70  -9.1971     75.4815    208.9962   1.0728265278e+02   2.0564884691e+01    0.1809995    0.1281679 -74.72 0.0007510424    1.442    0.306
        71 -10.0203     60.1945     21.0699   6.4980743178e+01   6.4586444345e+01     0.202608    0.1467634  12.96 0.0005996682    1.249    0.200
        72  -9.8035     41.1153    245.2128   1.1795961467e+02   1.7285944882e+01    0.1252058    0.0834897  38.62 0.0004557522    1.425    0.298
