#   1 NUMBER                 Running object number                                     
#   2 MAG_AUTO               Kron-like elliptical aperture magnitude                    [mag]
#   3 X_IMAGE                Object position along x                                    [pixel]
#   4 Y_IMAGE                Object position along y                                    [pixel]
#   5 X_WORLD                Barycenter position along world x axis                     [deg]
#   6 Y_WORLD                Barycenter position along world y axis                     [deg]
#   7 A_WORLD                Profile RMS along major axis (world units)                 [deg]
#   8 B_WORLD                Profile RMS along minor axis (world units)                 [deg]
#   9 THETA_WORLD            Position angle (CCW/world-x)                               [deg]
#  10 FWHM_WORLD             FWHM assuming a gaussian core                              [deg]
#  11 ELONGATION             A_IMAGE/B_IMAGE                                           
#  12 ELLIPTICITY            1 - B_IMAGE/A_IMAGE                                       
         1 -11.6078      4.7572     87.0132   1.2250532362e+02   5.6745528458e+01      2.74068    0.3510908 -72.39  0.008458504    5.046    0.802
         2 -10.2276     56.3373      5.4963   7.5139842598e+01   6.8292565658e+01     1.677971    0.7938629  42.74   0.00823071    2.186    0.543
         3 -12.5178     52.7797     91.7324   1.0776989049e+02   5.1577694647e+01     4.338154    0.9557494 -48.15   0.01275021    4.763    0.790
         4 -12.1815     38.6569     87.5903   1.1154167536e+02   5.4062445875e+01     1.994223    0.7200532 -54.74   0.00862256    2.230    0.551
         5 -10.7509      6.9580     55.6988   1.1684630778e+02   6.3780550868e+01     1.159389    0.6555588 -79.69  0.006613614    1.670    0.401
         6 -11.0691     69.5566     19.1212   7.6966518199e+01   6.4107904635e+01    0.9784639    0.6039452  21.19  0.004851853    1.897    0.473
         7 -12.8873    103.0161      7.5426   6.0724484226e+01   5.8703741948e+01     1.763808     0.554278  57.27  0.004090723    2.934    0.659
         8 -11.3043     74.4192     46.4597   8.6992248522e+01   5.8544660100e+01     1.308432    0.6018244 -30.36   0.00499285    2.710    0.631
         9 -11.3403     14.5159     36.4840   1.0886407755e+02   6.7543755087e+01     1.104882    0.4996903 -47.09  0.005906167    1.701    0.412
        10 -11.4938     67.8339     73.4132   9.8255947967e+01   5.3872779528e+01      1.62443     0.477868 -58.59  0.004897309    4.089    0.755
        11 -11.8581     37.1821     41.6142   1.0019099338e+02   6.4551647761e+01     1.431275    0.8539402  -8.48  0.007124679    2.405    0.584
        12 -11.4615     50.8824     24.5160   8.7235490689e+01   6.6188513788e+01    0.6763848    0.4411815 -13.00  0.000278656    1.736    0.424
        13  99.0000     42.4040     14.7473   8.6414863144e+01   6.8994939373e+01     1.063807     0.911024  38.87  0.007059323    1.506    0.336
        14 -12.5003     84.5159     57.3217   8.7423568496e+01   5.4665227193e+01     1.920503     1.389567 -21.54  0.008209508    1.544    0.352
        15 -12.3246    102.1628     54.7776   8.0818137696e+01   5.1802944839e+01     1.502421    0.9420607   9.78   0.00365929    2.782    0.641
        16  99.0000    165.2770     61.8481   6.7338958595e+01   3.5737944083e+01      3.74822     1.200132 -33.02   0.01164154    3.036    0.671
        17 -12.7261     71.7356     30.3897   8.1379483137e+01   6.1924460539e+01     2.500657     1.152299  41.03   0.01101986    2.319    0.569
        18 -11.8799    116.5648     49.2850   7.4587291821e+01   4.9705051165e+01     1.206982    0.8176317 -44.40  0.003110018    1.508    0.337
        19 -11.5749    128.8107     20.4086   6.0196096957e+01   5.1047786970e+01     1.429343    0.4243446  54.96  0.004812708    2.925    0.658
        20 -10.5772    130.8138     13.5648   5.7003595586e+01   5.1327695233e+01    0.9649326    0.2673538  47.98  0.003090388    3.311    0.698
        21  -9.1520    141.5311     11.3704   5.4087113785e+01   4.8811733215e+01    0.2138265    0.1685601   0.49  0.001105982    1.360    0.265
        22  -9.6195    122.3647      9.3401   5.7007908885e+01   5.3887691391e+01    0.5929196    0.3803966 -10.46  0.002849917    1.664    0.399
        23 -11.1157     98.6458     40.3192   7.6366793324e+01   5.5123692249e+01     2.054332     1.200286  -0.49  0.007383674    3.263    0.694
        24 -10.7125    132.3185      4.6124   5.3078885549e+01   5.1842711756e+01    0.6932988    0.3060324  52.42  0.002869644    2.006    0.501
        25 -11.5314    138.3787      2.8786   5.1319985287e+01   5.0442144494e+01    0.4613771    0.2965269  -5.59   0.00221327    1.729    0.422
        26 -10.9441    117.0564     15.5114   6.0832610591e+01   5.4512755340e+01    0.7678992    0.4781108  80.16  0.003343037    2.256    0.557
        27 -11.7120    112.9363     22.9664   6.5040439740e+01   5.4572482078e+01    0.7149634    0.5532445  75.40  0.002217302    1.594    0.373
        28 -10.7426    110.6216     17.1639   6.3128287524e+01   5.5847077596e+01    0.3199966     0.292775 -33.44  0.001110842    1.176    0.150
        29 -10.2368    227.7116      2.8328   4.1010082915e+01   2.7286003622e+01    0.6199746    0.3444352  87.77  0.001807386    1.876    0.467
        30 -11.2498    211.0202     31.5468   5.0612625592e+01   2.8283752005e+01     1.258511    0.5837208  37.47  0.004491094    3.203    0.688
        31 -10.7476    214.8634     23.4332   4.7848954992e+01   2.8277356673e+01    0.7007774    0.4701512  69.83  0.002256185    1.509    0.337
        32 -10.6358    221.7531     10.7816   4.3641723380e+01   2.7942596419e+01    0.9012653     0.636443 -42.77  0.004872996    1.299    0.230
        33 -10.5760    211.1284     17.3768   4.6522050577e+01   2.9899733580e+01     0.470482    0.3391921  65.22  0.001775951    1.392    0.281
        34 -10.2691    213.9556     12.1296   4.4744442908e+01   2.9746276418e+01    0.7011799    0.3916873 -84.41   0.00312588    2.064    0.515
        35 -10.5836    214.6678      5.0701   4.2699256419e+01   3.0282191664e+01    0.3181619    0.2313384 -79.78 0.0004064168    1.365    0.267
        36 -10.7695    211.1373      3.8496   4.2671228684e+01   3.1289486494e+01    0.4575311    0.3220524  68.43  0.001518243    1.396    0.284
        37 -12.2304     88.8140     30.0427   7.5197005346e+01   5.8805030198e+01     2.775136    0.6873463 -28.79  0.006381405    7.109    0.859
        38 -10.1750     31.3781     11.9276   9.0500983616e+01   7.0813514240e+01    0.3254667    0.1935533 -27.03  0.001213592    1.511    0.338
        39 -11.8272     30.3686     22.2629   9.5892258451e+01   6.9078049575e+01    0.9454963    0.4304429 -47.82  0.004789444    1.816    0.449
        40 -12.3138     24.7468      6.1463   9.1059000943e+01   7.2501342596e+01    0.6180103    0.3145267 -39.64  0.002285737    1.594    0.373
        41 -10.9472     23.2934     26.9680   1.0136045802e+02   6.8835257486e+01    0.6802008    0.2877659 -54.02  0.003361579    1.951    0.488
        42 -12.1223     19.2577     13.5737   9.7855795828e+01   7.1734219289e+01    0.4889591    0.4045897   8.12  0.002421527    1.351    0.260
        43 -12.5072     13.8024      5.6675   9.7181388609e+01   7.3609956965e+01      1.42285    0.5370477 -35.34  0.006881897    2.359    0.576
        44 -11.5334     12.0210     25.0219   1.0639500379e+02   7.0076815119e+01    0.6518036    0.2105404 -42.68  0.002821247    2.458    0.593
        45 -11.7546      5.1710     26.7827   1.1052138421e+02   7.0122881202e+01    0.7072433    0.2710797 -46.62  0.003696579    1.910    0.477
        46 -11.1863      1.6326      2.2728   1.0313480714e+02   7.5082157960e+01    0.3916483    0.1946198 -51.11  0.001753843    1.552    0.356
        47 -12.6099      3.1073     17.4557   1.0852766342e+02   7.2117362353e+01    0.3711775    0.2009338 -45.83  0.000385027    1.359    0.264
        48 -12.6638      3.7885      9.5863   1.0506881386e+02   7.3602730389e+01    0.5839494    0.2051269 -46.30 0.0005460274    1.976    0.494
        49  -9.4725    243.9497      5.3627   4.0445603067e+01   2.3199969575e+01    0.3516198    0.1830351 -15.02  0.001623959    2.274    0.560
        50 -10.8613    237.1234     31.7327   4.7783520331e+01   2.1881158074e+01    0.7803252    0.5781291 -21.98  0.004042184    1.353    0.261
        51  -9.8154    243.5538     12.4498   4.2247560326e+01   2.2557669651e+01    0.4327796    0.2967228 -14.28  0.002335354    1.637    0.389
        52 -10.8639    240.3847     18.6153   4.4074325047e+01   2.2625997108e+01    0.9061222    0.2739095 -33.84  0.003495783    2.597    0.615
        53 -10.2967    177.4372     20.1457   5.1495996471e+01   3.8381429543e+01    0.7409875    0.4808851  75.12  0.003455083    1.582    0.368
        54  -9.7469    180.3388     14.5401   4.9266394714e+01   3.8223641410e+01     2.508319          nan  64.65  0.004137707   12.425    0.920
        55 -11.5351    178.6360     28.1242   5.3938790419e+01   3.7124296352e+01     1.039331    0.4539296  46.81  0.003738334    2.433    0.589
        56 -10.0224    186.9775     20.7932   5.0400239570e+01   3.5782846409e+01    0.6409761    0.5175862  11.74  0.001837283    1.438    0.305
        57 -10.0697    173.6756      8.1231   4.8018314255e+01   4.0644598786e+01    0.6690344    0.3000233 -17.90  0.002153267    2.457    0.593
        58 -10.2425    167.3805     12.5356   5.0368495789e+01   4.1877229395e+01     0.707669    0.3666393  81.26  0.002845833    2.238    0.553
        59 -10.9622    164.9150      4.6722   4.7994920007e+01   4.3299841402e+01     1.043699    0.4396351  60.32  0.003947154    2.099    0.524
        60 -11.0542    158.7644     20.9499   5.4652571098e+01   4.3245947752e+01    0.8009003    0.4198076 -24.19  0.001284817    1.950    0.487
        61 -11.4479    150.3700     15.4082   5.4064403155e+01   4.6078236622e+01     1.121648    0.7236378  27.09  0.002565963    1.804    0.446
        62 -10.1692    199.0650     16.2502   4.7513354149e+01   3.3119462622e+01    0.4401063    0.2623361  61.70  0.002064618    1.634    0.388
        63 -10.0976    201.2903     19.8764   4.8343148289e+01   3.2144149796e+01    0.4528298    0.2982025  37.66  0.001411897    1.791    0.442
        64  -9.7925     81.9512     20.0038   7.2923526153e+01   6.1669284487e+01    0.4818957    0.3802877 -62.13   0.00258592    1.825    0.452
        65  -9.9271    232.3406     18.8848   4.4857713098e+01   2.4497462042e+01     0.489532    0.3990883 -31.40  0.002811305    1.179    0.152
        66 -10.9956    232.9665     10.0812   4.2490387107e+01   2.5292024018e+01    0.4712041    0.3299402 -12.46  0.001110716    1.628    0.386
        67 -11.2196    199.2526      4.9879   4.4124905145e+01   3.4220044713e+01    0.7695772    0.4005854 -34.41  0.001038306    1.810    0.448
        68 -10.6706    181.8781      4.6619   4.5886883546e+01   3.8800124085e+01     0.507076    0.3511115  72.68  0.001406661    1.379    0.275
        69  -9.4714    189.9914      8.0000   4.6019249930e+01   3.6341826362e+01     0.310964    0.1812549  64.94 0.0006508433    1.626    0.385
        70  -9.7441     78.0271      8.9830   6.8815659807e+01   6.3902783054e+01    0.2732643    0.2153032 -40.76  0.001394792    1.472    0.321
        71  -8.4922     77.7745      4.4076   6.6519872559e+01   6.4489926003e+01    0.3570043    0.1865357  21.95  0.001552866    2.399    0.583
        72  -9.7929     70.1319      3.6830   6.8763747858e+01   6.6062701578e+01    0.4368589    0.3879481  35.16   0.00280642    1.228    0.186
        73  -8.8194    187.3173      9.7190   4.6861942043e+01   3.6874446769e+01    0.2127906    0.1851031 -67.68 0.0002329103    1.134    0.118
        74  -9.9218    248.6675      2.2371   3.9352313272e+01   2.2437009232e+01    0.2625377    0.2017195 -60.83 0.0005336407    1.153    0.133
        75  -9.1623    250.1490      7.3950   4.0505784646e+01   2.1581995709e+01    0.2853892     0.176768 -48.36   0.00155872    1.398    0.285
        76 -11.7503     41.8473     50.3056   1.0108509853e+02   6.2222728760e+01    0.9539625    0.4859613  26.74  0.003692464    2.334    0.572
        77  -9.6781    236.6249    249.5428   9.4502665574e+01  -6.1763814910e+00    0.3509692    0.1223905  45.88  0.001669686    3.314    0.698
        78  -9.1040    183.8894    250.2911   1.0309857265e+02   1.1818177003e+00    0.1798905    0.1099874  46.75  0.001193829    1.467    0.318
        79  -9.4727    151.4700    250.0589   1.0849630840e+02   5.9448016240e+00    0.2159096    0.1170217  49.78 0.0007021244    1.571    0.363
        80  -9.0968    124.6773    249.8780   1.1300078226e+02   9.8202563756e+00    0.1455502    0.1312402  16.22  0.000879296    1.467    0.318
        81  -8.7586    210.7903    240.0257   9.7314490364e+01  -1.6215983352e+00    0.1239944   0.08625291 -27.29 0.0008690412    1.722    0.419
        82 -10.4497     14.8778    237.5044   1.3028518166e+02   2.5100721907e+01    0.3017933    0.1413052  78.74  0.001013201    1.758    0.431
        83  -7.9780    220.3016    237.3297   9.5377320918e+01  -2.7185511469e+00    0.1137109   0.06856929  15.05 0.0005627251    1.647    0.393
        84 -12.3698     54.8928     37.4212   9.1049553266e+01   6.3258677683e+01    0.7438601    0.5167453  24.27  0.002515689    1.618    0.382
        85  -9.2037    193.0000    235.9350   9.9727719430e+01   1.4749237118e+00    0.1525967   0.06482993 -39.16 0.0008053463    2.963    0.662
        86  -8.6337    180.4994    234.5376   1.0168113492e+02   3.5429765068e+00    0.1161296   0.08837015  32.45 3.719255e-05    1.037    0.036
        87 -12.1514     19.3744     58.6104   1.1248856186e+02   6.2370534767e+01    0.5795052     0.345804 -46.39  0.003381509    1.453    0.312
        88 -11.4449     22.3385     52.3325   1.0977134592e+02   6.3559897046e+01     1.036676    0.6051672  70.01  0.004930557    3.007    0.667
        89 -12.1898      9.5808    111.0986   1.2373901164e+02   5.0902034491e+01     1.015353    0.7326927 -35.64  0.006639691    1.806    0.446
        90 -12.1344     20.4993     99.4031   1.1921905581e+02   5.2840115690e+01     1.237901    0.6033135 -54.04  0.006528635    1.846    0.458
        91  -9.2878    227.2642    231.4498   9.3384110824e+01  -3.1166764980e+00    0.2128983    0.1328261  23.16 0.0006512794    1.303    0.233
        92  -9.7271     12.4892    231.6830   1.3044689863e+02   2.6285753285e+01     0.237722    0.1240851  60.44  0.001765149    1.326    0.246
        93  -8.9704     80.1689    141.1213   1.0895854121e+02   3.6410356542e+01    0.1900092    0.1740307 -61.32 0.0004406009    1.194    0.162
        94  -9.6437     34.9064    129.9871   1.1901612478e+02   4.4467622763e+01    0.6359544    0.2420887 -85.01  0.002487581    3.209    0.688
        95  -8.9319     28.4638    115.5484   1.1900435995e+02   4.8412892235e+01    0.2862017   0.09464712 -54.48  0.001209205    2.774    0.640
        96  -9.7757     29.2004    119.9084   1.1933663925e+02   4.7332378389e+01     0.913059    0.5924955  62.88  0.004454017    1.558    0.358
        97 -10.2576     55.7540    136.9724   1.1453318695e+02   4.0596182155e+01    0.2781829    0.2283622  59.22  0.001145105    1.200    0.167
        98 -10.9206     52.7897    132.5570   1.1469562973e+02   4.1963412386e+01    0.3955815    0.2973916  41.76  0.002146677    1.432    0.302
        99 -11.6194     47.1779    128.7959   1.1565521974e+02   4.3470967588e+01     1.183625    0.5743886 -84.48  0.005370019    2.282    0.562
       100 -10.5146     41.6943    128.6774   1.1708461356e+02   4.4086340758e+01    0.5306163    0.2564622  80.90 0.0001504948    2.709    0.631
       101  -9.9130     41.8902    109.3433   1.1430649807e+02   4.8596805757e+01    0.3219044    0.2146005 -75.87 0.0007017925    1.303    0.232
       102 -10.8748     37.6412    108.9323   1.1548325142e+02   4.9117999812e+01    0.6776249    0.3697467  27.86  0.001882145    2.202    0.546
       103 -10.1413     36.8790    119.0860   1.1713200086e+02   4.6805950087e+01    0.5131731    0.2845269  87.84  0.001779993    1.897    0.473
       104 -11.0115     42.9166    114.8128   1.1484354224e+02   4.7200205793e+01    0.4979612    0.3861501 -20.20  0.001519288    1.831    0.454
       105 -11.1753     59.3425    120.6851   1.1115981944e+02   4.3945078270e+01    0.9424515    0.3968569 -48.41  0.003935436    2.598    0.615
       106 -11.0002     65.8606    130.9525   1.1103895278e+02   4.0717992740e+01    0.2741023    0.2272896 -73.57  0.001665521    1.090    0.082
       107 -10.9203     67.6695    122.8153   1.0922598668e+02   4.2373745020e+01    0.7819104    0.4074058 -41.30  0.003386477    2.552    0.608
       108 -10.0577     68.4493    116.1977   1.0783948218e+02   4.3821635661e+01    0.4788131    0.2662326  63.00  0.002120863    2.336    0.572
       109 -10.0073     72.8766    129.3380   1.0892583119e+02   4.0145265223e+01    0.2866454     0.205194 -75.65  0.000325357    1.318    0.242
       110  -8.3752     80.9958    125.2007   1.0603616133e+02   3.9935836230e+01    0.1791097    0.1076137  38.84 0.0008629497    1.754    0.430
       111  -9.9244     90.9805    120.9933   1.0253662042e+02   3.9360147319e+01    0.3914406    0.3455881  66.25  0.001392059    1.133    0.117
       112  -9.3833    132.0184    119.7369   9.1585710641e+01   3.2128924120e+01    0.2445019    0.2091208 -48.44 0.0004965453    1.168    0.144
       113  -9.6969    105.0014    117.6792   9.8068730541e+01   3.7737787179e+01    0.4492627    0.3013954  89.30  0.001959097    2.154    0.536
       114  -9.6529     99.1096    112.9500   9.8610646308e+01   3.9846815135e+01    0.3736267    0.3331559   2.95  0.002063822    1.380    0.275
       115  -9.5674    116.4024    116.7459   9.4851475132e+01   3.5847098875e+01    0.3170545    0.2285817  39.55 0.0003176709    1.446    0.308
       116  -9.0988    236.9921    135.5040   7.3851096424e+01   7.3327957344e+00    0.2011062    0.1305039  44.50   0.00103527    1.597    0.374
       117  -9.5314     92.1002    114.3451   1.0084854352e+02   4.0709869755e+01    0.4608782    0.2753428 -79.90  0.001239678    2.394    0.582
       118  -9.6268     81.9204    114.7545   1.0377048543e+02   4.2225841998e+01    0.3635255    0.2421831  19.86  0.001528067    2.108    0.526
       119  -8.4069     23.2386    115.2902   1.2042137180e+02   4.8916765792e+01    0.1662589     0.113992  77.72 0.0006640425    1.371    0.271
       120  -8.7133    104.3814    109.2421   9.6310361269e+01   3.9757139862e+01    0.2006304    0.1341124 -62.42 0.0004262295    1.548    0.354
       121  -9.7058    107.9616    109.1339   9.5306712606e+01   3.9127585050e+01    0.3833909    0.2216767 -39.19   0.00163369    1.929    0.482
       122  -9.9957    133.6201    111.0274   8.9068213042e+01   3.3653053859e+01    0.3993556    0.3525728 -30.73  0.001009884    1.192    0.161
       123  -9.6522     59.5843    112.2109   1.0964748625e+02   4.5912519021e+01    0.3745057    0.2235039 -50.38  0.001197892    1.648    0.393
       124 -10.4124     68.7260    106.1415   1.0582296394e+02   4.6153399522e+01    0.6943628    0.3043963 -38.78   0.00245009    3.594    0.722
       125  -9.8090     75.1303    107.2503   1.0416978994e+02   4.4990585318e+01    0.3387914    0.2601753  31.72 0.0009664177    1.495    0.331
       126 -10.6462     77.7503    102.0841   1.0228233585e+02   4.5815474814e+01    0.6670728    0.3366016  38.67  0.002957236    2.132    0.531
       127 -10.2658     56.5453    125.4709   1.1267754187e+02   4.3165442013e+01    0.3859546    0.2803023 -66.41 0.0009548184    1.227    0.185
       128 -10.2699    149.5349    106.5664   8.4044636130e+01   3.1151670171e+01    0.5473881    0.2644487 -34.31   0.00201008    2.342    0.573
       129  -9.6985    113.8677    106.9058   9.3166050011e+01   3.8512228237e+01    0.2948862    0.2890846  80.48  0.001083051    1.039    0.037
       130 -10.0424    134.1939    103.0376   8.6862008417e+01   3.5220372859e+01    0.4951625    0.2330624 -40.92  0.001867325    2.151    0.535
       131  -8.0441     86.6711    105.3053   1.0039006065e+02   4.3682997774e+01     0.145461    0.1075966  80.11 0.0007036522    1.654    0.395
       132 -10.4057    141.6953    102.0639   8.4735167322e+01   3.3799185311e+01    0.3959154    0.3317762 -20.02 0.0009204404    1.326    0.246
       133  -9.2893    171.2115    102.6480   7.8111110536e+01   2.6987623892e+01    0.4092512    0.2476881  29.50  0.001625524    2.129    0.530
       134  -8.7222     58.7638    101.8098   1.0794374345e+02   4.8475821467e+01    0.1919917    0.1665303 -54.43  0.001162184    1.138    0.121
       135  -9.3927     63.0090     98.8109   1.0603586489e+02   4.8645624626e+01    0.4025564    0.3003505 -64.37  0.002247407    1.186    0.157
       136  -9.4993    121.6733    100.6396   8.9470903460e+01   3.8342606604e+01    0.2732678    0.1858352 -27.95   0.00101673    1.803    0.446
       137  -7.7776    124.4867     98.4917   8.8151566870e+01   3.8227766121e+01    0.2613741    0.1505603  44.47 0.0006627216    1.785    0.440
       138 -10.4035    116.5666    100.0389   9.0682942165e+01   3.9498811941e+01    0.4255946    0.2957706  -2.03  0.001728447    2.492    0.599
       139  -9.1200    110.9739    100.5072   9.2334290408e+01   4.0486908502e+01    0.2148926    0.1912444 -51.52 -4.577249e-05    1.079    0.073
       140  -9.0259    105.4727    103.0849   9.4514470821e+01   4.0946610025e+01    0.2657984    0.1368311 -46.41 0.0007941382    1.884    0.469
       141  -9.6434    160.2446     96.9039   7.8953571394e+01   3.0626709004e+01    0.6365831    0.3089255  37.50  0.001954005    2.478    0.596
       142  -9.6277    156.4711     94.5111   7.9142859047e+01   3.1966369703e+01    0.4455641    0.2921488  52.02  0.001880061    1.565    0.361
       143  -9.7237    140.8003     95.2942   8.3097770251e+01   3.5383449845e+01    0.3153794    0.2812339  77.46 0.0006940027    1.246    0.197
       144  -8.7057     96.0239     96.0083   9.5420972903e+01   4.4246426757e+01    0.2314202    0.1787107 -15.45  0.001123014    1.730    0.422
       145  -9.2157    226.7602     95.2988   6.5866528988e+01   1.5458885329e+01    0.2412401    0.1858228  57.03 0.0009630055    1.442    0.307
       146 -10.4927    113.6275     94.8701   9.0105430673e+01   4.1210856158e+01    0.5315854    0.2906506  50.42  0.001764743    1.984    0.496
       147 -10.4563    124.6517     92.9936   8.6594058138e+01   3.9364948186e+01    0.5143006    0.3924269  84.70  0.002025755    1.770    0.435
       148 -11.1375    119.9087     86.8902   8.6127095367e+01   4.1649631574e+01    0.9284921    0.3580479  52.45  0.003040254    3.125    0.680
       149 -10.2928    123.8822     81.6474   8.3488503882e+01   4.1898354749e+01    0.5923285    0.3105922 -53.44  0.002265573    2.178    0.541
       150 -10.6152     92.3680     78.5255   9.1707661941e+01   4.8795864251e+01    0.4940053     0.440795  28.53  0.001309157    1.223    0.182
       151 -10.4905     98.7434     77.3079   8.9380543107e+01   4.7895615011e+01    0.5120871    0.3354275  35.32  0.001653231    1.695    0.410
       152 -10.2387    105.2977     91.6536   9.1576641025e+01   4.3529399934e+01    0.4889343    0.3446144  10.50  0.002003318    2.170    0.539
       153 -10.5830    107.6525     86.2384   8.9379940220e+01   4.4263114463e+01    0.6297719    0.3817148 -23.74  0.002457081    2.487    0.598
       154 -11.1425    103.3103     80.9606   8.9106299324e+01   4.6243602704e+01    0.5503906    0.4615352  -4.01  0.001887214    1.428    0.300
       155 -10.0089    106.4308     76.2091   8.6740611119e+01   4.6647041408e+01    0.3605821    0.2972088  52.18  0.001860522    1.309    0.236
       156  -9.1865    187.1963     89.8359   7.1330071088e+01   2.5524207352e+01    0.2162101    0.2031702 -56.80 0.0002775554    1.126    0.112
       157 -11.6555    184.4182     53.2070   6.1011816999e+01   3.2187417311e+01     2.031751     0.807727  48.40  0.007107795    2.598    0.615
       158  -9.6609    150.2224     59.3753   6.9755830602e+01   3.9938978692e+01     1.839974     1.018446  83.14    0.0054064    4.353    0.770
       159 -11.2956    173.8630     54.2854   6.3240659458e+01   3.4748105371e+01     1.349446     0.533478 -29.28  0.003068249    2.554    0.608
       160 -11.2018    150.5584     66.2414   7.1939887635e+01   3.8664908976e+01     1.443748    0.6387612 -36.73  0.005186014    2.187    0.543
       161  -9.4866    202.2220    228.9941   9.7192850330e+01   8.8439590166e-01    0.1908328    0.1297477  33.59 0.0003627743    1.145    0.127
       162 -11.3241    158.9342     50.4403   6.4887988637e+01   3.9188916150e+01     1.108847     1.079599  16.28  0.006028428    1.027    0.027
       163 -10.6933    134.0331     50.2200   7.0379963322e+01   4.5457794390e+01    0.9783562     0.609193 -29.40  0.004277823    1.613    0.380
       164  -9.8598    143.6508     58.1631   7.0853901560e+01   4.1770400616e+01    0.2618105    0.2389034  38.27 0.0003771144    1.106    0.096
       165 -11.8180    137.7141     68.7881   7.5833073463e+01   4.1295841347e+01    0.6266681    0.3461045  51.79 0.0002800206    1.859    0.462
       166 -10.8264    152.5981     43.5721   6.3830725424e+01   4.1861836546e+01    0.7036591     0.493032   8.02 0.0005872733    1.844    0.458
       167 -11.9855    140.5504     74.9314   7.7100225394e+01   3.9470949499e+01     1.712941    0.7200035 -50.49  0.001619857    2.988    0.665
       168 -11.2225    146.9169     74.9737   7.5573429090e+01   3.7956404139e+01    0.5601735     0.404583 -52.90  0.002543314    1.503    0.335
       169 -12.3836    146.9916     53.0891   6.8349723223e+01   4.1793696671e+01    0.6517665    0.4931121 -56.19 0.0003728977    1.499    0.333
       170 -12.0014    141.4537     43.6288   6.6257930272e+01   4.4681884234e+01     1.064723    0.7439152  68.70  0.003224231    1.622    0.383
       171  -9.9001    148.5798     41.2491   6.3848968624e+01   4.3235553167e+01    0.2777231    0.2333945   7.11 0.0003221388    1.296    0.228
       172 -12.4027     56.4459     67.5183   1.0060534530e+02   5.6730470680e+01     1.300872    0.7582722 -53.48  0.002956833    1.473    0.321
       173  -8.5613    224.7213     84.9905   6.3518335022e+01   1.7482810525e+01    0.2030568    0.1774098 -25.83 0.0001898121    1.055    0.052
       174  -8.6894    165.1394     84.8147   7.4417748163e+01   3.1744556245e+01    0.2254006    0.2052891 -58.66 0.0004255034    1.160    0.138
       175 -10.2632    161.1226     81.6403   7.4358456483e+01   3.3299296107e+01    0.4973686     0.381571  47.27  0.001238667    1.321    0.243
       176  -8.8803     50.0750    227.4944   1.2402229060e+02   2.3038709849e+01    0.1529764    0.0819875  44.77 0.0004685939    1.519    0.342
       177 -10.5595    133.4083     80.4240   8.0606203563e+01   4.0043236618e+01    0.6044893     0.425585  59.74  0.001782467    1.595    0.373
       178 -10.5815    190.3820     77.0398   6.7096630579e+01   2.6917585033e+01    0.4825938    0.3290122  14.95 0.0003411663    2.026    0.507
       179  -9.5902    216.5898     78.9770   6.3182538786e+01   2.0278760352e+01    0.2937245    0.2654105 -72.64 0.0007812055    1.241    0.194
       180 -10.3728    131.2011     62.0200   7.5222173951e+01   4.4073063174e+01     1.140787    0.3836499  58.06  0.003224753    4.114    0.757
       181 -10.5930    123.9478     75.1595   8.1460657103e+01   4.3199546114e+01      1.80551    0.4121999  40.71  0.003890746    7.030    0.858
       182 -10.1978    118.9811     64.5094   7.9332015378e+01   4.6379485208e+01    0.4598363    0.3257039  40.94  0.001515207    1.473    0.321
       183  -9.8810    125.9012     69.6111   7.9148728792e+01   4.3858603000e+01    0.4291284     0.321474 -64.05  0.001175619    1.635    0.388
       184 -10.4454    125.4023     64.6982   7.7648342185e+01   4.4910450743e+01    0.7186159    0.4481537  43.55   0.00261242    1.659    0.397
       185 -11.4350    113.9439     69.7838   8.2508919295e+01   4.6429581533e+01     1.025932    0.6854417  64.41  0.004482948    1.954    0.488
       186 -10.5278    111.9951     63.5033   8.0967745258e+01   4.8082295966e+01    0.5659464    0.4059099  75.71  0.002503303    2.046    0.511
       187  -9.2092    204.1059     76.1032   6.4420859574e+01   2.3709459973e+01    0.4209228    0.2026487  36.90  0.001493757    2.776    0.640
       188  -8.9277    248.3915     76.2412   5.7941643024e+01   1.3520057688e+01    0.2088021    0.1104071 -38.20 0.0008940294    1.676    0.403
       189  -9.8107    164.4268     75.0817   7.1658524441e+01   3.3678481878e+01    0.4423341    0.3328898  48.78   0.00130096    1.345    0.257
       190  -8.2372    219.3107     74.6356   6.1586743155e+01   2.0296598865e+01     0.157539    0.1068094 -58.10 0.0007039327    1.754    0.430
       191  -9.9505    177.0066     71.0127   6.7846831483e+01   3.1249673327e+01    0.4659567    0.3170635  -5.06  0.001200327    1.960    0.490
       192  -9.5160    179.6506     68.6991   6.6636141755e+01   3.0970086775e+01    0.3777814    0.1995379  53.41   0.00140964    1.900    0.474
       193  -8.5137     95.1243     71.8289   8.8801476697e+01   4.9739388597e+01    0.3035716    0.1910819 -71.96 0.0009719601    2.612    0.617
       194 -10.2606    101.2369     69.3321   8.6113471469e+01   4.9101533615e+01     0.440473    0.3710178 -69.67  0.001356676    1.371    0.271
       195  -8.9271    170.1157     70.4019   6.9035366679e+01   3.3079734100e+01    0.3612226    0.1552325  57.92  0.001252365    2.475    0.596
       196  -9.7056     84.4820     67.8173   9.0948264432e+01   5.2488188857e+01    0.4280859    0.2389458  41.71  0.001923887    1.953    0.488
       197  -8.5206    112.3343    225.6695   1.1279185289e+02   1.5162304872e+01    0.1211767    0.0723816  63.66 0.0007052136    1.727    0.421
       198 -12.9056     81.9124     77.2987   9.4670635222e+01   5.0849487387e+01     2.595014      1.00245 -59.49  0.008486698    3.423    0.708
       199  -8.7990    207.1475     61.1572   5.9691889743e+01   2.5246786363e+01    0.2180942     0.198443  -1.05 0.0004121751    1.155    0.134
       200  -9.1254    212.0037     59.5168   5.8495186730e+01   2.4287903864e+01    0.2616541    0.2026453  -7.32 0.0004313852    1.441    0.306
       201  -9.4022    201.1789     59.9863   6.0284927964e+01   2.6908011735e+01     0.246979    0.2266017  59.80 0.0006969691    1.133    0.118
       202 -10.4014    222.8286     56.5967   5.6157441559e+01   2.2070504650e+01    0.3825431    0.3483199  45.89 0.0009422394    1.182    0.154
       203  -8.5561    137.8393     59.1167   7.2568652980e+01   4.3017946670e+01    0.2156561    0.1761301  25.31 0.0005009022    1.338    0.252
       204  -8.5616    158.6747     58.5788   6.7650587858e+01   3.7950514890e+01    0.3004909    0.1419187  51.05   0.00112127    2.090    0.522
       205  -9.0061    112.2062     57.7473   7.8900844081e+01   4.9137098046e+01    0.3410226     0.217939  -2.51  0.001302638    2.637    0.621
       206  -9.6662    243.6327     55.3167   5.3211892161e+01   1.7401913453e+01    0.3948859    0.2308035 -38.09  0.001591462    1.502    0.334
       207  -9.2617    197.9790     54.7127   5.9238071629e+01   2.8492434188e+01    0.2431098    0.2251441  52.65 0.0002276647    1.117    0.105
       208  -9.9793    193.3750     53.9242   5.9737251187e+01   2.9780743342e+01    0.3283167    0.3064318  52.67 0.0006518139    1.102    0.093
       209  -9.4174    234.0557     54.9584   5.4267216048e+01   1.9640217362e+01    0.3254136    0.2234301  71.14  0.001633643    1.640    0.390
       210  -9.3721    127.1477     51.3236   7.2507884155e+01   4.6915826946e+01    0.3319622    0.2366529 -59.12  0.001195746    1.742    0.426
       211  -8.4120     54.8293     49.6337   9.5618925338e+01   6.0815604060e+01    0.3028156    0.2437613  45.72   0.00126982    1.510    0.338
       212 -10.1995     54.7795     45.5860   9.4205220268e+01   6.1655756186e+01    0.4139033    0.2725362  53.56  0.002109607    2.160    0.537
       213 -10.8805     60.5059     51.0051   9.3879876514e+01   5.9762467914e+01    0.4627418    0.2472377 -48.91  0.001212743    1.652    0.395
       214 -10.6585     59.0000     47.0166   9.3045419679e+01   6.0790698952e+01    0.3940314    0.1657064 -45.58 0.0009612534    2.053    0.513
       215  -8.9529    211.3410     51.3305   5.6262202481e+01   2.5612534918e+01    0.3785335    0.1917829 -13.08   0.00137298    2.748    0.636
       216  -9.0470     65.8935     50.9351   9.1805036701e+01   5.8998059609e+01    0.2016963    0.1605601 -25.21 0.0004382273    1.231    0.188
       217 -10.1627    224.7642     48.0502   5.3560879834e+01   2.2767390905e+01    0.3276724    0.2328348 -33.39 0.0009036334    1.292    0.226
       218 -10.0681    220.1811     43.5895   5.2901293689e+01   2.4471284324e+01     0.566949    0.2529359 -39.07  0.001637299    2.017    0.504
       219  -8.9513     40.9695    221.0832   1.2521266914e+02   2.5167856487e+01    0.1638638   0.09360644 -53.99  0.001019163    2.621    0.619
       220  -9.1618      3.5273    214.2450   1.3126818844e+02   3.0095494759e+01    0.1898051   0.07405057  88.34  0.001144212    2.172    0.540
       221  -8.1124     95.4660    214.5180   1.1479297482e+02   1.9434814909e+01    0.1178059   0.09231579  59.19 0.0002382947    1.017    0.017
       222  -9.3583     26.4271    212.2659   1.2726706239e+02   2.8273315388e+01    0.1855235   0.08273506 -74.94  0.001138654    2.110    0.526
       223  -8.8655     13.6340    212.7592   1.2950563410e+02   2.9436470116e+01    0.1433512   0.07124616  82.49 0.0008068504    1.648    0.393
       224  -8.6987    244.5461    204.2490   8.6202013908e+01  -2.7639742190e+00    0.1528387   0.09635761  -8.31 0.0009315931    1.564    0.360
       225  -9.6333     17.8694    202.5696   1.2829504236e+02   3.0890706041e+01    0.2230089    0.1236794 -81.01  0.001155337    1.600    0.375
       226  -8.7812    234.0124    200.2150   8.7233277239e+01  -6.8608006131e-01    0.2192796    0.1373136  -9.42  0.001286483    1.678    0.404
       227  -8.1406    169.5025    200.5151   9.8831002840e+01   9.9938973155e+00    0.1263977    0.1068249  41.04 -2.246102e-05    1.064    0.060
       228  -8.0484     55.2855    195.3730   1.2078813091e+02   2.8238216886e+01     0.102538   0.08516283 -49.59 0.0007017669    1.712    0.416
       229 -11.0014    113.4641     32.5020   6.8880495408e+01   5.3117200659e+01    0.3650173    0.2525872 -22.67 0.0008805969    1.447    0.309
       230 -10.6161    109.4371     30.1591   6.9012330893e+01   5.4382125066e+01    0.4791692    0.3046649  37.81  0.001398818    1.614    0.380
       231  -8.8495    125.7472     47.5890   7.1502669153e+01   4.7875503396e+01    0.5101511    0.2617775 -39.91   0.00205532    1.921    0.479
       232  -9.4300    129.7153     46.3206   7.0027796696e+01   4.7139592833e+01     0.535751     0.337323 -83.59  0.001893772    3.254    0.693
       233  -9.8037    130.7061     40.7684   6.7715115753e+01   4.7778190890e+01    0.4782977    0.2318505 -32.16  0.001883719    2.017    0.504
       234 -10.5663    207.2653     45.4002   5.5120595817e+01   2.7447527047e+01    0.4768739    0.3512692 -19.54  0.001444518    1.406    0.289
       235 -10.0305    214.0791     41.6432   5.3126781212e+01   2.6236043730e+01     0.681878     0.332803 -14.64  0.002292071    2.687    0.628
       236  -9.2769     27.6622    193.8828   1.2601401751e+02   3.1574123923e+01    0.2086972    0.0761025 -69.62  0.001105477    2.515    0.602
       237  -9.4477     11.1838    192.1215   1.2900250995e+02   3.3481288057e+01    0.1992544    0.1204024  59.13  0.001418864    1.289    0.224
       238  -8.7382    215.7977    189.3997   8.8446877624e+01   3.6401633582e+00    0.1847566    0.1004682  31.90  0.000948457    1.675    0.403
       239 -10.3974      6.1299    182.5021   1.2948817700e+02   3.5788113532e+01    0.3114958    0.1768793 -84.38  0.001461511    1.441    0.306
       240  -9.9339      1.4998    188.0488   1.3060431268e+02   3.5096752399e+01    0.3458937   0.08859739 -75.77  0.001680251    3.137    0.681
       241 -10.3775      1.4600    177.8083   1.3016200679e+02   3.7098918967e+01     0.287746    0.1161717  88.33  0.001624451    2.040    0.510
       242  -9.8730    245.1578    187.4184   8.3103431674e+01  -9.3820461069e-01    0.2179644    0.1754343   6.37 0.0005076572    1.041    0.040
       243  -9.7349     11.6353    184.7805   1.2855189376e+02   3.4864506582e+01    0.2434462    0.1432176 -58.68  0.001586461    2.096    0.523
       244  -9.5571    179.5272     44.8296   5.9205960274e+01   3.4676709036e+01    0.3412678     0.231905  24.04 0.0008729241    1.876    0.467
       245  -8.9627     24.1425     46.2521   1.0735616158e+02   6.4754051149e+01    0.1795501    0.1420689   1.90 0.0008504636    1.499    0.333
       246  -8.7495    249.1456     44.8532   4.9934103738e+01   1.7515727086e+01    0.1831322    0.1566859  -0.46 0.0006401251    1.318    0.241
       247  -9.3550     35.8535    185.3781   1.2386254428e+02   3.2395683710e+01    0.1366407    0.1043404  28.51 0.0004474489    1.721    0.419
       248  -9.2351    104.0356     43.0000   7.5789964230e+01   5.3534608876e+01    0.2621623    0.2080208  56.00  0.001337638    1.407    0.289
       249  -9.6814    224.9511     41.8570   5.1838958125e+01   2.3532535461e+01    0.2229685    0.2126944 -51.98 0.0003191394    1.036    0.034
       250  -9.6908     70.6903    142.7866   1.1158223049e+02   3.7363121640e+01     0.214351    0.1750108  61.55 0.0006247878    1.167    0.143
       251  -9.1233    235.7652     39.5169   4.9976170189e+01   2.1247651773e+01    0.2625369    0.1789461 -28.19 0.0008180563    1.369    0.270
       252  -9.4941    191.2275     39.8080   5.5757506689e+01   3.2316239933e+01    0.3227127    0.2579375  25.04 0.0006000584    1.437    0.304
       253 -10.7894    192.3352     33.1452   5.3534858585e+01   3.2894317890e+01     0.712292    0.5455024 -70.15  0.002933378    1.429    0.300
       254  -9.8760    199.2816     31.3440   5.2036137150e+01   3.1313720356e+01    0.3681353    0.2233956  -7.75  0.001566391    2.093    0.522
       255  -9.3330    197.2097     28.6371   5.1488811879e+01   3.2182402074e+01    0.2641594    0.2274077  69.59 0.0004072368    1.165    0.142
       256 -10.1853    180.5490     38.1882   5.6905503094e+01   3.5326419953e+01      0.58119    0.4050143 -43.93  0.002739354    1.436    0.303
       257  -9.6268    174.4596     38.8188   5.8115836985e+01   3.6841477013e+01    0.3917047    0.2401726  47.25  0.001471405    1.667    0.400
       258 -10.5617    219.9039     34.5978   5.0424162090e+01   2.5685818998e+01    0.4766742      0.39795  64.51  0.001224051    1.250    0.200
       259 -10.2018    147.3769     34.8124   6.1779588540e+01   4.4463988520e+01     0.761996    0.2789512  62.39  0.002539812    2.884    0.653
       260  -9.6779    155.1707     32.7077   5.9483975660e+01   4.2729214600e+01     0.275667    0.2291008   8.17 0.0001936536    1.319    0.242
       261  -9.1207    124.2699     35.5608   6.7299864489e+01   5.0121456981e+01    0.3741347    0.2643066  30.49  0.001764118    1.534    0.348
       262  -8.7788    130.4364     35.1340   6.5635394676e+01   4.8685967153e+01    0.2153516    0.1458784 -29.58 0.0003869081    1.460    0.315
       263 -10.6458    134.8137     33.8607   6.4134311528e+01   4.7783832221e+01    0.3066855    0.2649006  31.56 0.0003806178    1.156    0.135
       264  -9.4222    138.8785     31.6736   6.2404634141e+01   4.7065090810e+01    0.3256895    0.2957406  63.73  0.001083301    1.135    0.119
       265 -10.2549     36.8241     27.0835   9.4812027052e+01   6.7482131484e+01    0.1980889    0.1629664 -21.78 0.0003165259    1.101    0.092
       266  -9.8329     32.6665     32.7834   9.9046040140e+01   6.6810015189e+01    0.2713819    0.1646697 -44.36  0.001005102    1.327    0.246
       267  -8.9374     32.4206    184.2735   1.2446798160e+02   3.2974632303e+01    0.2036955   0.08964813 -72.96  0.001130181    2.043    0.511
       268  -8.5722     18.0239    182.4854   1.2719311072e+02   3.4739496406e+01    0.1491189   0.09071235  45.40 0.0004704166    1.526    0.345
       269  -8.9365     36.7919    179.2697   1.2322195097e+02   3.3526857831e+01    0.1853438    0.1091055  58.90 0.0006244025    1.433    0.302
       270 -10.8321     24.5119     33.9356   1.0330562258e+02   6.7326593572e+01    0.2678956    0.2420444  59.41 0.0009225631    1.489    0.328
       271  -8.9623     80.1473    176.4108   1.1377758498e+02   2.8789888465e+01    0.2555372    0.1843365 -31.98  0.001399762    2.289    0.563
       272  -9.6370      7.4078    174.4997   1.2883981896e+02   3.7273770475e+01    0.1984681     0.139302 -87.51 0.0006591324    1.187    0.158
       273  -8.6375    246.4781    171.4876   7.9856172500e+01   7.8585080670e-01    0.1262025    0.1041242   5.49 0.0008099417    1.032    0.031
       274 -10.4020     18.3008    165.2850   1.2606448697e+02   3.8226988420e+01    0.3344523    0.2228138  78.12  0.002283284    1.179    0.152
       275 -10.4208     15.1726    160.1384   1.2638563366e+02   3.9584650127e+01    0.3524624    0.1335038 -66.81  0.001836158    2.298    0.565
       276 -10.4490     10.7896    164.6807   1.2760223341e+02   3.9002550168e+01    0.3267594    0.1741839  51.54  0.002076303    1.643    0.391
       277 -10.6924      2.5714    159.9599   1.2904822918e+02   4.0641950468e+01    0.5088226    0.1987571 -81.53  0.002779637    2.035    0.509
       278  -9.3090      9.7377    158.1178   1.2742199923e+02   4.0465422583e+01    0.2354796    0.1267235 -53.06  0.001125205    2.323    0.570
       279  -9.5837    248.5421     25.9662   4.5229344806e+01   1.9924038053e+01    0.3408478      0.26435  20.09  0.001906965    1.672    0.402
       280 -10.1391    247.9017     32.2362   4.6866203442e+01   1.9336793788e+01    0.4803275    0.2913186  37.07    0.0013866    2.223    0.550
       281  -8.2949     85.3355    154.3090   1.0970103148e+02   3.2721234728e+01    0.1240693    0.1044093 -24.93 0.0007042895    1.677    0.404
       282 -10.9846     13.5563    151.6240   1.2615382360e+02   4.1540248048e+01    0.4155003     0.327365  60.66  0.003055123    1.228    0.186
       283  -8.9680      7.8034    151.9338   1.2745044559e+02   4.1934437386e+01    0.1720847    0.1401451 -57.77 0.0006343829    1.521    0.343
       284 -11.8561     20.6676    147.2407   1.2420263527e+02   4.1891759029e+01    0.4912325    0.4119709  76.72  0.002334655    1.129    0.114
       285 -10.5138    247.0574     19.0666   4.3626393333e+01   2.1038201468e+01    0.4619517    0.2562755  72.95  0.001500931    1.910    0.476
       286 -10.2121    227.7079     29.8252   4.8244475770e+01   2.4356064699e+01     0.550317    0.2845791 -43.37  0.001237415    1.769    0.435
       287  -9.0865    153.0969     23.0994   5.6409785482e+01   4.4486639071e+01     0.663874    0.3173987 -21.58  0.002606212    2.227    0.551
       288  -9.4531     15.4855    142.5070   1.2502953081e+02   4.3371670236e+01    0.1918879    0.1213746 -76.34 0.0007909891    1.303    0.233
       289 -10.2584     45.9784    144.8881   1.1795316542e+02   3.9920794820e+01    0.3461498    0.2877067 -24.70  0.001650059    1.775    0.436
       290 -10.9526     34.5587    150.8240   1.2129205277e+02   3.9799601539e+01    0.5124601    0.2259981  30.63  0.002590889    2.580    0.612
       291 -10.6400     39.5802    147.1277   1.1973991417e+02   4.0105865907e+01    0.3581181    0.2778438 -58.62  0.001901364    1.418    0.295
       292 -11.0616     37.1553    144.0752   1.2000457736e+02   4.1039270946e+01    0.5066655    0.3327307 -32.41  0.002756491    2.510    0.602
       293 -12.2789    166.8932     24.5208   5.4564076398e+01   4.0673481120e+01    0.5163746    0.3523907  36.41 0.0003332522    1.607    0.378
       294  -9.7837    147.2146     23.9479   5.7809623872e+01   4.5921055833e+01    0.3823255    0.2931763 -85.77 0.0008269651    1.558    0.358
       295  -8.6817     45.9652    150.0591   1.1853177548e+02   3.8765021868e+01    0.1709103    0.1351694 -49.56 0.0003338243    1.555    0.357
       296  -9.8100     66.2023    148.2816   1.1345199359e+02   3.6722226823e+01    0.2959132    0.2478956  -7.41  0.001769656    1.802    0.445
       297 -10.0839      5.0064    147.2753   1.2777333645e+02   4.3147474842e+01    0.3599759    0.1541594  34.83  0.001839947    2.397    0.583
       298 -11.1964      5.9015    142.8603   1.2728045127e+02   4.4037475387e+01    0.3962409    0.2956628  65.30 0.0006668228    1.214    0.176
       299  -9.8289    203.5623     26.6610   5.0091030786e+01   3.0776164892e+01    0.4926589    0.3386921  -7.28  0.002345192    1.727    0.421
       300  -9.1817    146.9248     29.0901   5.9772413800e+01   4.5348587245e+01    0.2893099    0.2236004  43.99  0.001438487    1.278    0.218
       301  -8.9016    135.9093     26.2584   6.0971462580e+01   4.8534128720e+01    0.3844481    0.2532169  29.77  0.001737518    1.706    0.414
       302 -10.8940     18.7665    120.2194   1.2217981425e+02   4.8136881673e+01    0.8582317    0.1919363 -63.67  0.003426924    3.121    0.680
       303 -10.0229    107.1690    248.0092   1.1578754159e+02   1.2520390563e+01    0.3287168      0.15968  60.08   0.00190608    2.100    0.524
       304  -9.5588    204.9578     16.3053   4.6872157528e+01   3.1591506487e+01    0.2584955    0.2072766  -9.99 0.0006145487    1.386    0.279
       305 -11.2609     97.0729     21.5606   6.8825809255e+01   5.8335709448e+01    0.2891967    0.2607743 -10.80  0.001688345    1.060    0.057
       306 -12.5986     23.8623     80.7981   1.1526065009e+02   5.6940822142e+01     1.717088    0.8198625 -42.55   0.00741143    2.231    0.552
       307  -9.0668    217.5253    247.4940   9.7242087974e+01  -3.3533117167e+00    0.1100772   0.07899091  25.63 0.0001833799    1.012    0.012
       308  -8.7627     86.0169     16.1481   6.9732409434e+01   6.1386313835e+01    0.2354902    0.1794392  68.54  0.001246958    1.762    0.432
       309  -9.0957     67.6561     13.4054   7.4832812672e+01   6.5272923717e+01    0.2377274    0.1396656  38.16 0.0007768022    1.725    0.420
       310 -11.3770     40.4306     65.8972   1.0608980031e+02   5.8920333093e+01       1.3708    0.6856551 -41.93  0.006587422    1.949    0.487
       311  -8.5277     30.6098    247.1749   1.2822073269e+02   2.1973899333e+01    0.1165937    0.0775406 -76.92 0.0007048125    1.680    0.405
       312  -8.7065    197.3027     10.2652   4.5907417311e+01   3.4204552379e+01    0.1880678    0.1280307  87.25            0    1.508    0.337
       313  -9.3045      3.0858    246.4818   1.3236963163e+02   2.4781491043e+01    0.1579848    0.1029475 -77.61  0.001341812    1.724    0.420
       314 -12.5266     11.3908    130.1276   1.2500810991e+02   4.6448400087e+01     1.452593     1.044989  56.81   0.00668472    1.370    0.270
       315 -11.9296     30.2372     62.5799   1.0915270976e+02   6.0627228118e+01     1.441719    0.5693781 -30.60  0.004814914    5.106    0.804
       316  -9.1622     91.5948    245.7440   1.1822696272e+02   1.4949401236e+01    0.1336392   0.08909525  84.84 0.0009031203    1.639    0.390
       317  -9.8419    142.3096    243.6901   1.0937313617e+02   8.1148098712e+00    0.2583487    0.1890371  23.63  0.001141751    1.546    0.353
       318  -8.9101    206.4746    244.5054   9.8633200665e+01  -1.4697164649e+00    0.1117307   0.08167854  27.73 0.0001498257    1.015    0.014
       319  -8.4007      1.6839    241.6994   1.3244129102e+02   2.5662106325e+01   0.07549722   0.06651963 -89.08 0.0002813076    1.615    0.381
