#   1 NUMBER                 Running object number                                     
#   2 MAG_AUTO               Kron-like elliptical aperture magnitude                    [mag]
#   3 X_IMAGE                Object position along x                                    [pixel]
#   4 Y_IMAGE                Object position along y                                    [pixel]
#   5 X_WORLD                Barycenter position along world x axis                     [deg]
#   6 Y_WORLD                Barycenter position along world y axis                     [deg]
#   7 A_WORLD                Profile RMS along major axis (world units)                 [deg]
#   8 B_WORLD                Profile RMS along minor axis (world units)                 [deg]
#   9 THETA_WORLD            Position angle (CCW/world-x)                               [deg]
#  10 FWHM_WORLD             FWHM assuming a gaussian core                              [deg]
#  11 ELONGATION             A_IMAGE/B_IMAGE                                           
#  12 ELLIPTICITY            1 - B_IMAGE/A_IMAGE                                       
         1 -14.8744    164.6637     48.3712   7.2785976528e+01   3.7891656059e+01     1.299539     1.086198  -9.80  0.003852891    1.327    0.246
         2 -15.1383    179.3702     18.6162   6.1290735719e+01   3.7977630418e+01     1.824331     1.081443  63.75  0.007422349    1.515    0.340
         3 -13.6491    189.5119     14.9919   5.8767563753e+01   3.5796849277e+01    0.5691112    0.3001322  67.42  0.001958085    1.718    0.418
         4 -10.4811    105.7146    246.7655   1.2593315864e+02   1.2026088045e+01   0.09735232    0.0793906  41.92 0.0003306888    1.449    0.310
         5 -20.1417     72.4803    173.7139   1.2389685841e+02   3.0620225393e+01     15.25212     6.010974 -66.02    0.0687172    2.429    0.588
         6 -10.7175    116.8295    236.4875   1.2297397740e+02   1.1953565097e+01    0.1491325    0.1240101 -88.48 0.0001050265    1.255    0.203
         7 -10.9026    151.6547    234.5220   1.1658397621e+02   6.4325657507e+00    0.3099099    0.1717956  69.84  0.001431657    2.777    0.640
         8 -11.8503    164.8380    187.0882   1.0681155734e+02   1.1991695140e+01    0.2146253    0.1809188  74.31 0.0006828674    1.289    0.224
         9 -12.2485    162.5618    181.0045   1.0618476774e+02   1.3561358960e+01    0.3077415    0.2252839 -87.06  0.001511119    1.889    0.471
        10 -13.5380    188.0456    175.6355   9.9993777574e+01   9.3599455940e+00    0.7213936    0.4497688 -55.01  0.001665085    2.000    0.500
        11 -11.8256    186.9224    166.0651   9.8303120325e+01   1.1309021331e+01    0.4335792    0.3168181 -54.96  0.001638682    1.591    0.372
        12 -11.3437     98.2874    249.9490   1.2745630020e+02   1.2637867924e+01    0.1378689    0.1179971 -84.22 0.0006189266    1.348    0.258
        13 -12.0107    194.4554    172.0982   9.8012193278e+01   8.6567005581e+00    0.3207597    0.2727865 -54.51 0.0009643242    1.349    0.258
        14 -12.3983    176.8891    169.2414   1.0099744718e+02   1.2828986093e+01    0.3245991    0.2066631 -60.02  0.001463099    2.022    0.505
        15  -9.8937    125.5542    232.4786   1.2098344195e+02   1.1192813748e+01    0.1220884   0.09727567  59.79 0.0002933774    1.006    0.006
        16 -10.7531     25.2587    165.1597   1.3250698862e+02   3.7891260534e+01    0.1757561    0.1588868   9.50 0.0008362594    1.705    0.413
        17 -11.5700    127.4755    228.0519   1.2010785284e+02   1.1609726570e+01     0.336273    0.2302032  33.45  0.001969254    1.718    0.418
        18 -10.2745     29.9692    245.9800   1.3772250635e+02   2.2226499028e+01    0.1454858   0.09792216  84.43 0.0008980687    1.161    0.139
        19 -13.0466    207.6863    226.2500   1.0527237383e+02  -2.3135262427e+00    0.3138727    0.2049999 -26.33  0.001708656    1.869    0.465
        20 -11.2158     22.9661    156.0908   1.3207671941e+02   3.9982851586e+01    0.1979016    0.1449478  56.53 0.0004704023    1.407    0.289
        21  -8.0597      6.7091    228.7227   1.4016906702e+02   2.7584384567e+01    0.0815114   0.06543142 -79.19 0.0006936764    1.522    0.343
        22 -11.6052     17.9311    154.3663   1.3293069076e+02   4.0788602900e+01    0.3585251    0.1627933 -80.63  0.001258111    1.901    0.474
        23 -12.0816    188.3543    154.0870   9.5492973698e+01   1.3204120056e+01    0.7055913    0.3694676  41.21  0.002929329    1.874    0.466
        24 -12.5956    163.8723    152.0440   1.0022311654e+02   1.8877593521e+01    0.3358992    0.3244263  56.66 0.0008728731    1.018    0.018
        25 -11.0152    146.2856    224.1487   1.1617669464e+02   9.0235824364e+00    0.3658231    0.1762825  46.99   0.00182527    1.714    0.417
        26 -10.9023      7.4123    149.7105   1.3462223479e+02   4.2609700954e+01    0.2106725    0.1228856 -50.49 0.0007164811    1.962    0.490
        27 -11.5105    174.4513    148.7486   9.7241868242e+01   1.7245348481e+01    0.3356682     0.280325 -87.72  0.001065552    1.449    0.310
        28 -10.5311    127.2989    221.8248   1.1936466405e+02   1.2698556379e+01    0.2364777     0.110026 -65.02  0.001096968    2.795    0.642
        29 -11.5424    152.3731    219.4917   1.1440081335e+02   8.7081062802e+00    0.2331454    0.2242092  53.49 0.0007221772    1.183    0.155
        30 -11.2013    163.4619    244.3811   1.1578173650e+02   2.9301336821e+00    0.2526514    0.1740566  31.33 0.0009282369    1.532    0.347
        31 -10.6178    217.6336    218.1938   1.0215179705e+02  -2.9956286756e+00    0.1624572    0.1151434 -17.59 0.0006281871    1.641    0.390
        32 -12.8478    160.3138    127.4355   9.5495803190e+01   2.4597981189e+01    0.5130966    0.3697065 -64.70   0.00227761    1.676    0.403
        33 -12.8230     28.2937    126.9189   1.2751626833e+02   4.5681648959e+01    0.3749928    0.2693331  10.44  0.002428642    2.065    0.516
        34 -10.5661     24.2708    216.2205   1.3675097810e+02   2.8034625436e+01    0.1356704    0.1075885  72.05 0.0007381531    1.221    0.181
        35 -10.6787    140.1400    241.0237   1.1943493464e+02   7.3943130702e+00    0.2054932     0.156837 -52.67  0.001064632    1.650    0.394
        36 -13.2169     11.5836    206.0990   1.3813242889e+02   3.1168585808e+01    0.3447782    0.2252122  37.16  0.002122372    1.950    0.487
        37 -11.0873    231.2622    113.7839   7.7940896348e+01   1.0775148838e+01     0.261977    0.2346119  38.82 0.0007162098    1.135    0.119
        38 -11.0561    168.0022    113.0098   9.0235226194e+01   2.5733396724e+01    0.3736363    0.2555991 -82.55  0.001403511    2.393    0.582
        39 -10.2575     19.2867    204.0058   1.3673821755e+02   3.0807620771e+01    0.2059986   0.05241442 -61.91 0.0009441774    3.679    0.728
        40 -11.3019    135.2999    238.9228   1.2002976659e+02   8.5322739916e+00    0.2701411    0.1836435  44.74 0.0008927147    1.271    0.213
        41 -10.9384    205.3563    110.2513   8.1800633994e+01   1.7414850319e+01    0.3291745    0.2085634  46.77   0.00103496    1.568    0.362
        42  -9.9384    134.7125    235.3338   1.1970205007e+02   9.2004146107e+00    0.1252063    0.1010719  54.62 0.0004760954    1.049    0.047
        43 -11.1533     13.3196    101.0052   1.2759704446e+02   5.2339820121e+01    0.2626077    0.1528119  33.03  0.001684014    2.122    0.529
        44 -11.5707     32.7686     99.4910   1.2215022513e+02   5.1151357827e+01    0.2478401    0.1822966  57.94 0.0008104462    1.655    0.396
        45 -10.2536    145.4969     82.4917   8.7211217353e+01   3.6797909380e+01     0.149944    0.1462382  15.76 3.886464e-05    1.013    0.013
        46 -10.8164    134.1124    196.8014   1.1458835059e+02   1.6014556556e+01    0.2088478     0.181932 -78.63 0.0003977573    1.203    0.169
        47 -11.4762    219.4692    194.9905   9.7666222971e+01  -3.3928176560e-02    0.1878132    0.1307306 -34.63 0.0005818068    1.573    0.364
        48 -14.2670    152.8990     62.5877   7.9608557952e+01   3.8560861349e+01     1.197443    0.8635349  29.44  0.000979036    1.549    0.354
        49 -11.1123    127.9276    246.4199   1.2216179502e+02   8.5775604432e+00    0.1429169    0.1235539  70.66 0.0001898191    1.163    0.140
        50 -13.2738    169.4628     39.9062   6.9296228897e+01   3.7878697808e+01    0.4417015    0.4189124  40.02 0.0008739018    1.047    0.045
        51 -11.2123     13.6147     59.9317   1.2002628308e+02   6.0615509728e+01    0.1637686    0.1609123   8.59 0.0005466925    1.328    0.247
        52 -10.8012    139.6676    193.5326   1.1297179913e+02   1.5613645545e+01    0.3325826     0.124466 -58.72  0.001217352    3.536    0.717
        53 -11.1675    109.2296    245.3118   1.2520257981e+02   1.1718038255e+01    0.1964569    0.1283345 -48.74   0.00122984    2.181    0.541
