#   1 NUMBER                 Running object number                                     
#   2 MAG_AUTO               Kron-like elliptical aperture magnitude                    [mag]
#   3 X_IMAGE                Object position along x                                    [pixel]
#   4 Y_IMAGE                Object position along y                                    [pixel]
#   5 X_WORLD                Barycenter position along world x axis                     [deg]
#   6 Y_WORLD                Barycenter position along world y axis                     [deg]
#   7 A_WORLD                Profile RMS along major axis (world units)                 [deg]
#   8 B_WORLD                Profile RMS along minor axis (world units)                 [deg]
#   9 THETA_WORLD            Position angle (CCW/world-x)                               [deg]
#  10 FWHM_WORLD             FWHM assuming a gaussian core                              [deg]
#  11 ELONGATION             A_IMAGE/B_IMAGE                                           
#  12 ELLIPTICITY            1 - B_IMAGE/A_IMAGE                                       
         1 -14.2112    213.4568     14.7655   5.1094222553e+01   3.1260712520e+01     2.520535     1.310959  84.75   0.01257408    1.959    0.489
         2 -13.8677    177.8837     46.3848   6.3514128276e+01   3.5490321989e+01      1.22645     1.000499 -22.87  0.000920824    1.481    0.325
         3 -14.0872    189.5636     36.5466   5.9179113517e+01   3.4087665699e+01     1.098356    0.9766875 -63.53  0.003162689    1.159    0.137
         4 -14.1162    196.4957     27.3284   5.5994706182e+01   3.3644728536e+01    0.9918865    0.8191148 -47.44   0.00131378    1.312    0.238
         5 -13.1016    217.8081      2.7291   4.8136576288e+01   3.1616823524e+01    0.9796454    0.3282109  70.92  0.003461296    2.537    0.606
         6  -9.5354     60.8490    231.0345   1.2775935262e+02   1.8815516614e+01    0.1397224   0.07618663 -72.80 0.0007543722    1.704    0.413
         7 -16.4959     72.0042    148.3470   1.1439587927e+02   3.6063868038e+01     9.183844      4.90185  84.66   0.03110388    4.110    0.757
         8 -12.0072    193.7677    195.4391   9.4927648483e+01   3.2439420197e+00     1.309857     0.649849 -65.24  0.003824029    5.186    0.807
         9  -9.9538     34.6674    205.5730   1.3024342592e+02   2.7499935389e+01    0.1415784   0.09794664  61.94 0.0005461483    1.328    0.247
        10 -10.9990    156.3826    199.9790   1.0373308415e+02   9.5372013068e+00    0.4925035      0.33024  80.79  0.002123525    2.262    0.558
        11 -11.2212    152.9764    193.6290   1.0333550691e+02   1.1544861686e+01    0.4293977    0.2688215  69.05  0.001567214    2.247    0.555
        12 -11.4906    141.1593    198.1516   1.0674352166e+02   1.2819381772e+01    0.3319173    0.2477943 -65.60 0.0008314059    1.423    0.297
        13 -12.0241    135.7024    199.0219   1.0809437221e+02   1.3648490873e+01    0.3792779    0.2834925  86.73  0.001626833    1.577    0.366
        14  -9.8757     72.0988    229.9866   1.2554393774e+02   1.7466256989e+01     0.175692    0.1280539  71.93 0.0003694778    1.166    0.142
        15 -11.1350    208.9835    197.7715   9.2277936434e+01  -7.7130651990e-02    0.2633125    0.2073417 -52.91 0.0008433605    1.408    0.290
        16 -11.9820     41.6139    211.8923   1.2951870572e+02   2.5323881933e+01    0.4870759    0.3337583  22.74  0.002839051    2.285    0.562
        17 -10.1106     81.7645    195.4601   1.1941661479e+02   2.3594182553e+01    0.2769824    0.2447969 -26.24  0.001641191    1.585    0.369
        18 -13.0064     67.7162    190.4230   1.2178968927e+02   2.6769041736e+01     0.810657    0.6439637 -61.93  0.004874753    1.269    0.212
        19  -9.9824     40.8429    194.1468   1.2787779555e+02   2.9317444461e+01    0.2352971    0.1610467  50.48 0.0005505732    1.480    0.324
        20 -10.0314    198.8474    222.7960   9.8924119650e+01  -2.7873286919e+00    0.1958436    0.1695512  17.19 0.0003785466    1.119    0.106
        21 -11.5619     55.7594    211.2416   1.2671683756e+02   2.3700622247e+01    0.2108866     0.156891 -78.38 0.0004822342    1.181    0.153
        22 -12.9147     51.0148    208.2357   1.2733314750e+02   2.4965892957e+01    0.5805052    0.3111136  61.73  0.001926374    1.841    0.457
        23 -13.5127     57.5634    204.6232   1.2563541799e+02   2.4922194209e+01    0.6616527    0.4175245  73.24  0.001711446    1.546    0.353
        24 -11.4797    150.4818    181.8247   1.0169263055e+02   1.4614400706e+01    0.4235132    0.2678785 -81.27  0.001437364    2.537    0.606
        25 -12.2978     61.4841    203.5430   1.2471543979e+02   2.4643967656e+01    0.3508696    0.2389911 -83.66  0.001520157    1.314    0.239
        26 -11.5099     99.4901    180.6954   1.1322231644e+02   2.4218337978e+01    0.2619242    0.2495725 -72.13 0.0006263751    1.140    0.123
        27 -11.5230     70.7191    210.1139   1.2360111511e+02   2.1915657090e+01    0.2181117     0.175779  75.88 0.0002824246    1.061    0.057
        28 -10.1551    165.0310    171.5743   9.6387873904e+01   1.3956662727e+01    0.2644431    0.2051046 -68.67 0.0005183339    1.450    0.311
        29 -10.7831     45.6361    171.6227   1.2422094765e+02   3.3901853078e+01    0.7234868    0.2047797  36.86  0.002861029    3.556    0.719
        30 -10.3218    201.7288    169.1773   8.7996440482e+01   6.9389659460e+00    0.4737241    0.2453572 -56.37  0.001819093    2.410    0.585
        31 -10.4966    204.0806    165.0282   8.6642639139e+01   7.3060715111e+00     0.605235    0.2823678 -51.59  0.001776619    2.358    0.576
        32 -11.2938    194.0956    167.0971   8.9141433728e+01   8.9251124629e+00    0.3640248    0.3265925 -65.00 0.0008005927    1.179    0.152
        33 -10.1860    190.9255    161.4854   8.8616366122e+01   1.0756320664e+01    0.3765704    0.2641549  75.25  0.001620641    2.032    0.508
        34 -10.6287    230.0272    166.0273   8.1791706981e+01   1.9818215046e+00    0.2262663    0.1774827 -77.19   0.00113904    1.734    0.423
        35 -10.5675    159.3976    163.8133   9.6059704459e+01   1.6835232425e+01    0.2842449    0.2318097  84.10 0.0008480026    1.429    0.300
        36 -10.7091     30.8707    210.7850   1.3143786015e+02   2.6800161998e+01    0.1564933    0.0965343  56.99 0.0004497461    1.498    0.332
        37 -16.5903     70.4047    247.4527   1.2759708419e+02   1.4191033139e+01      9.16339     3.124687  31.93   0.01904748    6.762    0.852
        38 -12.8867     95.7795    154.3043   1.0949068323e+02   3.1070663339e+01    0.8034055    0.5697578 -41.56  0.003981304    1.546    0.353
        39 -11.6719    133.9008    145.2932   9.8142847011e+01   2.6255623970e+01     1.282561    0.3244926 -55.35  0.003002148    5.684    0.824
        40 -10.0202    113.3609    151.2002   1.0448567601e+02   2.8781308797e+01     0.288094    0.2137819 -88.91 0.0008487588    1.637    0.389
        41 -10.5471    174.4973    148.6687   8.9376729657e+01   1.6998862153e+01    0.3672627    0.2917298 -75.19  0.001404957    1.470    0.320
        42 -11.3435    144.2207    146.5320   9.5907609585e+01   2.3882666438e+01    0.4267069     0.307065 -63.84  0.001950761    1.504    0.335
        43  -9.7208    159.9822    147.0459   9.2304728281e+01   2.0466409827e+01    0.2483873    0.1892227  89.95 0.0006621025    1.687    0.407
        44 -11.0387    188.9917    154.9970   8.7623450352e+01   1.2534852438e+01    0.5119558    0.4265381  62.60   0.00258677    1.284    0.221
        45 -11.9139    107.3600    139.8531   1.0365885299e+02   3.2519987504e+01    0.5783702    0.3367816 -33.20  0.002329475    2.326    0.570
        46 -12.5144     95.2784    140.1612   1.0685279102e+02   3.4498868202e+01    0.3192081    0.2923941 -30.11 0.0004234355    1.204    0.170
        47 -10.1492    128.3154    139.4624   9.8243866931e+01   2.8704390272e+01    0.2591339    0.2211976  17.59 0.0006790066    1.393    0.282
        48 -11.1433    106.1035    130.8109   1.0202874250e+02   3.4842753982e+01    0.3874471    0.3130699 -67.74  0.001160948    1.269    0.212
        49 -11.1702    102.2558    126.5189   1.0209258158e+02   3.6498124671e+01    0.2972524    0.2350131 -28.22  0.000641498    1.439    0.305
        50 -11.2186    114.6995    130.2219   9.9646287557e+01   3.3427026208e+01    0.3650662    0.2852592 -16.59 0.0009068303    1.663    0.399
        51 -10.9851    135.9492    127.8743   9.3681369241e+01   2.9811161396e+01    0.5073597    0.2101406 -52.69  0.001752623    2.550    0.608
        52 -11.1599    119.9554    123.9431   9.6828712718e+01   3.3864486676e+01    0.4835554    0.3193077 -17.92  0.001750696    2.446    0.591
        53 -10.2256    160.6453    127.6135   8.7675926095e+01   2.4615836663e+01    0.3273695    0.2451327 -68.19  0.001493525    1.540    0.351
        54 -10.2395    110.0035    119.2220   9.8337648186e+01   3.6779226384e+01    0.2335846    0.2012438 -51.20 0.0003092439    1.113    0.102
        55  -9.9190    168.0226    112.8176   8.2414914930e+01   2.6113546304e+01    0.3315733    0.2232924 -81.31  0.001315477    2.289    0.563
        56 -11.4533    118.9599    109.6264   9.3612090801e+01   3.7207441445e+01    0.5521132    0.4804968  71.17  0.002929701    1.297    0.229
        57  -9.6388    134.6860    105.5200   8.8500697493e+01   3.4920068283e+01    0.2822132     0.136254 -45.25  0.001092127    2.056    0.514
        58  -9.3532     64.1728    223.6929   1.2639466920e+02   1.9896873991e+01     0.117364    0.0754591  86.72  0.000257618    1.453    0.312
        59 -10.3321     59.8980    217.2474   1.2654345161e+02   2.1852359691e+01     0.279026    0.1615721 -88.08  0.001489685    1.700    0.412
        60 -10.2429    205.4486    110.1568   7.4093200050e+01   1.8129803395e+01     0.314772    0.2156586  44.28  0.001055968    1.583    0.368
        61 -11.7884     53.1670     91.2536   1.0803053853e+02   5.1216665481e+01    0.4184166    0.2378646 -61.04  0.001516622    1.846    0.458
        62 -11.1734     42.0682     91.4656   1.1149364563e+02   5.2339423254e+01    0.3333308     0.180628 -41.93  0.001390353    1.617    0.381
        63  -9.0789    154.3547     80.2884   7.7133121941e+01   3.5536047200e+01    0.1501151    0.1142768  20.51 0.0007025034    1.675    0.403
        64  -9.2888     68.8133     71.7988   9.8072312531e+01   5.3079650264e+01    0.1525573    0.1486351 -60.89 0.0002609349    1.283    0.221
        65 -11.7714    164.2033     64.9488   7.0926417959e+01   3.5890759981e+01    0.4482736    0.3046009 -83.74 0.0006367899    2.110    0.526
        66  -9.6876     62.2667    214.2373   1.2575832850e+02   2.2184283673e+01    0.2739904    0.1648804  37.55  0.001496243    1.853    0.460
        67  -9.4549     48.7570    217.6403   1.2871819035e+02   2.3213689193e+01    0.2940421    0.1858152  44.80  0.001759462    1.606    0.377
        68 -19.4237     11.4767    136.4219   1.2765228339e+02   4.5123424142e+01     18.25322     2.031177 -69.14   0.04082432    9.781    0.898
        69 -10.2378     53.7186    230.4551   1.2901542293e+02   1.9883634032e+01    0.3331325    0.1523078 -76.71  0.001678032    2.105    0.525
        70 -12.0500    164.0331     56.3472   6.8673511338e+01   3.7273919618e+01    0.4010299    0.3035498  83.75  0.001400794    1.508    0.337
        71  -8.8587    115.5007     31.4136   7.2136749013e+01   5.1257735865e+01    0.1267976    0.1120603  38.38  0.000200131    1.047    0.045
