#   1 NUMBER                 Running object number                                     
#   2 MAG_AUTO               Kron-like elliptical aperture magnitude                    [mag]
#   3 X_IMAGE                Object position along x                                    [pixel]
#   4 Y_IMAGE                Object position along y                                    [pixel]
#   5 X_WORLD                Barycenter position along world x axis                     [deg]
#   6 Y_WORLD                Barycenter position along world y axis                     [deg]
#   7 A_WORLD                Profile RMS along major axis (world units)                 [deg]
#   8 B_WORLD                Profile RMS along minor axis (world units)                 [deg]
#   9 THETA_WORLD            Position angle (CCW/world-x)                               [deg]
#  10 FWHM_WORLD             FWHM assuming a gaussian core                              [deg]
#  11 ELONGATION             A_IMAGE/B_IMAGE                                           
#  12 ELLIPTICITY            1 - B_IMAGE/A_IMAGE                                       
         1 -14.4670    241.8969     52.9972   5.7832696227e+01   1.7911113131e+01     1.399707    0.4809644 -37.27  0.005219802    2.473    0.596
         2 -13.7555    247.1055     43.2179   5.4667495214e+01   1.7927483439e+01     1.106961    0.6790424 -27.07   0.00545646    1.484    0.326
         3 -15.1549    234.9107     28.3653   5.1969436025e+01   2.2598360461e+01     2.108916    0.7448554 -25.84  0.007819436    2.615    0.618
         4 -14.3469    248.1682     19.3697   4.8334370729e+01   2.0438914648e+01     2.447748    0.7107786 -26.91  0.008855074    2.940    0.660
         5 -14.0108    249.3121     62.5735   5.9449842652e+01   1.4982539048e+01     2.703064     0.463848 -25.92   0.00629011    6.604    0.849
         6 -10.5695      1.3852      8.2010   1.0909625769e+02   7.3643928162e+01    0.1597716   0.08862973 -64.46  0.000960088    1.738    0.425
         7 -12.0418    239.3894      2.8322   4.4716040736e+01   2.4233850269e+01    0.4127808    0.1521099 -23.95  0.001645757    2.549    0.608
         8 -10.2325    110.8482      5.1739   6.2765571214e+01   5.7167742255e+01    0.1938546    0.1472137  23.67  0.001030586    1.306    0.234
         9  -9.6778     50.7260      3.6659   8.1255572977e+01   6.9204287743e+01    0.1267707   0.08389471  -4.57 0.0002965861    1.600    0.375
        10 -10.6121    202.0296    242.5335   1.0325731704e+02   6.5992451295e-01    0.1791897    0.1371939 -66.49  0.001251657    2.440    0.590
        11 -11.4107    193.4756    249.0237   1.0539143206e+02   1.2583353504e+00    0.2157227    0.1985265 -53.33  0.001854434    1.603    0.376
        12 -10.5081    240.1721    240.4749   9.7147034796e+01  -4.6692436855e+00    0.1504683    0.1318001  71.87  0.001073297    2.197    0.545
        13 -10.3787    248.4261    240.2406   9.5891481742e+01  -5.7961602268e+00    0.1181677   0.09303788 -23.64   0.00094846    1.658    0.397
        14 -11.6338    191.7487    236.6786   1.0413954672e+02   2.8242216474e+00     0.429809    0.2848921  74.52  0.002343404    3.375    0.704
        15 -11.3757    230.3811    236.8038   9.8110643703e+01  -2.9457948013e+00    0.2234565    0.1936537 -70.22  0.001660968    2.288    0.563
        16 -11.0535    206.3707    236.7257   1.0182245135e+02   6.0729684181e-01    0.2140754    0.1621261  59.24  0.001526055    1.757    0.431
        17 -10.0489    243.3601    236.6648   9.6133869542e+01  -4.7862122579e+00   0.09289391    0.0781398  52.82 0.0007038986    1.811    0.448
        18 -11.6237    216.6591    233.9661   9.9835034737e+01  -6.5452381640e-01       0.2996    0.2205269  48.59  0.002179272    1.481    0.325
        19 -10.3624    170.6045    234.8243   1.0733663275e+02   6.2751670053e+00     0.127037    0.1057633 -69.92 0.0009533177    1.697    0.411
        20 -10.4702    240.3470    231.7109   9.5872695126e+01  -3.9175458073e+00    0.1384361    0.1241483  56.62  0.001086553    1.789    0.441
        21 -10.1862    225.5923    231.7754   9.8139220265e+01  -1.7685566476e+00     0.120543    0.1014402 -32.73 0.0006526654    1.640    0.390
        22 -11.2782    235.4663    229.4051   9.6278820365e+01  -2.9970123475e+00    0.2281388    0.1812119 -25.01  0.001376216    1.580    0.367
        23 -10.6331    158.2298    231.2373   1.0895659361e+02   8.6281115360e+00     0.143777   0.09032612 -65.61 0.0008830514    2.444    0.591
        24 -10.7117    229.8121    228.5440   9.7023007838e+01  -2.0815928727e+00    0.1719872    0.1422769 -46.54  0.001073743    1.930    0.482
        25 -10.4415    211.8439    227.5884   9.9707421895e+01   7.2890510708e-01      0.15465    0.1308911 -24.22  0.001193744    1.471    0.320
        26 -10.4034    138.6854    228.3479   1.1191580178e+02   1.2012950480e+01    0.1135665   0.07287622  65.95 0.0007047211    1.721    0.419
        27 -11.3815    232.9378    212.9158   9.4174931090e+01  -9.9462852625e-01    0.2611263     0.185324 -33.73  0.001565948    1.758    0.431
        28 -11.6929    246.7069    226.1159   9.4085782034e+01  -4.3258197813e+00    0.2854251    0.2122574  50.49  0.002037591    1.809    0.447
        29 -12.0485    240.2674    221.3024   9.4334610097e+01  -2.9371972742e+00    0.2789299    0.2696664  28.57  0.002278466    1.578    0.366
        30 -10.4765    223.1443    226.8418   9.7814700968e+01  -9.1514774406e-01    0.1606112    0.1304886  38.94 0.0009183113    1.283    0.220
        31 -11.1294    198.9316    226.6663   1.0165693208e+02   2.8279384741e+00     0.181802    0.1686764 -45.52  0.001440047    1.495    0.331
        32 -10.8435    205.9762    225.5443   1.0036082671e+02   1.8546360508e+00    0.1784895    0.1574038 -56.00  0.001352811    1.700    0.412
        33 -11.6222    217.1823    223.0032   9.8200228454e+01   3.9048110332e-01    0.2909488    0.2316991 -54.03  0.001688701    2.038    0.509
        34 -11.0295    228.1908    221.8236   9.6285973073e+01  -1.1746985904e+00    0.2914862     0.148925  48.62  0.001668006    2.022    0.505
        35 -10.6142    186.0000    222.0018   1.0314887660e+02   5.4132268160e+00    0.1537321   0.06621779 -40.87 0.0007371724    2.940    0.660
        36 -12.3583    247.9558    216.9768   9.2491647932e+01  -3.6633589074e+00    0.4084083     0.261446 -33.12   0.00228718    1.952    0.488
        37 -11.0754    193.4944    219.1911   1.0151185239e+02   4.5517077748e+00     0.231193    0.1879762 -79.63  0.001555203    2.039    0.510
        38 -11.6241    217.7321    212.2516   9.6501758756e+01   1.4658886319e+00    0.2833416    0.2507192  81.38  0.002009158    1.835    0.455
        39 -10.9289    219.6223    217.3226   9.6968951666e+01   6.1474219691e-01    0.1856761    0.1731089 -83.88  0.001343996    1.729    0.421
        40 -11.5942    240.8401    208.5538   9.2242136400e+01  -1.7677272751e+00    0.3662868    0.2645245 -56.77  0.002161904    2.924    0.658
        41 -10.9260    231.1632    194.1633   9.1380888566e+01   1.3180055711e+00    0.2227962    0.1567293 -35.89  0.001395651    1.718    0.418
        42 -11.3397    235.1249    203.2347   9.2270938979e+01  -3.2099768336e-01    0.2762065     0.225126 -55.46  0.001411459    2.092    0.522
        43 -10.7412    192.8596    209.7676   1.0025749452e+02   5.8045634740e+00    0.1938154    0.1556105 -82.78  0.001195564    2.068    0.516
        44 -11.4336    247.1438    207.0101   9.1015639078e+01  -2.5772137481e+00      0.34205    0.1616153 -41.29  0.001772255    3.186    0.686
        45 -11.1667    243.4409    201.2570   9.0634319423e+01  -1.4219719496e+00     0.304711    0.1997261 -30.32  0.001979448    1.736    0.424
        46 -10.9171    229.4869    207.0203   9.3785022206e+01   1.6702886507e-01    0.2508935    0.1092646 -32.14  0.001326299    2.600    0.615
        47 -10.3202    224.6271    207.8368   9.4695553434e+01   8.5193686592e-01    0.1430332    0.1052887 -39.14 0.0009468746    1.780    0.438
        48 -10.5640    206.3962    208.2073   9.7743343719e+01   3.7644710795e+00    0.1416771    0.1111763 -45.41  0.000949487    1.710    0.415
        49 -10.4450    190.5025    226.0172   1.0294624916e+02   4.2229712361e+00    0.1424181    0.1123428 -32.66   0.00103542    1.597    0.374
        50 -10.0027    202.4364    204.4915   9.7832766322e+01   4.8687233138e+00    0.1188797   0.09685849  31.73 9.294346e-05    1.022    0.021
        51 -10.3288    197.4568    204.0242   9.8605871749e+01   5.7597211234e+00    0.1599977    0.1173249 -31.88  0.001035463    1.609    0.379
        52 -10.5048    187.4862    203.5332   1.0024654548e+02   7.5020186525e+00    0.1858282    0.1140213 -54.35  0.001028331    2.385    0.581
        53  -9.9849    172.7424    203.6528   1.0284969176e+02   9.9784562612e+00     0.113538   0.08654264  12.32 0.0003469256    1.596    0.374
        54 -11.1382    250.1657    200.6809   8.9497285671e+01  -2.4055351546e+00    0.2915056     0.151963 -26.01  0.001551822    2.009    0.502
        55 -10.0665    223.5139    201.4955   9.3852057215e+01   1.7396700001e+00     0.118424   0.09520964  25.77  0.000810312    1.031    0.030
        56 -10.8946    231.5063    199.0251   9.2149039806e+01   7.1689744907e-01    0.3989944    0.1675777 -44.54    0.0017619    3.938    0.746
        57 -10.2845    215.4191    198.2075   9.4646054909e+01   3.4613507656e+00    0.1473848    0.1125744 -42.15 0.0009496139    1.696    0.410
        58 -11.6446    224.3524    192.5324   9.2212559811e+01   2.6382684444e+00    0.2803482    0.1693069 -42.30   0.00145923    2.149    0.535
        59  -9.9367    176.3041    197.6474   1.0132304966e+02   1.0213469714e+01    0.1177751   0.09144621  73.39  0.000704065    1.707    0.414
        60 -11.8321    246.4778    193.3516   8.8809842560e+01  -1.0703461295e+00    0.3076683    0.2727928 -44.68  0.001642872    1.716    0.417
        61 -10.5484    243.8683    188.1231   8.8298418151e+01  -8.6123394384e-02    0.1926307    0.1700082 -42.25   0.00103614    1.638    0.390
        62  -9.9814    209.3096    194.6872   9.5091172311e+01   4.9243145871e+00    0.1096019   0.09407083  69.22  0.000251091    1.627    0.385
        63 -11.2582    237.0362    187.3026   8.9237848809e+01   1.1274939556e+00    0.2485856     0.167962 -23.34  0.001038017    1.537    0.349
        64 -10.8070    230.0270    187.2735   9.0366830498e+01   2.3030218319e+00    0.1945046    0.1741714 -53.30  0.001320782    1.650    0.394
        65 -10.3870    202.1515    197.1894   9.6722040470e+01   5.8309609604e+00    0.1556957     0.139697  56.76 0.0006633503    1.351    0.260
        66 -10.2136    215.3702    187.1703   9.2785718548e+01   4.8231522223e+00      0.15625    0.1124761 -42.68 0.0008987504    1.747    0.428
        67 -12.1668    247.8971    178.5076   8.5919212434e+01   3.2246920967e-01    0.4834924    0.2596662 -44.69  0.002410209    2.836    0.647
        68 -10.8670    223.9140    183.9183   9.0778440729e+01   3.7485829617e+00     0.250946     0.169047 -43.90  0.001260307    1.938    0.484
        69 -11.3827    183.6626    182.8818   9.7625304642e+01   1.1039659547e+01    0.2721085    0.1535929 -47.37  0.001405632    2.157    0.536
        70 -11.8670    241.3484    180.5469   8.7328670380e+01   1.1813305704e+00    0.3925658    0.2101654 -38.43  0.002101158    2.228    0.551
        71 -10.0687    210.3197    188.6633   9.3902495001e+01   5.5109065041e+00    0.1128441    0.0973266  76.95 0.0004846793    1.706    0.414
        72 -11.3760    235.6295    181.1064   8.8348592075e+01   2.0805809703e+00    0.1966875    0.1570003  39.17 0.0008318514    1.267    0.211
        73 -10.3487    225.6471    179.1757   8.9633211054e+01   4.0326152132e+00    0.1708582    0.1081528 -15.73 0.0009478637    1.741    0.426
        74 -10.7286    219.0188    177.9926   9.0530032210e+01   5.3489776357e+00    0.2208099     0.158938 -27.35  0.001332914    1.485    0.327
        75 -10.1862    197.6078    176.7668   9.4039553147e+01   9.3820585746e+00    0.1652697    0.1208515 -47.23   0.00094957    1.679    0.405
        76 -11.2021    182.3774    176.2453   9.6721148321e+01   1.2261150337e+01    0.2122246    0.1696961 -51.14  0.001273259    1.504    0.335
        77 -10.4230    232.6355    174.4953   8.7612259417e+01   3.3893589913e+00    0.1967534    0.1123423 -28.19  0.001034692    1.816    0.449
        78 -10.5436    223.5859    173.2562   8.8881316696e+01   5.1431809537e+00    0.2224491    0.1156019 -37.22  0.001121118    2.126    0.530
        79 -10.1922    203.4864    183.5052   9.4191064020e+01   7.3897089221e+00     0.125616    0.1073593  30.46 -7.893303e-06    1.033    0.032
        80 -11.2730    237.3276    169.0640   8.5815627111e+01   3.2331448540e+00    0.3427239    0.1498427 -36.84   0.00161017    2.487    0.598
        81 -10.8863    245.8986    169.2366   8.4479845092e+01   1.7258895406e+00    0.2517477    0.1651006 -39.91  0.001439526    1.873    0.466
        82 -10.4582    205.2916    169.2655   9.1291093764e+01   9.0227839878e+00    0.2427803    0.1538555 -56.82  0.001171739    2.525    0.604
        83 -11.0070    218.7857    168.2682   8.8749752890e+01   6.6642822276e+00    0.2972317    0.1770048 -37.13  0.001353668    1.843    0.458
        84 -10.0478    229.3757    166.1700   8.6559217375e+01   5.0115881713e+00     0.172059    0.1132509 -38.39 0.0009508664    1.731    0.422
        85 -10.6301    191.5643    165.7108   9.3105860947e+01   1.2131422003e+01    0.2384009    0.1293295 -32.98  0.001142384    2.083    0.520
        86 -10.5363    199.4239    164.7638   9.1488170578e+01   1.0775893309e+01    0.2361266    0.1256166 -41.08  0.001134197    2.093    0.522
        87 -10.4469    227.7852    171.0153   8.7755473513e+01   4.6790532852e+00    0.1822321    0.1426943 -56.00  0.001058897    1.936    0.484
        88 -11.1811    212.8922    162.4006   8.8631695995e+01   8.5617747721e+00    0.3674071    0.1827738 -35.90  0.001747829    2.135    0.532
        89 -10.4187    246.7567    162.4126   8.3011692166e+01   2.3892725498e+00    0.2121443    0.1432074 -35.29  0.001166998    1.641    0.391
        90 -10.9312    245.8189    157.2193   8.2120232143e+01   3.1857072295e+00    0.3082559    0.1666822 -27.89  0.001489118    1.806    0.446
        91 -10.2031    221.5737    161.7655   8.7007750256e+01   7.0216741946e+00    0.1688145    0.1198231 -39.88 0.0008078255    1.614    0.380
        92 -10.7550    205.3301    161.4973   8.9791996070e+01   1.0126460716e+01    0.2511979     0.164091 -36.77  0.001342916    1.653    0.395
        93 -10.9205    237.6070    158.7106   8.3732652890e+01   4.4738261397e+00    0.2386435    0.1889478 -29.01  0.001004314    1.342    0.255
        94 -10.4141    210.5174    176.0166   9.1627130298e+01   7.1330799542e+00    0.1779498    0.1230273 -32.50 0.0009637238    1.581    0.368
        95 -10.6057    226.5397    157.2364   8.5261398568e+01   6.7037165339e+00    0.2324076    0.1202662 -35.67  0.001123943    2.017    0.504
        96 -10.6446    215.9869    156.4600   8.6908481944e+01   8.8070539829e+00    0.2046405    0.1718709 -18.94 0.0009596857    1.205    0.170
        97 -10.5677    239.9211    164.1155   8.4434221869e+01   3.3837116988e+00    0.1788657    0.1709383  -6.89 0.0009848172    1.297    0.229
        98  -9.9265    222.2718    156.6452   8.5864025685e+01   7.5860478623e+00    0.1202617    0.1043898 -64.58 0.0003761961    1.639    0.390
        99 -10.4577    250.7086    153.2261   8.0544671392e+01   2.8059083171e+00    0.2769089    0.1064627 -26.57  0.001185102    2.598    0.615
       100 -10.9437    241.9059    153.4460   8.1971655152e+01   4.3602504715e+00    0.2880913    0.1962966 -34.00  0.001215606    1.549    0.354
       101 -11.2312    244.0431    149.0595   8.0724487489e+01   4.5262043411e+00    0.3485843    0.1910979 -34.40  0.001718004    1.848    0.459
       102 -10.7870    233.2263    153.7811   8.3445827145e+01   5.9146803641e+00    0.2279487    0.1940641 -46.01  0.001049657    1.497    0.332
       103 -10.2578    205.5320    153.9815   8.8254961734e+01   1.1189610537e+01    0.1946698     0.130353 -31.97  0.001022841    1.566    0.362
       104 -10.6034    157.2260    153.2132   9.7414989095e+01   2.0847974265e+01    0.2092966    0.1081976 -56.71 0.0008794338    2.485    0.598
       105 -11.0161    229.4838    148.0409   8.2872042128e+01   7.3879163359e+00    0.2918029    0.1588653 -14.89  0.001170009    2.267    0.559
       106 -10.0554    221.4797    152.4684   8.5145550753e+01   8.3127225172e+00    0.1318122    0.1181925  15.82 0.0002121442    1.040    0.038
       107 -11.8945    235.2591    147.1922   8.1742140005e+01   6.4040489369e+00    0.4133705    0.3001699 -40.26  0.001554238    1.571    0.364
       108 -10.7592    223.5280    146.6468   8.3579522371e+01   8.7293045244e+00    0.2520939    0.2227692 -39.77  0.001420825    1.318    0.241
       109 -10.6130    207.7695    145.0151   8.5986405543e+01   1.2086392985e+01    0.1803011    0.1114619 -33.06 0.0008851948    1.666    0.400
       110 -10.4956    247.4762    144.0003   7.9121764517e+01   4.5380155315e+00    0.1950437    0.1173808 -27.10 0.0009000708    1.580    0.367
       111 -10.3434    214.3734    143.1066   8.4405593109e+01   1.1045436331e+01    0.1930943     0.120735 -43.32 0.0009437082    1.804    0.446
       112 -11.2436    242.1507    133.6281   7.7707761264e+01   6.8930182519e+00    0.3439597    0.1856764 -28.85  0.001098044    1.760    0.432
       113 -12.9846    240.5452    124.4899   7.5906519560e+01   8.4418029071e+00    0.7236496    0.2997011 -33.45  0.003044528    2.262    0.558
       114 -12.0740    242.2780    118.1378   7.4174166072e+01   8.9629036954e+00    0.5360051    0.1347945 -37.33  0.001743534    3.727    0.732
       115 -10.4607    181.8385    142.0218   9.0213103838e+01   1.7857582731e+01    0.2261215    0.1617763 -67.34  0.001077594    2.013    0.503
       116 -10.1913    250.5077    140.0305   7.7806767971e+01   4.4824621592e+00    0.1980902    0.1167343 -27.87   0.00103075    1.597    0.374
       117 -10.4333    238.5120    140.1011   7.9701293562e+01   6.7293466734e+00    0.1968535    0.1221846 -27.73 0.0009514762    1.553    0.356
       118 -11.8701    234.8116    135.6413   7.9323809126e+01   8.0491973696e+00    0.4425132    0.2565323 -41.83  0.001519102    1.930    0.482
       119 -10.4904    218.5770    138.2312   8.2613664601e+01   1.0915297270e+01    0.2505507    0.1264317 -35.88  0.001123083    1.997    0.499
       120 -11.4969    243.6581    140.0757   7.8878753794e+01   5.7548284356e+00    0.3840681    0.2086363 -31.45  0.001321825    1.774    0.436
       121 -10.4075    172.5013    138.0038   9.1211796281e+01   2.0482459498e+01    0.1969032    0.1220366 -64.86 0.0008103577    2.528    0.604
       122 -10.5829    248.6744    135.5008   7.7106605690e+01   5.4034048930e+00    0.2391667    0.1407553 -33.59 0.0009631532    1.662    0.398
       123 -11.6494    248.3918    129.8158   7.5896317090e+01   6.1960316091e+00    0.3536729    0.3027328 -40.96  0.001659266    1.367    0.268
       124 -11.2557    249.2866    123.7831   7.4405836093e+01   6.8159088157e+00    0.2931866    0.2028984 -25.88 0.0007553906    1.331    0.249
       125 -11.4088    247.8843    118.6289   7.3438015642e+01   7.7753103898e+00    0.3650668    0.1808074 -32.16  0.001319084    1.861    0.463
       126 -10.2706    187.7800    135.9907   8.7751921464e+01   1.7634421526e+01    0.1865564     0.115377 -36.64 0.0008737759    1.680    0.405
       127 -10.3740    225.4175    133.7069   8.0445302018e+01   1.0189253501e+01    0.2502056    0.1238362 -35.42 0.0009481697    2.002    0.500
       128 -10.4308    179.5018    132.5045   8.8600391122e+01   1.9975481283e+01    0.1414271    0.1357625  36.39 1.970919e-06    1.024    0.024
       129  -9.9047    198.2564    131.6502   8.4793279629e+01   1.6136641092e+01    0.1360803    0.1109897 -66.35  0.000437173    1.600    0.375
       130 -10.8580    143.0000    131.0074   9.5973808779e+01   2.7843364871e+01    0.2344377   0.08109779 -46.48 0.0008085072    2.985    0.665
       131 -10.3548    224.4396    140.0131   8.2000733069e+01   9.4855721983e+00    0.2055393    0.1270131 -29.77  0.001030409    1.606    0.377
       132 -10.8101    220.6298    128.8116   8.0151191034e+01   1.1879802632e+01    0.1970527    0.1225159 -39.63 0.0009483847    1.676    0.403
       133  -9.9507    186.3036    128.6912   8.6397458241e+01   1.9178588423e+01    0.1395708    0.1149964 -81.64  0.000397381    1.606    0.377
       134 -10.7108    227.8457    125.2705   7.8126807972e+01   1.0906385466e+01    0.2450468    0.1769722 -35.79  0.001001664    1.399    0.285
       135 -10.6628    199.9536    126.0051   8.3182405366e+01   1.6686152764e+01    0.2191932    0.1775273 -71.19 0.0007556157    1.663    0.399
       136 -10.6648    179.5596    124.3027   8.6714078855e+01   2.1395269265e+01    0.2777629    0.1384116 -42.78  0.001138512    2.075    0.518
       137 -10.9147    235.1484    123.2002   7.6463269312e+01   9.7064883969e+00    0.1844622    0.1586722 -46.18 0.0006841297    1.356    0.263
       138 -10.6569    212.8127    121.6285   7.9836832599e+01   1.4611562867e+01    0.2760697    0.1087108 -30.71  0.001016755    2.629    0.620
       139 -10.3013    140.3247    118.6561   9.3833441735e+01   3.0844615923e+01    0.1518656    0.1140113 -88.94 0.0007050616    1.737    0.424
       140 -10.8392    230.5387    115.9933   7.5516700612e+01   1.1682925984e+01    0.2153769    0.1295806 -29.84  0.000755808    1.579    0.367
       141  -9.6518    191.6459    114.3156   8.1948916708e+01   2.0445560767e+01    0.1490064    0.1174914 -78.61 0.0007045856    1.740    0.425
       142 -10.7173    247.5227    112.5359   7.2074208689e+01   8.6657451032e+00    0.2730507    0.1229673 -29.10  0.000803459    2.037    0.509
       143 -11.0180    230.0356    140.8238   8.1239767159e+01   8.2705780405e+00    0.3575908    0.1737716 -35.50  0.001630481    2.060    0.515
       144 -11.5426    243.5360    109.4722   7.1943381195e+01   9.8951549860e+00    0.2092203    0.1173826 -38.89 0.0007548726    1.769    0.435
       145 -10.1947    160.5995    108.2125   8.6751619751e+01   2.8525018315e+01    0.2128937    0.1433921 -30.00 0.0008325437    1.642    0.391
       146 -12.1378    247.8867    106.3972   7.0568046085e+01   9.4212119206e+00    0.3143613    0.1666871 -40.32  0.001074834    1.908    0.476
       147 -10.2705    222.4796    104.9380   7.4140303192e+01   1.5044813808e+01    0.2242725    0.1350288 -30.12   0.00103057    1.585    0.369
       148  -9.9285    205.6804    105.3208   7.7108197351e+01   1.8754196621e+01    0.1472438    0.1156038 -68.17 0.0007043651    1.668    0.400
       149 -11.1815    229.1117    102.9922   7.2588265185e+01   1.3875405772e+01    0.2279332    0.2070186 -13.41  0.001309982    1.022    0.021
       150 -10.4778    167.0000    100.4487   8.3364452998e+01   2.8523143424e+01    0.3293498   0.08548407 -38.43 0.0009238387    3.847    0.740
       151 -10.3719    160.0000    100.0081   8.4753528758e+01   3.0211199401e+01    0.2525454   0.08546255 -39.51 0.0008033974    2.949    0.661
       152 -14.2100    240.2684     75.8259   6.4031693992e+01   1.5248525776e+01     1.228727    0.5762589 -19.42  0.004811885    2.384    0.581
       153 -10.4574    224.4657    248.4910   1.0058212820e+02  -3.1617935942e+00    0.1381966   0.09709574 -42.35 0.0008998438    2.201    0.546
       154 -10.3104    242.2040    248.1755   9.7903363878e+01  -5.6011320356e+00     0.129408    0.1025526  33.53 0.0009892508    1.332    0.250
       155 -14.3882    246.6463     84.2203   6.5306372510e+01   1.2694677195e+01     1.509863    0.5375936 -33.44  0.005769611    2.418    0.586
       156 -13.1149    235.8853     88.8210   6.7989781753e+01   1.4419829498e+01    0.6038028    0.2459079 -40.07   0.00233135    2.377    0.579
       157 -12.1408    235.0336     95.0338   6.9687455327e+01   1.3726117721e+01    0.4030673    0.2484477 -47.19  0.001506354    1.807    0.446
       158 -12.3181    231.2503     90.5419   6.9118860063e+01   1.5208330892e+01    0.4309615    0.2619118 -25.23  0.001221784    1.575    0.365
       159 -10.0797    202.6287     97.8223   7.5720877980e+01   2.0662195812e+01     0.217456    0.1304631 -41.69  0.000946642    1.678    0.404
       160 -10.2514    242.1241     92.9099   6.8113754470e+01   1.2481742949e+01    0.2171101    0.1797601 -41.88 0.0008700609    1.241    0.194
       161 -10.9089    188.8490     92.6081   7.6865749434e+01   2.4772357527e+01    0.3079954    0.2128337 -41.10  0.001232687    1.439    0.305
       162 -11.5036    225.8591     87.3029   6.9104551866e+01   1.6900228348e+01     0.264321     0.181276 -37.99  0.000847047    1.399    0.285
       163 -10.2169    151.0000     87.9920   8.3459095183e+01   3.4558512524e+01    0.2557396   0.08583418 -39.25 0.0008019536    2.939    0.660
       164 -11.3235    175.8190     87.8493   7.8097268232e+01   2.8713851363e+01    0.3250708    0.2099274 -40.11 0.0008716923    1.525    0.344
       165 -10.5350    232.7438    247.3480   9.9191911637e+01  -4.2245137906e+00     0.148625    0.1240265 -30.52  0.001016112    1.727    0.421
       166 -11.4207    225.2900     81.9593   6.7788337380e+01   1.7811610235e+01    0.2688195     0.196953 -22.30 0.0008979261    1.318    0.241
       167 -10.7761    158.8522     81.5795   7.9852870941e+01   3.3910480509e+01     0.273319    0.1768283 -41.20  0.001199615    1.518    0.341
       168 -10.2787    200.7827     77.7457   7.0591810516e+01   2.4309529285e+01    0.2496134    0.1011762 -40.76 0.0008763695    2.408    0.585
       169 -10.4806    130.2326     78.0084   8.5509190698e+01   4.1188855951e+01    0.2068908    0.1228159 -41.09 0.0007727586    1.633    0.387
       170  -9.7533    174.3274     77.6731   7.5471298048e+01   3.0843730288e+01    0.1606012    0.1198666 -69.40 0.0007050303    1.701    0.412
       171 -10.2210    211.3470     76.2142   6.8410387305e+01   2.1971540562e+01    0.2199017     0.127001 -38.24 0.0009426748    1.649    0.394
       172 -13.6178    230.5106     68.3452   6.3398070040e+01   1.8528349454e+01    0.8782557    0.2515416 -26.09  0.002657395    3.653    0.726
       173 -10.8566    163.4535     71.4829   7.5835800217e+01   3.4593492976e+01    0.3339673    0.1494934 -34.73  0.001213169    2.191    0.544
       174 -10.8386    157.4925     75.4739   7.8328372717e+01   3.5343725111e+01     0.321724    0.1501199 -36.01  0.001194533    2.108    0.526
       175  -9.8792    187.4693     68.4865   7.0255676631e+01   2.9084292107e+01    0.1521544    0.1480442 -20.62 7.266195e-05    1.007    0.007
       176 -10.3808    218.6546    248.3369   1.0143962222e+02  -2.3224141208e+00    0.1431874      0.11171  54.75  0.001033089    1.710    0.415
       177 -10.2095    203.0000     65.9865   6.6867095352e+01   2.5566390414e+01    0.2530826   0.08352911 -29.95 0.0007986831    2.916    0.657
       178  -9.9644    221.9897     70.9883   6.5333734238e+01   2.0177645053e+01    0.1872162    0.1568698 -27.62 0.0006675003    1.122    0.109
       179 -12.1316    211.7917     94.0264   7.3134633720e+01   1.9132645042e+01    0.8149245    0.2245483 -45.23  0.002107887    5.150    0.806
       180 -12.3410    192.3675     55.3811   6.5461836291e+01   2.9844204009e+01    0.6123241    0.1930687 -37.92  0.001968879    2.883    0.653
       181 -10.7794    157.6829     61.4929   7.3907795132e+01   3.7734748158e+01    0.2828307    0.1398543 -33.31  0.001076435    1.988    0.497
       182 -10.4278    153.3472     59.2059   7.4091360606e+01   3.9198245649e+01    0.2286661     0.134257 -42.03 0.0007400566    1.687    0.407
       183 -10.5668    168.7961     44.0208   6.5941544721e+01   3.7637871804e+01    0.2147995     0.119903 -29.27 0.0008707188    1.765    0.433
       184 -12.9787    224.3028     53.3371   6.0129951650e+01   2.2072901328e+01    0.4771812    0.2372527 -44.59  0.001954739    2.002    0.501
       185 -10.0076    173.3059     39.3646   6.3582905593e+01   3.7115878292e+01    0.1626381    0.1144144  22.98 0.0007037488    1.742    0.426
       186 -13.6156    226.4994     51.0000   5.9191809030e+01   2.1846602151e+01    0.7931268    0.2104607 -36.88  0.002561065    3.109    0.678
       187 -12.7399    223.5728     35.3672   5.5159899173e+01   2.4564662767e+01    0.3896886    0.2407492 -33.38  0.001836693    1.484    0.326
       188 -10.6796    168.4797     36.5159   6.3465227128e+01   3.8778882502e+01    0.1494025    0.1481503 -37.94 0.0001659258    1.007    0.007
       189 -10.1513    140.5021     16.5011   6.1301857386e+01   4.8617513642e+01    0.1469879    0.1380412  27.46 0.0004827259    1.035    0.034
       190 -10.3894    210.2556    247.8546   1.0265808449e+02  -1.0702822435e+00    0.1527548    0.1079664  69.54 0.0009515565    2.826    0.646
       191 -10.1177    162.0000     14.0031   5.6637770430e+01   4.3258780820e+01    0.2381702   0.08356581 -22.37 0.0007970736    2.905    0.656
       192 -11.5477    176.1433    247.0051   1.0787240131e+02   4.0302763478e+00     0.233969    0.2002157 -59.11  0.001756183    1.670    0.401
       193 -10.4731    250.7118    245.1340   9.6243013838e+01  -6.5087647079e+00    0.1579317   0.08254571 -32.19   0.00106151    2.455    0.593
       194 -10.4771    225.0159    243.5022   9.9841099351e+01  -2.7891512974e+00    0.1628284   0.07905237  40.83 0.0006550458    1.570    0.363
