#   1 NUMBER                 Running object number                                     
#   2 MAG_AUTO               Kron-like elliptical aperture magnitude                    [mag]
#   3 X_IMAGE                Object position along x                                    [pixel]
#   4 Y_IMAGE                Object position along y                                    [pixel]
#   5 X_WORLD                Barycenter position along world x axis                     [deg]
#   6 Y_WORLD                Barycenter position along world y axis                     [deg]
#   7 A_WORLD                Profile RMS along major axis (world units)                 [deg]
#   8 B_WORLD                Profile RMS along minor axis (world units)                 [deg]
#   9 THETA_WORLD            Position angle (CCW/world-x)                               [deg]
#  10 FWHM_WORLD             FWHM assuming a gaussian core                              [deg]
#  11 ELONGATION             A_IMAGE/B_IMAGE                                           
#  12 ELLIPTICITY            1 - B_IMAGE/A_IMAGE                                       
         1 -14.1378      6.1557     16.6463   1.2165932629e+02   7.1823639371e+01      3.23217    0.5878533 -48.78   0.01345247    3.315    0.698
         2 -14.1849    197.7895     17.5796   6.6617930931e+01   3.3745048046e+01     1.505342     1.210097  78.68  0.006448257    1.168    0.144
         3 -14.0319    202.6632      9.8462   6.3919032884e+01   3.3332223117e+01     1.710286     0.792736  54.23  0.001519788    2.185    0.542
         4 -13.9499    190.2106     22.3667   6.8928793582e+01   3.5157686392e+01      2.02554     1.247106 -10.17  0.007986055    2.123    0.529
         5 -12.6225    248.6420    241.3858   1.0986998399e+02  -9.3894840895e+00    0.5365769    0.4293534  54.39  0.003775179    2.000    0.500
         6 -10.3465    205.1198    249.8547   1.1827501189e+02  -3.9092426058e+00    0.1658265    0.1316767  40.97 0.0007209906    1.224    0.183
         7  -9.2346    150.9213    239.4710   1.2633478236e+02   6.0511209667e+00    0.1725387    0.1290346  47.79  0.000637787    1.071    0.066
         8 -11.3720    142.9610    248.5128   1.2880968111e+02   5.9989259994e+00    0.4312729     0.279978 -78.86  0.002084017    2.328    0.570
         9 -11.5553    146.1114    240.6630   1.2733917862e+02   6.6487848540e+00    0.2825512    0.1846276  49.85 0.0004299058    1.245    0.197
        10 -11.5826    150.3846    248.0332   1.2745850937e+02   4.9001984743e+00    0.5157331    0.2401058  49.27  0.002682257    1.784    0.439
        11 -10.2744    152.6541    243.8179   1.2655788051e+02   5.1403364121e+00    0.2145584    0.1748589 -66.85  0.001468454    1.565    0.361
        12 -11.0444    134.1038    249.4884   1.3046023092e+02   7.2361692044e+00    0.4829975    0.1803515  50.86  0.002318373    2.324    0.570
        13 -10.2280    122.5776    250.0148   1.3251440136e+02   8.9251977009e+00    0.2651191    0.1510774  48.89  0.001642023    1.343    0.255
        14  -9.7505    126.6865    249.3307   1.3173211049e+02   8.4014659673e+00    0.2740922    0.1605881  68.86  0.001377596    2.053    0.513
        15 -11.3558    121.2314    244.7988   1.3221368667e+02   9.9283992101e+00     0.353047    0.1683287  58.87  0.001831405    2.157    0.536
        16 -12.5708    126.2088    240.8485   1.3091185125e+02   9.7740161111e+00    0.3970716    0.3743979  71.38  0.001885202    1.250    0.200
        17 -11.5385    109.9792    247.8029   1.3447661293e+02   1.1159366431e+01    0.3541904    0.2165641  52.48  0.001313676    1.256    0.204
        18 -11.0130    101.3788    242.3590   1.3545762836e+02   1.3302293127e+01    0.3295003    0.1423634 -72.96  0.001619209    3.205    0.688
        19 -11.6405     96.5969    239.2868   1.3601092246e+02   1.4509756985e+01    0.4871007    0.2928583  64.18  0.001868062    1.486    0.327
        20  -9.8631    100.9874    250.2487   1.3624854901e+02   1.2095201324e+01    0.1640249    0.1292125  52.07 0.0005975422    1.155    0.134
        21 -11.3664     98.0343    246.6602   1.3643375857e+02   1.3093168115e+01    0.4046716    0.1762821  52.26  0.002226048    1.816    0.449
        22 -11.3324     87.9096    248.9327   1.3835937807e+02   1.4166837316e+01    0.4442663    0.3079508  57.44  0.002234756    1.069    0.065
        23 -11.1829     81.3240    246.7263   1.3929606157e+02   1.5439150933e+01    0.5721034    0.2340169 -75.26   0.00297187    3.028    0.670
        24 -10.7391     83.8959    242.2899   1.3849319675e+02   1.5819414663e+01     0.290005    0.2485466   8.57  0.002035064    2.071    0.517
        25 -10.8206     90.2723    236.2762   1.3685242944e+02   1.5933573155e+01    0.4014291    0.1766986  54.04  0.002150306    1.879    0.468
        26  -9.3602     83.5138    238.4205   1.3823191639e+02   1.6526250143e+01    0.1809676    0.1293042  57.73 6.005356e-05    1.074    0.069
        27  -9.8671     86.3148    237.2926   1.3764256597e+02   1.6324402012e+01     0.198014    0.1720494  57.92 0.0002842411    1.267    0.211
        28  -9.3738     74.8327    250.5929   1.4068303081e+02   1.5685935694e+01     0.207854   0.08800495  40.34  0.001147401    2.114    0.527
        29 -13.5186     45.6201    246.2970   1.4518444754e+02   2.0101888807e+01    0.7115821    0.6216115  41.15  0.001190517    1.668    0.401
        30 -13.0261     42.2866    237.0392   1.4517278557e+02   2.2091659996e+01    0.6166381    0.2808927  47.27 0.0008914535    1.728    0.421
        31 -13.3271     47.1060    228.5047   1.4380719702e+02   2.3040164720e+01    0.7436913    0.4005313  36.07  0.001897761    2.094    0.523
        32 -15.0089     56.1241    217.3235   1.4138315487e+02   2.3999186144e+01     2.691705     1.820442  85.49   0.01825685    1.272    0.214
        33 -12.0846    135.3461    236.6939   1.2880172977e+02   8.9791147782e+00    0.3206889    0.2891974  81.65  0.001295583    1.229    0.186
        34 -10.0355    108.1221    242.3620   1.3427363432e+02   1.2301127732e+01     0.225184    0.1461495 -75.07  0.001448495    1.797    0.443
        35 -10.4866    104.8192    237.9479   1.3442432074e+02   1.3517260585e+01    0.2790253    0.1269996  47.14 0.0008934943    1.721    0.419
        36 -10.4060    165.9902    241.6465   1.2392884982e+02   3.3044317041e+00    0.3079768    0.1493645  32.33  0.001280891    2.127    0.530
        37  -9.1086    158.1393    241.8697   1.2534726993e+02   4.5389481753e+00    0.1536126    0.1246135  25.04 0.0004177399    1.323    0.244
        38 -10.9501    173.3778    240.1215   1.2242303177e+02   2.3204238086e+00    0.2457681    0.2060645 -76.87 0.0008952353    1.657    0.397
        39 -10.6486    116.0097    240.3881   1.3267879993e+02   1.1424286823e+01    0.1677781    0.1591797 -82.36 0.0008107214    1.340    0.254
        40 -10.6528     72.3425    237.5592   1.4010542103e+02   1.8206888500e+01    0.4039155    0.1974036  73.01  0.002205213    2.221    0.550
        41 -10.9201    132.6605    224.3466   1.2780399070e+02   1.1408055413e+01    0.2267627    0.1918851  41.03 0.0006604792    1.184    0.155
        42 -12.3856    109.9392    230.2333   1.3270539103e+02   1.4035546045e+01    0.7171485     0.324754  44.96  0.002530645    1.788    0.441
        43 -10.4064     88.9154    219.7360   1.3551741744e+02   1.9062466918e+01    0.4190099    0.1881216 -51.08  0.001844674    3.032    0.670
        44 -11.3881     98.3305    230.9630   1.3490038616e+02   1.5668439428e+01     0.406852    0.2841874 -85.55  0.001617902    1.516    0.340
        45 -10.5639    110.4687    222.3848   1.3174497130e+02   1.5313079864e+01    0.2351499    0.2207475  40.80 0.0008522077    1.333    0.250
        46 -10.1125     93.7044    217.1924   1.3435039897e+02   1.8822431933e+01    0.2980801    0.1779006  85.06  0.001638429    1.936    0.483
        47 -10.5146     92.7020    226.1686   1.3545488672e+02   1.7342552572e+01    0.3221598    0.1628387  54.39 0.0009514547    1.651    0.394
        48 -11.7656     99.5543    223.2462   1.3388620622e+02   1.6841468246e+01    0.5745893      0.25256  39.54 0.0001966236    2.120    0.528
        49 -10.9144    104.9953    218.8931   1.3238833119e+02   1.6789924587e+01    0.2217341    0.1792474  70.54 0.0002904014    1.087    0.080
        50 -11.3269    121.4956    232.8431   1.3087638926e+02   1.1797295499e+01    0.2645314    0.2240229  45.72  0.000606144    1.187    0.158
        51 -11.1225    135.6799    231.3148   1.2810013155e+02   9.7759768260e+00    0.2352994    0.1600727  78.25 0.0008693002    1.862    0.463
        52 -10.8940    156.7809    231.5558   1.2426587892e+02   6.2728974682e+00    0.2248694    0.1992891  60.11 0.0003148594    1.163    0.140
        53 -10.9430    115.2931    250.1948   1.3378989469e+02   9.9961890008e+00    0.4595174    0.1477925  41.66  0.002138071    2.501    0.600
        54 -11.4276    142.1217    229.7735   1.2672459275e+02   8.9696383373e+00    0.3803443     0.238221 -46.34  0.001819761    2.008    0.502
        55  -9.3549     92.4844    231.6931   1.3603021638e+02   1.6402725213e+01    0.2175946    0.1091193 -65.33  0.001222267    2.215    0.549
        56 -10.7114     84.4614    230.2836   1.3734572169e+02   1.7804041032e+01    0.2631555    0.2276283  80.75 0.0008708705    1.218    0.179
        57  -9.9069    181.0575    229.8633   1.1962976069e+02   2.4807185011e+00     0.186546     0.172013 -88.68  0.001316383    1.410    0.291
        58 -11.4520    165.4155    227.3007   1.2210830537e+02   5.4708184674e+00    0.3465733    0.2359357 -70.52  0.001779882    2.237    0.553
        59  -9.7380    164.3243    220.6621   1.2136871624e+02   6.6684760808e+00    0.2543522     0.188403 -18.01 0.0009369481    1.898    0.473
        60  -9.6690    150.7300    229.7267   1.2513392347e+02   7.5554862287e+00    0.2571442    0.1154879  55.46  0.001157882    2.500    0.600
        61 -10.2316    190.8292    228.1827   1.1763146145e+02   1.0901195141e+00    0.1947734    0.1597854  38.43 0.0002755636    1.076    0.071
        62 -10.7207    246.7413    228.4187   1.0810651848e+02  -7.7458621928e+00    0.2175737    0.0954359  42.47  0.001146794    2.133    0.531
        63  -9.0639    184.6315    228.6919   1.1881694843e+02   2.0497241685e+00    0.1258783   0.08431158  17.89 0.0007035776    1.758    0.431
        64  -9.2282    175.1890    228.0238   1.2042608940e+02   3.7226273972e+00    0.1896236    0.1409887  80.93  0.001092946    2.081    0.519
        65 -10.6708    117.3436    224.3921   1.3068272039e+02   1.3877717074e+01    0.2188574    0.1869313  58.32 0.0004960958    1.082    0.076
        66  -8.9112    220.1710    223.5747   1.1176051398e+02  -3.1021246586e+00    0.1569613   0.09474094  30.42 0.0009089353    1.424    0.298
        67  -9.6530    155.8517    223.3419   1.2332863112e+02   7.6937835152e+00    0.1952576     0.129676  54.13  0.000628081    1.402    0.287
        68 -10.4837    150.0396    222.3768   1.2428416768e+02   8.8311886598e+00    0.2147285    0.1797041 -52.39 0.0002876841    1.434    0.303
        69  -9.4998    149.5562    218.5460   1.2384975805e+02   9.5353250555e+00    0.1878731     0.135829  37.95 0.0001195659    1.260    0.206
        70 -10.2945    141.7629    212.9147   1.2456104570e+02   1.1815500352e+01    0.3855736     0.234371  43.42  0.001343426    1.410    0.291
        71 -12.2249    142.1413    220.6780   1.2554452012e+02   1.0441235506e+01    0.3890342    0.3110504 -59.45  0.002519116    1.474    0.322
        72 -10.1845    137.5632    214.7407   1.2562312733e+02   1.2218123003e+01    0.2649733    0.1912366  80.56  0.001042975    1.688    0.408
        73 -10.3001    246.0038    218.9709   1.0665164126e+02  -6.5727035798e+00    0.1973318    0.1195955  11.39  0.001143618    1.715    0.417
        74 -10.2031    176.6962    218.3710   1.1872660216e+02   4.8903292031e+00    0.3389336    0.2119863 -66.06  0.001697266    2.706    0.630
        75  -9.9850    134.2174    218.0443   1.2670474892e+02   1.2214721360e+01    0.2566012    0.1660206  70.22  0.001389514    1.843    0.457
        76 -10.9835     87.9639    213.1779   1.3502562400e+02   2.0425295466e+01    0.3420128    0.2435822  40.05 0.0004454876    1.467    0.318
        77  -9.8890    183.1189    214.1368   1.1687969117e+02   4.4138004078e+00    0.1672697    0.1388126  57.79            0    1.319    0.242
        78 -10.6568    102.1761    212.2413   1.3217569728e+02   1.8449624668e+01    0.3720663    0.2200025  54.73  0.001561888    1.449    0.310
        79 -12.6187    131.8569    211.6371   1.2631137582e+02   1.3727138319e+01    0.3290962    0.2872648   7.22 0.0005346903    1.551    0.355
        80  -9.4844    152.1523    211.9037   1.2240908383e+02   1.0188963983e+01    0.1932798    0.1560056  63.62 0.0005552854    1.252    0.202
        81  -9.1153    197.7317    208.0260   1.1318498484e+02   2.7673049767e+00    0.1651473    0.1476876  20.66 0.0002919015    1.063    0.059
        82 -10.6583    174.6650    206.2722   1.1721788286e+02   7.1281580152e+00    0.3353135    0.2387454 -11.81  0.001283674    1.998    0.500
        83 -11.7903     93.1307    205.1148   1.3313488698e+02   2.1198873713e+01    0.6263779    0.2881583  48.70  0.001594789    1.860    0.462
        84 -11.6234    247.2183    205.6728   1.0413327171e+02  -5.1783558473e+00    0.4859992    0.2671455  29.37  0.002704375    1.672    0.402
        85 -10.1199    169.8396    200.3628   1.1718674952e+02   8.9671149869e+00    0.2242657     0.196678  29.91 0.0003227161    1.105    0.095
        86  -8.6561    183.3199    206.3186   1.1558290091e+02   5.5738160633e+00    0.1302635   0.09442836  13.08 0.0002548244    1.663    0.399
        87  -9.9837    149.3989    204.6241   1.2186786012e+02   1.1919193840e+01    0.3065115    0.2160544 -20.35  0.001133343    2.254    0.556
        88 -10.1634    125.9805    205.6198   1.2665498495e+02   1.5808350316e+01    0.2249373    0.1699899  88.10 0.0006085742    1.481    0.325
        89  -8.9193    113.3578    203.7048   1.2892335211e+02   1.8271658937e+01    0.1830993    0.1068024  88.53 0.0008397548    2.512    0.602
        90 -10.6036    103.4658    203.1725   1.3084104435e+02   1.9970160799e+01     0.285343    0.2159797  50.53 0.0009854882    1.178    0.151
        91  -9.4870    224.8934    202.5228   1.0735829918e+02  -1.1392663669e+00    0.1743328       0.1501   9.16 0.0003963119    1.055    0.052
        92  -9.8311    133.1391    202.8851   1.2484401283e+02   1.5084379283e+01     0.192145    0.1674605  62.58 0.0003137293    1.042    0.041
        93 -11.0195    134.1101    197.8134   1.2390967366e+02   1.5852953537e+01    0.2940158    0.2279411 -84.85 0.0002756288    1.478    0.323
        94  -9.6620    192.0499    197.9897   1.1252323178e+02   5.3005699482e+00    0.1901224    0.1701727  29.80  0.001200667    1.027    0.027
        95 -10.7999    196.9876    200.6008   1.1205369455e+02   4.0067430188e+00    0.4023654    0.2231597  54.47  0.001550973    2.130    0.530
        96  -9.3804    122.9531    200.9616   1.2662297912e+02   1.7189899696e+01    0.1580896    0.1349932  60.09 0.0004285987    1.005    0.005
        97  -9.9493     75.3355    203.6701   1.3649869683e+02   2.4085557678e+01    0.3271838    0.1995913  30.41  0.001504192    2.153    0.536
        98 -14.6072     27.2887    248.1264   1.4818777479e+02   2.1894273869e+01     1.223306    0.6800895  41.43  0.006758381    1.778    0.438
        99 -10.6450    166.8194    203.1472   1.1822653206e+02   9.0500068131e+00    0.2264767    0.1707546  33.43 0.0002526056    1.258    0.205
       100  -9.1531    115.0920    200.4813   1.2814939597e+02   1.8601082286e+01    0.1846229    0.1118419  47.00 -3.02319e-05    1.444    0.307
       101  -8.6977    158.5597    199.4992   1.1926160669e+02   1.1167268322e+01    0.1319974    0.1167506  45.94 4.475733e-05    1.011    0.010
       102 -10.4653    100.6241    197.9935   1.3077178162e+02   2.1433910886e+01    0.2592514    0.2396672 -17.71  0.001148003    1.569    0.363
       103  -9.8246    100.6534    193.5226   1.3019496434e+02   2.2321839643e+01     0.392702    0.2653972 -28.84  0.001872104    2.898    0.655
       104  -9.2331     86.1576    198.8981   1.3382185563e+02   2.3473651690e+01    0.2225144    0.1510921 -61.23 0.0004383361    1.592    0.372
       105 -10.4699     83.8757    193.9176   1.3371300972e+02   2.4819157006e+01    0.4613957    0.2661351  48.08  0.001699992    1.542    0.351
       106 -12.1242     71.3917    194.1066   1.3629070116e+02   2.6566285014e+01    0.5225688    0.2751938 -61.89  0.002809639    1.929    0.482
       107 -11.9837     75.9919    187.9459   1.3465774637e+02   2.7198602761e+01    0.2872657    0.2519788 -65.22 0.0008408325    1.347    0.258
       108  -9.3905    113.4923    195.9834   1.2786849315e+02   1.9739040023e+01    0.2863632    0.1395213  54.35  0.001318026    1.985    0.496
       109  -9.9163    113.0278    192.0381   1.2741908754e+02   2.0595187865e+01     0.201624    0.1901444 -69.29  0.001303165    1.234    0.190
       110  -9.2701    107.5025    196.0073   1.2910486961e+02   2.0721619024e+01    0.1804414    0.1236716 -66.47 0.0006584986    1.535    0.348
       111  -9.6173    177.5688    194.2351   1.1464628423e+02   8.5698901565e+00    0.3294405    0.2047899  20.48  0.001532477    2.191    0.544
       112 -10.4869    159.3668    194.1132   1.1822430110e+02   1.1964486777e+01    0.3792033    0.1935668  50.41   0.00094599    1.866    0.464
       113 -10.4541    120.6167    194.3100   1.2616480302e+02   1.8863043407e+01    0.4163253    0.2250402  52.27  0.001979236    1.700    0.412
       114 -15.7021      6.5295    244.9914   1.5122691938e+02   2.4585728575e+01     2.061252     1.006449 -74.18   0.01462477    2.022    0.505
       115 -10.2185    173.1239    192.4237   1.1520357453e+02   9.7031097242e+00    0.3306769    0.2200018 -20.54 0.0009601229    2.137    0.532
       116  -9.7771     47.2260    192.9730   1.4104600999e+02   2.9921428599e+01    0.1636564    0.1361406 -78.70 0.0005074493    1.287    0.223
       117 -10.4693    191.4823    191.4680   1.1147316101e+02   6.4393673101e+00    0.2579092    0.2275484  24.15 0.0005974351    1.049    0.047
       118 -13.3921     14.0638    239.1250   1.4983112251e+02   2.4830945074e+01    0.4042288    0.1887395  41.96  0.001021834    1.951    0.487
       119 -10.0428    135.5828    190.0393   1.2242194280e+02   1.7061848981e+01    0.2701821      0.21452 -18.40  0.001276122    1.843    0.457
       120 -11.5443    249.8497    188.0247   1.0043705650e+02  -3.3653466241e+00    0.3485852    0.2055801 -25.01  0.001931025    1.639    0.390
       121 -15.0691     12.2569    207.1852   1.4858200493e+02   3.0855159888e+01     2.402997      1.43553 -74.89   0.01681961    1.561    0.359
       122 -10.3441     44.3023    188.4786   1.4123572427e+02   3.1201109160e+01    0.3736286    0.2307128  19.12  0.001979859    2.906    0.656
       123  -9.9358    175.8649    186.9957   1.1370508693e+02   1.0120054878e+01    0.2008153    0.1854793  42.89 0.0004199675    1.042    0.040
       124  -9.3800     67.3894    187.0345   1.3635442895e+02   2.8586088672e+01    0.1856799    0.1607768  45.87  0.000548201    1.349    0.258
       125  -8.8589    161.3827    185.5360   1.1635719196e+02   1.3127732246e+01    0.1333858    0.1238862  34.86 -3.545119e-05    1.073    0.068
       126  -9.0394    154.5117    185.4650   1.1775211597e+02   1.4438470287e+01    0.1370517    0.1239623  47.81 4.553625e-05    1.019    0.018
       127  -9.2903    143.3059    184.7073   1.1994970879e+02   1.6674877967e+01    0.1868618    0.1606921  22.60 0.0005947453    1.345    0.257
       128 -10.1513    140.0731    183.3037   1.2039480403e+02   1.7543749341e+01    0.2421331    0.2023682  76.05 0.0003011025    1.245    0.197
       129 -10.1506     86.8797    183.6508   1.3182706572e+02   2.6502146865e+01    0.4042237    0.1741917  37.39  0.001785459    2.428    0.588
       130 -11.0448    136.1588    227.8524   1.2758729957e+02   1.0256727479e+01    0.2250798    0.1935591  78.80 0.0008968948    1.231    0.187
       131  -9.7705    217.1435    183.1168   1.0513469679e+02   3.0014925692e+00    0.1936702    0.1737634  15.00 0.0004220211    1.029    0.029
       132  -9.3802     38.0509    184.3291   1.4213899457e+02   3.2788096972e+01    0.1627175    0.1258442  65.57 0.0008262989    1.145    0.127
       133  -9.7825     65.9918    182.0280   1.3609634035e+02   2.9837353724e+01    0.1831597     0.152559  76.56 0.0003132878    1.049    0.047
       134  -9.6295    144.1168    180.6842   1.1909943806e+02   1.7300079735e+01    0.2304762    0.1615774  60.47 0.0009194731    1.468    0.319
       135 -10.0117    115.3573    179.3264   1.2505220808e+02   2.2778501456e+01    0.4604363    0.1902104 -60.72  0.001191583    2.695    0.629
       136 -11.1554    104.2743    180.8073   1.2768300647e+02   2.4345505613e+01     0.233772    0.1968537  68.85 0.0002826955    1.045    0.043
       137  -9.9225    175.3586    179.9767   1.1252340496e+02   1.1447013171e+01    0.2947522    0.1645562  43.85  0.001226634    1.647    0.393
       138 -10.3062    134.8339    179.1425   1.2081359371e+02   1.9329627600e+01     0.333876     0.162695 -42.70  0.001402676    2.520    0.603
       139  -9.6969     48.1600    179.8566   1.3964083483e+02   3.2570060191e+01    0.1809484    0.1292079  69.67 0.0004509265    1.183    0.154
       140  -7.9885     37.4654    180.4519   1.4192260094e+02   3.3674750567e+01    0.1617066   0.09108425  52.27 0.0001742475    1.596    0.374
       141 -10.5203     30.0280    177.3446   1.4319063181e+02   3.5137421463e+01    0.5058716    0.1118853  41.31   0.00185036    3.519    0.716
       142 -11.5643     11.2668    178.7800   1.4708292161e+02   3.6654820506e+01    0.3438251     0.143222  41.01  0.001960211    2.268    0.559
       143 -10.9023    181.8311    177.3236   1.1072914382e+02   1.0656196978e+01    0.3759182    0.2512843  41.91  0.001801086    1.386    0.278
       144 -11.1421     80.7085    163.4261   1.3045799925e+02   3.1832688543e+01     0.281004    0.2259747  75.23 0.0002342516    1.123    0.110
       145 -10.2705     91.1528    172.7801   1.2942071715e+02   2.8172315799e+01    0.2478146    0.2164134 -29.72 0.0008326932    1.610    0.379
       146 -12.6243     90.3709    167.0780   1.2876820814e+02   2.9543513691e+01    0.6605783    0.6004055  35.49  0.003082415    1.335    0.251
       147 -10.0437     85.1013    165.1683   1.2969605270e+02   3.0782251943e+01    0.2277246    0.1910134  89.17 0.0003528982    1.059    0.056
       148  -9.8815    109.2065    176.2986   1.2593234522e+02   2.4466424911e+01    0.2710578     0.193884  83.49  0.000719604    1.535    0.348
       149  -9.1161     95.4305    175.8714   1.2891080253e+02   2.6828369310e+01    0.1998003    0.1808128  35.86 0.0007274102    1.335    0.251
       150 -11.1708     68.9530    167.8370   1.3374832482e+02   3.2530052440e+01    0.3522599    0.1996501 -62.17 0.0007772591    1.678    0.404
       151 -10.2015     77.1361    175.6646   1.3292247699e+02   2.9655358775e+01    0.2101706    0.1652871 -76.46 0.0004377559    1.193    0.162
       152 -12.4409     71.2873    174.3593   1.3404713442e+02   3.0769671564e+01    0.3313718    0.3075434  25.47  0.000867472    1.465    0.317
       153 -12.1041    248.3608    171.9568   9.7530279979e+01  -9.4377446763e-01    0.5797992    0.3555162  24.69  0.003056781    1.721    0.419
       154 -11.5575    135.3708    241.1576   1.2931314138e+02   8.2859170124e+00    0.3289898    0.2536588  30.52  0.001677676    1.429    0.300
       155  -9.7455    154.5038    172.9643   1.1552501055e+02   1.6811234453e+01    0.2977838    0.2157738   6.78  0.001241134    2.148    0.534
       156 -11.5295     11.5429    172.4595   1.4660129027e+02   3.7958825282e+01    0.2530212    0.1935749  86.73  0.001862335    1.077    0.072
       157 -11.8025     25.4760    164.9786   1.4309633603e+02   3.8272366981e+01    0.8294355   0.08214851 -69.97   0.00249119    5.866    0.830
       158  -9.0464     31.5052    171.5631   1.4238513327e+02   3.6227397578e+01    0.1792815    0.1048868  42.42  3.57767e-05    1.737    0.424
       159 -11.2814     28.4761    169.9774   1.4288925827e+02   3.6883422853e+01    0.4691343     0.156483 -73.49   0.00215443    2.510    0.602
       160 -11.2475     23.6385    149.2381   1.4204729318e+02   4.1941756426e+01    0.2741513    0.1650624 -75.00  0.001084385    1.341    0.254
       161 -13.1100     23.3052    155.7029   1.4274012371e+02   4.0527200080e+01    0.5441774    0.5059419 -59.76  0.004072202    1.419    0.295
       162 -11.6974     29.0146    156.1548   1.4149367595e+02   3.9875776716e+01    0.3420756    0.2513452 -85.76  0.001683363    1.080    0.074
       163 -10.4132     33.0031    153.9965   1.4036235892e+02   3.9958553328e+01    0.2440252    0.1509021 -74.94 0.0003189374    1.339    0.253
       164 -11.7910      2.1864    169.0784   1.4826994030e+02   3.9464462881e+01    0.7306094    0.1146899 -80.12  0.002215967    6.411    0.844
       165 -11.9177     84.9677    175.9190   1.3122938998e+02   2.8443362213e+01    0.4207139     0.328459  69.98  0.001560254    1.141    0.124
       166 -10.5253    129.0252    179.3969   1.2210400262e+02   2.0340279070e+01    0.2307807    0.1932162 -75.75 0.0003492544    1.247    0.198
       167 -11.3585     44.8820    169.1615   1.3926858694e+02   3.5281401485e+01    0.4649188    0.2972225  29.35  0.002081051    2.011    0.503
       168  -9.1132    100.5434    170.5112   1.2697635046e+02   2.7154805607e+01    0.1377523    0.1188733  77.20 2.986672e-05    1.030    0.029
       169 -12.3029    248.2647    101.4951   8.1939221916e+01   9.6941892894e+00    0.9768443    0.4375006 -31.36   0.00405145    2.069    0.517
       170 -11.9578    249.0964    149.8684   9.2809607371e+01   2.1073600923e+00    0.7351304    0.4810301 -41.25  0.003896627    1.577    0.366
       171 -12.5486    244.9982    162.6750   9.6185149831e+01   9.7080138717e-01    0.6117927    0.4343703 -13.70  0.003422662    1.388    0.279
       172 -12.2539    246.2078    157.4739   9.4897402253e+01   1.5127265146e+00     1.442889    0.9853075 -77.67  0.005856836    3.933    0.746
       173 -10.6263    249.5181    117.9290   8.5608354717e+01   6.8876723392e+00    0.4601641    0.2869891 -14.36  0.001900884    1.897    0.473
       174 -11.9249    248.2086    112.8108   8.4614516031e+01   7.9466749983e+00     1.025022    0.6169024  -6.29  0.004326237    2.508    0.601
       175 -11.4899    248.3943    141.3604   9.1071499689e+01   3.5121861111e+00     1.166592    0.3221315  40.02  0.003620218    4.683    0.786
       176 -13.0587    248.3133    134.5314   8.9569627238e+01   4.5664305852e+00     1.499368    0.7369059 -34.27  0.006804676    1.847    0.459
       177  -9.4059     58.7244    167.7368   1.3604018334e+02   3.3910478001e+01    0.1741971     0.122071  75.52 0.0004025133    1.295    0.228
       178  -9.6875    174.9583    166.1700   1.0993906244e+02   1.4034794975e+01     0.417314    0.1793873  58.76  0.001313174    3.900    0.744
       179  -9.1918    136.5324    165.7913   1.1809873829e+02   2.1723060081e+01    0.1933447    0.1353569 -68.68 0.0006792851    1.637    0.389
       180  -9.1278    124.5328    165.2505   1.2068670657e+02   2.4090530993e+01    0.1844261    0.1341702 -45.20 0.0002575362    1.538    0.350
       181 -10.4706     47.0923    163.3227   1.3815188128e+02   3.6319614913e+01    0.2251017    0.1509867 -84.81 0.0001353242    1.277    0.217
       182 -10.1715     37.1049    162.8033   1.4033734529e+02   3.7557014742e+01    0.1884581    0.1324191  73.88  0.000581808    1.234    0.190
       183  -9.5626    123.1685    160.8452   1.2020762917e+02   2.5282752622e+01    0.2407224     0.227569   2.59  0.001037852    1.301    0.232
       184  -9.1475    119.9774    159.2373   1.2064983509e+02   2.6217729297e+01    0.1964854    0.1690403  59.28            0    1.097    0.089
       185 -10.2001     32.7844    160.9689   1.4111835047e+02   3.8420908612e+01     0.164243    0.1342467 -61.92 0.0005397745    1.391    0.281
       186 -11.1155     96.3040    159.0892   1.2614999838e+02   3.0367679957e+01    0.3369181    0.2736491 -61.14  0.001924154    1.245    0.196
       187 -11.2110     74.0514    159.5035   1.3145019250e+02   3.3685505890e+01     0.422466    0.1987459 -61.50 0.0009601597    1.971    0.493
       188  -9.7862     71.0067    157.0000   1.3181347646e+02   3.4683435393e+01    0.2530513    0.2252456  16.01  0.001334929    1.546    0.353
       189  -9.6671     79.0208    159.0036   1.3020902887e+02   3.3077894252e+01     0.203437    0.1721051  83.23  0.000357344    1.032    0.031
       190  -9.3225     52.1665    158.4862   1.3643099980e+02   3.6802962753e+01    0.1715389    0.1180876  44.11  0.001006236    1.514    0.339
       191  -9.4872     89.0088    156.9824   1.2753560798e+02   3.2012833430e+01    0.1939738    0.1660034 -29.36  0.001099915    1.596    0.374
       192  -9.7245    134.7730    155.7484   1.1659317608e+02   2.4166707308e+01     0.242975    0.1972347 -42.13 0.0006014167    1.355    0.262
       193  -9.8515    107.4072    168.2865   1.2507588490e+02   2.6483926356e+01    0.2398874     0.174333  46.52 0.0004194665    1.327    0.247
       194 -10.4971     13.7855    154.3486   1.4474803006e+02   4.1679339796e+01    0.2030564    0.1338202 -79.61 0.0006844017    1.199    0.166
       195 -10.8347    112.7445    152.4208   1.2109721228e+02   2.9029390104e+01    0.3438109    0.2726992  51.11 0.0006871479    1.228    0.185
       196  -9.6825    132.0965    152.3012   1.1653095349e+02   2.5424078528e+01    0.2020134    0.1772816  62.89 0.0003423566    1.095    0.087
       197 -10.8574    102.5630    151.2382   1.2332040376e+02   3.1083550557e+01    0.3383301    0.2898819  83.68  0.001445227    1.105    0.095
       198 -10.0665    105.1559    146.2780   1.2178445618e+02   3.1756199307e+01    0.2881567    0.2329675 -24.15  0.001490179    1.713    0.416
       199  -9.2811     62.0143    152.2382   1.3329517541e+02   3.6987851197e+01     0.178025    0.1518201  76.62            0    1.080    0.074
       200 -10.5328     95.9078    152.7962   1.2519560251e+02   3.1849373681e+01    0.2628998    0.2298119  17.63 0.0009470416    1.503    0.334
       201  -9.7501     91.1185    150.3494   1.2593927065e+02   3.3184516185e+01    0.2145274    0.1761219 -61.95  0.000427171    1.204    0.169
       202 -10.9542     56.3507    150.1266   1.3437443831e+02   3.8196144184e+01    0.3513607    0.2656891  89.46  0.001057974    1.162    0.139
       203 -10.1642     53.0104    146.4604   1.3469481849e+02   3.9451639992e+01    0.2139644    0.1850549 -86.11 0.0007145418    1.073    0.068
       204 -11.9596     66.1532    128.1544   1.2849124463e+02   4.2055055110e+01    0.6800559    0.4355562  75.10  0.003354017    1.876    0.467
       205 -12.3730     74.7297    139.5902   1.2820916104e+02   3.8173348217e+01    0.8436808    0.5306146  80.78  0.003712349    1.927    0.481
       206 -11.0207    134.0000    145.0265   1.1460878912e+02   2.6618137834e+01    0.7443473    0.2044588 -52.08  0.002191185    3.932    0.746
       207 -10.8907    133.0562    140.4618   1.1386618113e+02   2.7798084822e+01    0.4666806    0.3406656 -58.94  0.001461549    1.402    0.287
       208 -10.3748     34.9601    148.9637   1.3936115670e+02   4.0896946123e+01    0.2748873     0.149725  61.76  0.001066838    1.867    0.464
       209 -12.5185     32.6313    142.2896   1.3916354011e+02   4.2657033492e+01    0.7332579    0.2592385 -64.84  0.003013031    2.260    0.558
       210  -9.2052    141.4700    148.0137   1.1349891333e+02   2.4478045181e+01    0.3087055    0.1971141   9.06  0.001056106    3.701    0.730
       211 -10.4798     61.0518    137.3463   1.3135144669e+02   4.0568063459e+01    0.2807755    0.2010455  53.74 0.0008153919    1.428    0.300
       212 -12.6375      2.0962    109.4819   1.4334326421e+02   5.2594018705e+01     1.268697    0.1640577 -75.15  0.003254158    7.679    0.870
       213 -12.2199      4.1722    139.3384   1.4568220901e+02   4.5759866685e+01    0.6666734    0.2528025  50.45  0.003162348    2.649    0.622
       214 -11.3844      2.2763    144.7835   1.4655747304e+02   4.4694388490e+01    0.3712801     0.151365 -74.05  0.002005462    1.851    0.460
       215 -12.1707      2.3975    130.9927   1.4538643806e+02   4.7742838664e+01    0.5857846    0.1768518 -74.32  0.002692891    2.451    0.592
       216 -13.4233     67.2979    143.7283   1.3075531822e+02   3.8250484165e+01     1.104336     0.647409  85.38  0.005173097    2.078    0.519
       217 -10.1185     47.1834    143.2558   1.3570355345e+02   4.0878636830e+01    0.3137894    0.1181726  28.84  0.001251579    3.468    0.712
       218 -11.5836     26.9048    140.5847   1.4036787534e+02   4.3599390250e+01    0.3758191    0.1980285 -87.74  0.001992315    1.754    0.430
       219 -10.1819    164.0697    139.5161   1.0656422182e+02   2.1496986491e+01     0.260042    0.2160043 -46.87 0.0003316159    1.225    0.183
       220  -9.4588     53.6891    140.0376   1.3363216191e+02   4.0859953127e+01    0.2095331    0.1761169  77.83 0.0005304727    1.111    0.100
       221 -11.7107     47.9506    138.2931   1.3483957273e+02   4.1942748783e+01    0.4612238    0.2456695  21.15  0.002161765    2.877    0.652
       222 -10.3295    119.5665    138.0146   1.1660635640e+02   3.0982575698e+01    0.4278247    0.3278548   2.17  0.001984504    2.056    0.514
       223 -11.0730    112.8734    136.4232   1.1793165335e+02   3.2600583345e+01    0.4820618    0.3141994  46.96  0.001785937    1.540    0.351
       224  -8.9725    184.5168    136.4561   1.0152498592e+02   1.7625740173e+01    0.1467681    0.1454341  72.81 0.0002069535    1.045    0.043
       225  -9.8519    133.8995    135.4802   1.1257854109e+02   2.8714513775e+01    0.2212569    0.1458093  45.21 0.0006583435    1.515    0.340
       226 -12.4111     45.2301    130.9348   1.3449712035e+02   4.3967180871e+01    0.5678366    0.4187235  77.35  0.002149225    1.326    0.246
       227  -9.1968    106.6868    129.8352   1.1811420460e+02   3.5236591270e+01      0.32154    0.1494247  59.70  0.001079438    3.310    0.698
       228  -8.9279    141.5754    129.4785   1.0937923047e+02   2.8422577873e+01    0.1496243    0.1456464 -79.49 2.897261e-05    1.019    0.018
       229  -9.9445    118.1561    128.7860   1.1496185359e+02   3.3327702331e+01    0.2020119    0.1791133 -21.77  0.000681504    1.359    0.264
       230 -11.7643     32.5289    126.8472   1.3727020787e+02   4.6234230813e+01    0.3399731    0.2153939  69.45  0.001462258    1.665    0.399
       231 -10.4605    209.7536    125.8401   9.4098747823e+01   1.3993252036e+01    0.2995127    0.2486481 -25.34 0.0004819705    1.191    0.161
       232  -9.4519     85.9846    126.7164   1.2290334491e+02   3.9483116990e+01    0.2619726    0.2065133 -18.67  0.001340551    1.822    0.451
       233 -11.8345     38.1146    124.5403   1.3546146669e+02   4.6219168374e+01    0.4435578    0.2589723 -66.26  0.002421919    1.413    0.292
       234 -11.9449      9.4475    124.4911   1.4300121054e+02   4.8712191787e+01    0.2686127    0.1677971  42.03 0.0009746221    1.796    0.443
       235  -9.4962    159.7027    126.3487   1.0444085636e+02   2.5140500084e+01    0.1578488    0.1211183 -81.41 0.0003948032    1.681    0.405
       236  -9.8107     45.9641    150.4932   1.3691982643e+02   3.9352449187e+01    0.1736466    0.1204992  40.77  0.000861069    1.576    0.366
       237  -9.1058    114.7830    122.8743   1.1448410162e+02   3.5312478040e+01    0.2000549    0.1666361 -86.60 0.0002878527    1.290    0.225
       238  -9.4539     50.5054    122.9827   1.3185727219e+02   4.5236190018e+01    0.2030587     0.113116 -68.97 0.0008722925    1.564    0.361
       239 -11.0041     15.2991    123.1375   1.4133936452e+02   4.8582892299e+01    0.2025494    0.1165442 -60.10  0.001190314    1.513    0.339
       240  -9.6925    238.8251    121.9429   8.8193264517e+01   8.4291028718e+00    0.2246948    0.1804978  -1.97  0.001209829    1.345    0.257
       241  -9.2845    143.4976    121.0229   1.0689236333e+02   2.9824555549e+01     0.225848    0.1316789 -67.48 0.0008101363    2.608    0.617
       242 -10.4323     21.6030    120.1754   1.3931206267e+02   4.8757706551e+01    0.1801805   0.08576524 -62.14 0.0004978888    1.690    0.408
       243  -8.7751    130.6814    119.2851   1.0959346731e+02   3.2929047478e+01    0.1532215    0.1186524  86.30 0.0002086233    1.589    0.371
       244  -9.8122     28.0084    114.7185   1.3681805355e+02   4.9471233350e+01    0.1847886    0.1426762  87.58 0.0002733156    1.199    0.166
       245 -11.5441     30.4855    117.9565   1.3659384082e+02   4.8494619146e+01    0.3003736    0.2219301  49.98  0.001520085    1.493    0.330
       246 -10.3379     33.2529    114.9846   1.3538623779e+02   4.8928489832e+01    0.1996235    0.1499172 -54.06 0.0006880788    1.299    0.230
       247  -8.5297     87.2887    118.6810   1.2088661334e+02   4.1152607231e+01    0.1441834    0.1062239  85.32 0.0002697765    1.597    0.374
       248 -10.9422    168.1000    113.3603   9.9320498995e+01   2.5862481516e+01    0.3663071     0.303606 -80.28 0.0008514291    1.424    0.298
       249 -10.0326     72.9273    115.0285   1.2412704657e+02   4.4203082611e+01     0.204812    0.1840782 -68.99  0.001218297    1.030    0.030
       250 -10.2844     69.9450    111.1840   1.2418205281e+02   4.5529175247e+01       0.2079    0.1720466  82.95 0.0004097324    1.269    0.212
       251 -11.0736     59.1393    110.4870   1.2717267730e+02   4.7133408254e+01     0.275203    0.2420696  80.67  0.001629043    1.163    0.140
       252 -10.5438     31.6015    110.6958   1.3519781782e+02   5.0081872649e+01    0.2172439    0.1594828  36.87  0.001028161    1.604    0.376
       253 -10.5934     62.7247    106.9602   1.2540797704e+02   4.7498885397e+01    0.2745865    0.1518373 -62.68  0.001311002    1.619    0.382
       254 -10.3992    134.5703    105.1964   1.0501262590e+02   3.5153698160e+01    0.3960959    0.1481521 -42.04  0.001308477    2.698    0.629
       255  -8.8680     42.7030    103.6683   1.3073519996e+02   5.0628890343e+01    0.1320069   0.08580371 -42.47 0.0005263218    1.642    0.391
       256  -9.0879     35.8307    102.4344   1.3258268476e+02   5.1605869281e+01    0.1428088    0.1218754 -15.33 0.0003889659    1.503    0.335
       257  -9.9846     62.9732     99.8723   1.2380649095e+02   4.9117050800e+01    0.2459121    0.1752702 -57.18 0.0007607744    1.224    0.183
       258  -8.9619    112.3083    104.3220   1.1059198464e+02   3.9962506841e+01    0.1493466     0.119658 -12.34 0.0007034977    1.645    0.392
       259 -11.7118      1.8122     89.0091   1.4090738756e+02   5.7208366067e+01    0.5426074     0.118435 -73.75  0.001934508    3.962    0.748
       260  -9.2872     44.8209     90.1861   1.2736950088e+02   5.3520977262e+01    0.1740706    0.1342571 -41.12 0.0003289719    1.304    0.233
       261  -8.9471    102.0153     88.0112   1.0901444434e+02   4.5520236940e+01    0.1716719    0.1606169 -48.66            0    1.007    0.007
       262  -8.5881     64.3186     76.7014   1.1756586627e+02   5.4160573229e+01    0.1303715    0.1043081  86.83 0.0006640973    1.616    0.381
       263 -11.1961    222.7439    245.2324   1.1466995810e+02  -6.0455058201e+00    0.2620887    0.1309639  30.44  0.001500527    1.708    0.414
       264  -9.5018    183.8153    250.4343   1.2196855048e+02  -6.8797894803e-01    0.1650513   0.08692431  33.91 0.0005960242    1.628    0.386
       265  -9.8900     93.1539    244.8389   1.3711378435e+02   1.4090239883e+01    0.1759413    0.1147824  64.12  0.000515895    1.275    0.216
