#   1 NUMBER                 Running object number                                     
#   2 MAG_AUTO               Kron-like elliptical aperture magnitude                    [mag]
#   3 X_IMAGE                Object position along x                                    [pixel]
#   4 Y_IMAGE                Object position along y                                    [pixel]
#   5 X_WORLD                Barycenter position along world x axis                     [deg]
#   6 Y_WORLD                Barycenter position along world y axis                     [deg]
#   7 A_WORLD                Profile RMS along major axis (world units)                 [deg]
#   8 B_WORLD                Profile RMS along minor axis (world units)                 [deg]
#   9 THETA_WORLD            Position angle (CCW/world-x)                               [deg]
#  10 FWHM_WORLD             FWHM assuming a gaussian core                              [deg]
#  11 ELONGATION             A_IMAGE/B_IMAGE                                           
#  12 ELLIPTICITY            1 - B_IMAGE/A_IMAGE                                       
         1 -11.4743    247.1506     61.8608   3.8209242100e+01   1.8013108208e+01     1.179548    0.5529786 -37.27  0.005921875    1.961    0.490
         2 -11.1533    229.7828      4.0425   2.8142412521e+01   2.8740392872e+01    0.9516945    0.4289395 -83.11  0.005008031    2.204    0.546
         3 -10.9078    244.1560     28.0958   3.1795367331e+01   2.3143457267e+01    0.7478471    0.4174211 -24.35  0.003914659    2.692    0.629
         4 -12.8461    245.3745     11.2188   2.8503181699e+01   2.4898322897e+01     1.950773     1.486761 -45.87   0.01382786    1.343    0.255
         5 -11.2191    218.3595     28.0466   3.3943941574e+01   2.8373778887e+01    0.7094842    0.4195803 -60.21  0.002875803    1.501    0.334
         6 -11.1970    145.9983     15.3692   3.9190236921e+01   4.6280147443e+01    0.5237349    0.4158614  88.36  0.003215451    1.193    0.162
         7  -9.2304    113.9853     13.8334   4.4217196213e+01   5.3912445777e+01    0.3912107     0.277318  62.91  0.002279026    1.240    0.194
         8 -10.5155     93.8318     13.1105   4.8440714575e+01   5.8483140038e+01    0.7872788    0.3967762 -12.32  0.003736253    2.573    0.611
         9 -10.2238    133.7855     10.9015   3.9723892054e+01   4.9579714720e+01     0.425593    0.2168869 -80.08  0.001732054    3.187    0.686
        10 -10.6152     75.6037      9.5324   5.1921375645e+01   6.2631379653e+01    0.4319782    0.2890992  25.36  0.002550932    1.446    0.309
        11  -9.3458     15.5951     11.5810   7.8400127074e+01   7.2018965656e+01    0.2481408    0.2015213  61.64  0.001512197    2.887    0.654
        12 -10.3166    184.9722      6.1667   3.2130790321e+01   3.8119247951e+01     0.494997    0.2823652 -65.66  0.002737639    1.717    0.418
        13  -9.4135    101.3361      6.4416   4.4207198997e+01   5.7414003403e+01    0.3140869    0.1866951 -55.32  0.001593712    2.398    0.583
        14  -8.6268    176.7569      4.8389   3.2610119567e+01   4.0111039239e+01    0.2378047    0.1394671 -55.75  0.001123319    1.674    0.403
        15  -9.9472     81.0566     10.5935   5.0798307304e+01   6.1421635964e+01    0.3806273    0.2709595 -24.88  0.002320274    1.571    0.363
        16  -8.4444     65.3313      5.3150   5.3247189583e+01   6.5030111303e+01    0.1308103   0.07497309  27.89 0.0007045807    1.681    0.405
        17  -8.9975    211.1538      3.2541   2.9281999386e+01   3.2670284987e+01    0.2417675    0.1043173 -56.41  0.001242228    2.097    0.523
        18 -10.0549     48.7607      2.9925   5.8034942109e+01   6.8265740886e+01    0.6074744    0.2747965  57.95  0.002750997    3.142    0.682
        19  -9.1014    147.0519      2.2541   3.5276320174e+01   4.7220146356e+01    0.4953621    0.1992509  85.36   0.00194841    3.168    0.684
        20  -8.2904    116.5115      1.4978   3.9557934994e+01   5.4370944048e+01    0.1244598    0.1052272  65.45 0.0008103591    1.033    0.032
        21  -8.1342     95.0185    222.5078   1.0166816853e+02   1.4350369521e+01    0.2079707    0.1229302  36.95 0.0005419038    1.547    0.353
        22 -11.1964    244.2263    236.9385   7.2871134025e+01  -9.8989374150e+00    0.5414916     0.332339 -18.94  0.003385252    1.389    0.280
        23 -10.7970    243.0048    247.5415   7.4836592454e+01  -1.1197379176e+01    0.5333829    0.3399646  28.27  0.003501799    1.592    0.372
        24 -12.6359    246.4782    203.5688   6.6625958360e+01  -5.2498443574e+00     1.937055     0.606759 -38.36  0.008121583    2.728    0.633
        25 -10.9378    238.7929    240.6079   7.4433400436e+01  -9.7737611184e+00      0.60672    0.3258792  42.38  0.003251706    2.662    0.624
        26 -10.4876    191.3130    241.7775   8.3553004327e+01  -3.8307424542e+00    0.3935827    0.3580141 -54.47  0.002361365    1.556    0.357
        27  -9.9072    186.8583    229.7967   8.2497532683e+01  -1.2289941444e+00    0.5010203     0.341452 -37.65  0.002837857    1.502    0.334
        28  -9.0298    184.8482    250.1704   8.6149203994e+01  -4.2518112636e+00    0.2728914    0.2154456  29.05  0.001091161    1.216    0.178
        29 -10.2664    187.7973    246.5094   8.4998377789e+01  -4.0882803355e+00    0.6044016    0.4776662 -61.94  0.003656832    1.984    0.496
        30  -7.6413     17.5426    215.4910   1.1838905974e+02   2.5661092583e+01    0.1240244   0.09914956  76.57 9.552865e-05    1.006    0.006
        31  -7.4925    171.3181    197.6903   8.0117828277e+01   7.1695535231e+00    0.1356891    0.1152482  75.35 0.0004463535    1.639    0.390
        32 -10.1111    230.5136    186.7593   6.6227654305e+01  -2.8996225606e-01     1.030218    0.4503659 -54.43  0.003424589    4.737    0.789
        33 -10.7832    246.2889    178.0086   6.1854273601e+01  -1.0926078569e+00     0.530624    0.2948643 -30.88  0.002787796    1.557    0.358
        34  -9.9503    211.9088    172.1842   6.6735425308e+01   5.2542816721e+00    0.3575561    0.2343413  57.65   0.00159084    2.262    0.558
        35  -9.8492    205.1044    169.1853   6.7420572938e+01   6.9801526915e+00    0.4047143    0.1962267 -37.60   0.00172289    1.917    0.478
        36  -9.2409    249.6397    163.2758   5.8453765736e+01   8.9742549016e-01    0.3229365    0.1885977 -45.78  0.001106264    1.596    0.373
        37 -11.9178    233.8885    148.8630   5.8059715583e+01   5.8721567232e+00     1.577305    0.8088321 -58.32  0.006208826    3.116    0.679
        38  -8.1916    141.6866    157.3090   7.8908927521e+01   2.1413867302e+01    0.1557125    0.1249255  82.71 0.0004041349    1.627    0.385
        39  -8.4186    128.7690    151.3755   8.0914120550e+01   2.5324819783e+01    0.2077837    0.1508214  28.82 0.0004297882    1.500    0.333
        40  -7.5000    118.8638    147.1736   8.2630778269e+01   2.8242691084e+01    0.2060693    0.1781577 -22.00 0.0002940481    1.272    0.214
        41  -8.9557    217.5019    140.1480   5.8969452375e+01   1.0324202883e+01    0.3222032    0.2482225 -61.56  0.001716062    1.489    0.328
        42  -9.1546    215.6096    135.0387   5.8185328233e+01   1.1635075635e+01    0.4861486      0.12425 -41.40  0.001519609    3.435    0.709
        43  -8.3506    194.3341    141.6539   6.3582827109e+01   1.4404678944e+01    0.1506083    0.1158048 -76.04 0.0007049257    1.768    0.435
        44  -9.5190    166.3454    136.1866   6.8206182715e+01   2.1202586739e+01    0.7469465    0.2773565 -51.05  0.002365115    3.001    0.667
        45  -8.8555    167.6869    129.9424   6.6416363659e+01   2.2266140792e+01    0.3037607    0.2398745  55.26  0.001474435    1.378    0.274
        46  -8.0637    112.9503    139.5269   8.2541297207e+01   3.1240514930e+01    0.2333247    0.1575031  35.63 0.0006878156    1.543    0.352
        47 -11.4162    245.8729    127.0142   5.1724803892e+01   7.7167974156e+00      1.29699    0.5295234 -52.05  0.005163942    2.787    0.641
        48  -8.3256    190.3288    138.6645   6.3699264163e+01   1.5797534006e+01    0.1510916    0.1169545 -76.75 -0.0001376735    1.726    0.421
        49  -8.2131     23.9929    117.9784   1.0619380582e+02   4.9297882508e+01    0.3437314    0.1111193  45.01  0.001146101    4.265    0.766
        50  -8.5922    171.8923    116.1564   6.2132308363e+01   2.4255812364e+01     0.280398     0.225992 -30.08 0.0008148069    1.291    0.225
        51  -9.8504    222.0032    113.4292   5.2376687867e+01   1.4415748468e+01    0.4054396    0.2656397 -38.23  0.002080502    1.368    0.269
        52  -9.9822    122.0876    109.3997   7.2455245531e+01   3.6538129774e+01    0.5947343    0.4961925 -53.07  0.001850656    1.206    0.171
        53  -9.5093    160.9140    108.4358   6.2551487284e+01   2.8256233961e+01    0.5277784    0.3367379 -53.53  0.002041433    1.636    0.389
        54  -8.4210     97.2163    109.9234   7.9886902984e+01   4.1368618665e+01    0.2326934    0.2119146 -83.21  0.000639422    1.233    0.189
        55  -9.3673    197.1138    107.8277   5.5216305646e+01   2.0475088472e+01    0.4757762    0.2624608 -60.03  0.001910827    2.311    0.567
        56 -10.1261    122.8951     98.2551   6.9156037207e+01   3.8798211971e+01    0.7280048    0.6381867  -1.99  0.003688155    1.284    0.221
        57  -8.5259    239.1253     83.6907   4.3585608213e+01   1.6196445552e+01    0.2517233    0.1979149 -80.85  0.001538628    1.328    0.247
        58 -11.0030    237.8019     96.7955   4.6518703685e+01   1.4302539917e+01    0.6784161    0.3210863 -51.55  0.003103613    1.979    0.495
        59  -9.8968    235.0421     87.4601   4.4888025728e+01   1.6367501711e+01    0.4912046    0.2012977 -45.32  0.002042659    2.040    0.510
        60  -7.5566     67.4672    102.5041   8.7732685373e+01   4.8146374225e+01     0.148278    0.1365724 -37.08 0.0004683314    1.002    0.002
        61  -8.8201     57.4901    100.6062   9.0778974639e+01   5.0013704446e+01    0.3162841    0.2563113 -75.84  0.001408183    1.428    0.300
        62  -9.9619    214.9862     96.5182   4.9658644993e+01   1.8814544825e+01    0.6717218    0.2649465 -46.25  0.002664892    2.276    0.561
        63  -8.7259    106.6414     98.2482   7.3799476050e+01   4.2193339288e+01    0.3976048    0.2816741 -25.02  0.001773343    1.656    0.396
        64  -9.3116    232.0343     97.0960   4.7349994543e+01   1.5342733542e+01    0.4087522    0.2208174 -70.21  0.001631578    3.128    0.680
        65  -7.2609     86.2903     96.7081   7.9758016493e+01   4.6410113745e+01    0.1438167    0.1208683  83.73 0.0001545962    1.547    0.354
        66  -7.8658    248.6364     92.6900   4.4311223723e+01   1.2990226274e+01    0.1192385   0.09875594  -2.11 0.0001425966    1.750    0.429
        67  -9.3574    248.4382     84.8284   4.2728529191e+01   1.4281620302e+01     0.348878    0.2818207 -57.44   0.00225465    1.047    0.045
        68  -7.3232     99.3091     86.7084   7.2647119721e+01   4.6128133800e+01    0.1457304    0.1215685  86.46 0.0006998105    1.583    0.368
        69  -8.5290    212.2191     83.5316   4.7093337989e+01   2.1613697292e+01    0.2812467    0.1926506 -65.28  0.001245433    1.526    0.345
        70  -8.0137     83.6454     83.1855   7.6654655898e+01   4.9834580956e+01    0.2193925    0.1295156 -36.80 0.0009521716    1.717    0.417
        71  -9.6671    180.9995     79.9126   5.1171389127e+01   2.9100396758e+01    0.4355263    0.3056788 -78.38  0.001200942    1.741    0.426
        72  -8.9350    141.9602     80.9158   5.9350609213e+01   3.7971670422e+01    0.2398211    0.1820645 -75.45 0.0006705676    1.650    0.394
        73  -8.6413    152.7042     77.9836   5.6124541119e+01   3.6005221940e+01    0.2160127    0.1905634 -48.35 0.0006279392    1.127    0.112
        74 -10.0486    243.2098     47.0425   3.5608328410e+01   2.0860129532e+01    0.6956542    0.1474242 -47.80  0.002523706    3.702    0.730
        75 -10.6983    234.8073     58.3926   3.8756815147e+01   2.0909083844e+01     0.706276    0.3794383  87.89  0.003174704    2.369    0.578
        76 -11.0154    248.9306    221.5529   6.9426609417e+01  -8.2666514849e+00     0.961872      0.31668 -33.50   0.00423547    2.724    0.633
        77  -9.3884    244.0704     77.0330   4.1624837815e+01   1.6310831345e+01     0.297112    0.1675072  84.45  0.001362939    2.447    0.591
        78  -9.8053    248.8029     74.4415   4.0577620697e+01   1.5827593293e+01    0.5082783    0.2129367 -39.59  0.002314029    2.020    0.505
        79  -9.8461    216.6950     73.5469   4.4197660403e+01   2.2305279580e+01    0.6840584    0.3220088 -53.60  0.003002434    2.114    0.527
        80  -9.5617    106.5239     72.1595   6.5931783442e+01   4.7508642697e+01    0.5585053    0.4040398 -83.26     0.002436    2.282    0.562
        81  -9.6007    148.0231     70.7740   5.5073136672e+01   3.8359931429e+01    0.3947213    0.3389052  79.20  0.001556629    1.211    0.174
        82  -8.7216     30.0411     67.0581   9.2509725667e+01   6.0792858478e+01    0.4307158    0.1831365 -26.91  0.001602599    3.358    0.702
        83  -8.2788     81.7699     65.9189   7.1714678777e+01   5.3598632354e+01    0.2568427    0.1917041  70.91   0.00110973    2.076    0.518
        84  -8.1951    162.3177     63.3168   5.0121540849e+01   3.6211429976e+01    0.1418313    0.1119272  24.30 0.0007039405    1.654    0.395
        85  -9.4004    200.5883     61.8278   4.3637120625e+01   2.7613469198e+01    0.6132625    0.2305818 -50.80  0.002339575    2.755    0.637
        86  -8.2564    148.0239     57.2425   5.1142787090e+01   4.0549496396e+01    0.3652512    0.1553707 -45.35  0.001410428    2.486    0.598
        87  -8.3849    108.2711     55.0556   5.9804172691e+01   5.0064879373e+01    0.2627901    0.2014905 -53.47  0.001358993    1.524    0.344
        88  -8.9237    237.8446     51.9270   3.7106254699e+01   2.1231537748e+01    0.1749686    0.1603475 -58.84 0.0007046697    1.235    0.190
        89  -8.3742     97.1429     48.8959   6.0839437407e+01   5.3412032083e+01    0.2042553    0.1949233  88.39  0.000963176    1.238    0.192
        90  -8.8614    221.5402     47.2569   3.7778541830e+01   2.5199564090e+01    0.2406893    0.1016069 -42.60  0.001121457    2.038    0.509
        91  -9.2890    202.5527     44.5770   3.9305732927e+01   2.9666457034e+01    0.6169233     0.242118 -56.85  0.002378495    3.053    0.672
        92  -7.8060     26.9541     47.0497   8.7444125235e+01   6.5087081372e+01    0.1518462    0.1239526 -19.45 0.0004381664    1.008    0.008
        93  -8.5790    250.0938     44.7953   3.4558812775e+01   1.9850108447e+01    0.2585384    0.1490683 -39.50  0.001177372    1.587    0.370
        94  -8.9492    158.1026     44.8290   4.5711154886e+01   3.9942176353e+01    0.3521041    0.1877422 -57.07  0.001516554    2.271    0.560
        95  -9.9165    174.0062     42.6872   4.2613175315e+01   3.6462600472e+01    0.5876917    0.3451803 -64.49  0.002772941    1.966    0.491
        96  -8.3956     57.4952     45.4974   7.3329373081e+01   6.1352935414e+01    0.2577873    0.1224009  38.52  0.001179604    2.072    0.517
        97  -9.1001    226.0174     41.9844   3.6188947659e+01   2.4985333718e+01    0.2645448    0.2504751   2.29  0.001413589    1.519    0.342
        98  -8.1274     85.6062     42.7769   6.2144718482e+01   5.6692931288e+01    0.1806324    0.1255901 -42.12 0.0009423948    1.617    0.382
        99  -9.0422    128.5213     39.8431   4.9845278818e+01   4.7633805611e+01    0.5600168    0.3268641 -63.08  0.002391527    2.566    0.610
       100  -8.3875    103.3080     42.1010   5.6683185527e+01   5.3070572203e+01    0.2527919    0.1741223  41.76  0.001251237    1.351    0.260
       101  -8.7866    143.3161     39.1108   4.6675923689e+01   4.4227540075e+01    0.4474276    0.1515441  52.04  0.001674269    2.674    0.626
       102  -9.4209    250.3540    244.3270   7.3046856259e+01  -1.1589073475e+01     0.340179    0.1306931 -33.23  0.001465328    2.287    0.563
       103 -10.7063    224.6534    240.2198   7.6912214488e+01  -8.0070585191e+00    0.7260095      0.40057 -46.31  0.003909485    2.315    0.568
       104  -8.6999    222.2678    233.9545   7.6303566525e+01  -6.7830296124e+00    0.2679325    0.1934768  -6.31  0.001110832    1.195    0.163
       105 -10.5699    188.9683    234.2068   8.2798419086e+01  -2.2736849060e+00    0.4761699    0.3076896 -24.90   0.00263019    1.592    0.372
       106  -9.1280    219.5233     19.8635   3.2106604209e+01   2.9103176943e+01    0.2755436    0.1674887 -67.54  0.001627722    1.457    0.314
       107  -8.8805     43.3915     31.6811   7.3693887525e+01   6.5652486695e+01    0.3577461    0.2227911  13.80  0.001959933    1.658    0.397
       108  -7.9605     93.7696     27.3944   5.3905619763e+01   5.7006222355e+01    0.1952611     0.105462  44.87 0.0009479108    1.638    0.390
       109  -8.1385     60.2988     27.5462   6.4885041469e+01   6.3537077850e+01    0.2306449    0.1162145  47.35  0.001117134    2.026    0.506
       110  -8.1761    184.4971     25.9900   3.6977137597e+01   3.6110157556e+01    0.1851163    0.1227629 -35.78  0.001035074    1.598    0.374
       111  -8.9648      5.8298     25.8451   9.0439202409e+01   7.0719512582e+01    0.1444975    0.1316545 -19.59  0.001027874    1.351    0.260
       112  -8.2714     33.5114     25.5255   7.5600561495e+01   6.7915438525e+01    0.2195755    0.1009109  22.27  0.001032613    2.384    0.581
       113  -7.6256     53.3288    246.3299   1.1321748000e+02   1.4996331045e+01    0.1108397   0.09481022 -27.75 0.0004502026    1.712    0.416
       114  -8.2718    147.3057    245.6489   9.3211247649e+01   1.8946168128e+00    0.1263807   0.09640186  61.79 0.0005766432    1.707    0.414
       115  -9.1340     93.5275     34.1558   5.6516603634e+01   5.6233545161e+01    0.4306665    0.2540199 -66.57  0.001576462    4.226    0.763
       116  -7.7144     91.3110    245.3420   1.0516592396e+02   1.0156994485e+01    0.1210957   0.09862455 -13.92 0.0007045615    1.698    0.411
       117  -7.8140     44.3300    244.6854   1.1491789297e+02   1.6421270283e+01    0.1321714   0.07174188  61.30  0.000382956    1.677    0.404
       118  -9.1302    155.1708    241.6118   9.0964972271e+01   1.4349947967e+00    0.2907018     0.179206 -37.70  0.001103082    1.801    0.445
       119  -8.5600    149.4891    235.0024   9.1197887731e+01   3.4829630673e+00     0.183511     0.130072 -44.03 0.0006583626    1.546    0.353
       120  -8.6585    142.5138    234.5033   9.2637786886e+01   4.6454522920e+00    0.1340089    0.1177242  18.86 0.0008099156    1.055    0.052
       121  -7.5501     70.6733    234.2783   1.0846996192e+02   1.5262317461e+01     0.135535   0.08289175  59.94 0.0003286196    1.593    0.372
       122  -9.0928    134.1581    249.6308   9.6536160625e+01   3.1313889978e+00    0.3155843     0.227728  61.44  0.001783367    1.723    0.420
       123  -8.6518    235.5103    229.4877   7.3136229372e+01  -7.7929800429e+00    0.1229586   0.09496184  -7.52 0.0008104675    1.008    0.007
       124  -8.7445    156.5412    225.5012   8.8194399258e+01   4.1603916007e+00     0.268017    0.2105395   0.98 0.0005748987    1.349    0.259
       125 -11.3619    224.1436    217.6356   7.3123392967e+01  -4.5106659306e+00      1.06668     0.461501 -43.26  0.004967881    2.353    0.575
       126 -10.0072    223.4411    207.3162   7.1385993808e+01  -2.7396240160e+00     0.435249    0.3086674 -23.39  0.001967531    1.234    0.190
       127  -8.0075     33.9225    224.9263   1.1558079517e+02   2.1826857010e+01    0.2104003    0.1170345  63.28  0.001119993    1.660    0.398
