#   1 NUMBER                 Running object number                                     
#   2 MAG_AUTO               Kron-like elliptical aperture magnitude                    [mag]
#   3 X_IMAGE                Object position along x                                    [pixel]
#   4 Y_IMAGE                Object position along y                                    [pixel]
#   5 X_WORLD                Barycenter position along world x axis                     [deg]
#   6 Y_WORLD                Barycenter position along world y axis                     [deg]
#   7 A_WORLD                Profile RMS along major axis (world units)                 [deg]
#   8 B_WORLD                Profile RMS along minor axis (world units)                 [deg]
#   9 THETA_WORLD            Position angle (CCW/world-x)                               [deg]
#  10 FWHM_WORLD             FWHM assuming a gaussian core                              [deg]
#  11 ELONGATION             A_IMAGE/B_IMAGE                                           
#  12 ELLIPTICITY            1 - B_IMAGE/A_IMAGE                                       
         1 -11.7402    218.4952     30.3723   1.7550253225e+01   2.5720380579e+01     3.190068     1.315359 -20.14   0.01111153    3.736    0.732
         2 -13.7847    239.2972    111.3195   3.4608986447e+01   8.4737068742e+00      6.04928     1.680106 -38.96   0.01964888    3.220    0.689
         3 -12.1569    226.7659     49.3045   2.1274272736e+01   2.1132984613e+01     1.790344    0.9477689 -28.14  0.007337892    2.047    0.511
         4 -12.7584    236.8500     36.8938   1.7053245274e+01   2.0421887251e+01     3.223016     1.250457 -28.77   0.01256327    2.810    0.644
         5 -13.5203    240.8548     84.7791   2.8041705292e+01   1.2448395991e+01     3.459306     1.241167  49.54   0.01262979    3.007    0.667
         6 -12.0653    246.2046     19.9113   1.2208948150e+01   2.0395150101e+01     2.713708    0.6928995 -42.71   0.01021306    3.100    0.677
         7 -12.3449    249.1142     70.2301   2.3470410739e+01   1.2860965876e+01     1.735589    0.7833629 -35.46  0.007432427    2.010    0.503
         8  -8.9717    141.9715     14.7839   2.4393563546e+01   4.7215862442e+01    0.5715218    0.1894622 -15.94  0.001751534    4.753    0.790
         9 -10.3856    119.1394      9.9847   2.7344288496e+01   5.3264820451e+01    0.6139806    0.3568853  40.62  0.003030457    1.573    0.364
        10  -7.6640    180.1535      6.6175   1.5905248686e+01   3.8207454498e+01    0.2049082    0.1059229  58.79 0.0005447434    1.692    0.409
        11  -7.7421     85.6359      4.8160   3.3795420601e+01   6.1097025072e+01    0.1593442    0.1125613 -26.63 0.0001065598    1.528    0.346
        12  -7.8820    209.3948      3.3645   1.1761863630e+01   3.1080411183e+01    0.2148843    0.1328367 -21.49  0.001017944    1.958    0.489
        13  -7.2699     39.2324    205.9855   9.4577427694e+01   2.7294125063e+01     0.141845   0.08141056 -79.50 0.0003080699    1.552    0.355
        14  -7.3773     64.4796    205.4652   8.9655547949e+01   2.4200581219e+01    0.1202106    0.1008449  74.24 0.0008075814    1.094    0.086
        15  -8.2586    234.8252    195.2169   5.3586163799e+01  -3.9045629997e+00    0.2788735    0.2005622  84.68  0.001121643    4.366    0.771
        16  -8.6117    193.4209    196.1386   6.1651951793e+01   3.5170180251e+00    0.2912454    0.1280637 -49.97  0.001136182    3.134    0.681
        17  -7.4583     92.5768    195.5277   8.2763199380e+01   2.2093068588e+01    0.1297535     0.112871  70.34  9.32936e-05    1.048    0.046
        18  -7.4093    210.3267    192.2990   5.7610884893e+01   9.4094373807e-01    0.1411323   0.09696597  12.51 0.0003327345    1.635    0.388
        19  -9.7484    143.0762    179.9613   6.9309515270e+01   1.6306797067e+01    0.2639901    0.2252893 -48.52 0.0003869846    1.291    0.225
        20  -9.1858    213.0812    179.9957   5.4661270742e+01   2.3738154365e+00    0.2890208    0.1999791 -48.92 0.0009358722    1.789    0.441
        21  -7.8286    149.0073    177.6319   6.7571859688e+01   1.5606334987e+01    0.2055993    0.1709918  44.67  0.000636266    1.101    0.092
        22  -7.1569    148.7554    170.6482   6.6314238664e+01   1.7063300954e+01    0.1404401    0.1150867  -9.27 0.0006931394    1.584    0.369
        23  -8.4501     86.5532    169.3710   8.0485545564e+01   2.8677621767e+01    0.2123175    0.1931845  73.65 0.0002160254    1.071    0.066
        24  -9.7496    230.9041    167.8078   4.8786646771e+01   9.0837739210e-01    0.3295041     0.220168 -48.51  0.001505013    1.858    0.462
        25  -9.4955    242.3359    159.9888   4.5081314076e+01  -2.2221712188e-02    0.2727825    0.2185485  13.29  0.001556901    1.205    0.170
        26  -8.0215    197.2136    160.0862   5.3659248901e+01   8.9867846085e+00    0.2206584    0.1908917   5.48 0.0005235061    1.185    0.156
        27 -12.0579    182.8795     99.5646   4.1978922281e+01   2.3745397330e+01     1.685993    0.8999001  55.97  0.006545791    1.939    0.484
        28  -7.5914    141.7162    249.3560   7.9750988986e+01   4.3562580155e+00    0.1194198   0.08077154  66.50 0.0007018975    1.668    0.400
        29 -11.1541    198.5809     95.4647   3.7765953587e+01   2.0634360443e+01     1.606042    0.3149439  48.24  0.003938929    5.038    0.802
        30  -7.3632    241.6472    247.3090   6.1502095358e+01  -1.1427564646e+01     0.101682   0.08539428  46.79 0.0007043634    1.720    0.419
        31  -7.3581     57.6414    246.1253   9.4322463533e+01   1.7506074753e+01     0.134734   0.09066245 -68.77 0.0005480609    1.704    0.413
        32 -10.2193    106.5700    243.0708   8.5469415179e+01   1.1002354817e+01    0.2210976    0.1948531  70.38 0.0005562939    1.191    0.160
        33 -11.4460    245.2422     51.8875   1.9641809787e+01   1.6414944604e+01    0.9331143    0.7722995  -7.08  0.002137845    1.546    0.353
        34  -6.9837     25.7329    243.3152   9.9364011497e+01   2.1854761988e+01    0.1087381   0.05443482  68.27 0.0001993045    1.549    0.355
        35  -8.6145    191.8216    152.8848   5.3192212382e+01   1.1460464974e+01    0.3630381    0.1964694 -60.26  0.001248192    3.300    0.697
        36  -7.4777     51.2192    154.5415   8.6768121817e+01   3.6970431519e+01    0.1418189    0.1279943  21.29  0.000424254    1.448    0.309
        37 -10.7686      2.8768    145.8949   9.7099564583e+01   4.3553924417e+01    0.6007284    0.2700024 -68.25  0.003257621    1.734    0.423
        38  -9.7605      2.3971    142.2015   9.6890186567e+01   4.4397861662e+01    0.3160313    0.2002687 -85.65  0.001424521    1.233    0.189
        39  -8.1231    133.5707    145.4171   6.4763765165e+01   2.5520729811e+01    0.4056075     0.149091 -49.49  0.001368031    2.806    0.644
        40  -8.9415     68.9488    144.8324   8.0973647669e+01   3.6916721074e+01    0.3861075     0.248254  78.02  0.001781255    1.854    0.461
        41  -9.6521     65.6522    142.1323   8.1382290807e+01   3.7999999956e+01    0.4888077    0.1915002 -71.63  0.001764477    3.148    0.682
        42  -8.6305     60.1539    139.2532   8.2341033986e+01   3.9399711804e+01    0.2225759    0.1300856 -32.20   0.00095576    2.835    0.647
        43 -10.8458     48.5679    134.2953   8.4590386052e+01   4.1970165394e+01     0.539935    0.3654403 -70.10  0.001718488    1.284    0.221
        44 -11.6889     40.4781    133.6487   8.6604367422e+01   4.3012056986e+01    0.8545141    0.6909629 -58.32  0.005447583    1.211    0.174
        45 -10.2555     32.7850    136.9124   8.9013744849e+01   4.3040728590e+01     0.338483    0.2783263  34.22 0.0008703053    1.460    0.315
        46  -7.5428     53.6397    145.6815   8.4966634643e+01   3.8719011374e+01    0.1293925   0.09519922 -37.19 0.0007043134    1.764    0.433
        47  -8.1486    236.3170    231.9795   5.9926615447e+01  -8.9098625573e+00    0.1644693     0.128229  12.03 0.0005050082    1.064    0.061
        48  -9.5139    154.9570    134.7250   5.7206999217e+01   2.3250153141e+01    0.3741859    0.2980677 -29.42   0.00108715    1.391    0.281
        49  -9.8988     63.7459    128.7210   7.9621444393e+01   4.1401586795e+01    0.2611882    0.1543204 -58.81  0.001297722    1.513    0.339
        50  -7.9658     75.2179    125.4744   7.5870529187e+01   4.0561833917e+01    0.2451553    0.1424768  30.02   0.00112621    2.031    0.508
        51  -9.8545    134.1200    119.9292   5.8742420336e+01   3.1028748056e+01    0.4711261    0.2327476  43.37  0.001014389    2.022    0.505
        52  -6.9668     72.4989    116.5097   7.4830644340e+01   4.3058572357e+01    0.1394148    0.1267772 -64.60 1.930859e-07    1.008    0.008
        53 -10.2175     61.0505    114.9956   7.7817720607e+01   4.4972970958e+01     0.213634    0.2123284 -15.07  0.001372162    1.153    0.133
        54 -11.0256    135.6839    113.5811   5.6736766218e+01   3.2071720900e+01    0.5908909    0.3905848  52.60  0.002459016    1.562    0.360
        55 -10.3481    134.4004    108.2880   5.5685059888e+01   3.3496521760e+01    0.4308135    0.2837068 -35.06  0.001852056    1.640    0.390
        56 -10.9610    134.8270    102.8255   5.4108298420e+01   3.4566380941e+01    0.6762081    0.4251017 -14.70  0.002430239    2.775    0.640
        57  -7.7790    187.4863    114.4899   4.4924431065e+01   1.9785243449e+01     0.155486    0.1522203  14.23 0.0001454594    1.016    0.016
        58 -10.8968    126.5526    103.8242   5.6553991484e+01   3.6169466432e+01    0.6154342    0.3982927 -55.25  0.002646217    1.682    0.405
        59  -9.6514    160.2467    110.8574   5.0000823430e+01   2.7013783556e+01     0.304561    0.2310794 -16.36   0.00134756    1.629    0.386
        60 -10.1542    141.8007    108.6888   5.3904283539e+01   3.1752831530e+01    0.3571309    0.2882185  60.44  0.001698269    1.313    0.238
        61 -10.1679    150.0343    107.2197   5.1473358571e+01   3.0165199734e+01    0.3813151    0.3198546  -5.20   0.00117032    1.422    0.297
        62  -8.5201    206.1229    109.6223   3.9984233118e+01   1.6261793919e+01    0.2927565    0.2435542 -53.86 0.0008858641    1.271    0.213
        63  -8.4808    208.9869    102.6658   3.7688933926e+01   1.6831725934e+01     0.210888    0.1985272  53.73 0.0007311195    1.086    0.079
        64  -8.9444    111.9003    101.8007   6.0019544146e+01   3.9649992219e+01    0.2233478    0.2037935  -1.49 0.0003368419    1.199    0.166
        65 -11.8684    142.5794     94.3756   4.9778514195e+01   3.4544452076e+01     1.627053    0.4428149 -47.54   0.00422165    4.404    0.773
        66  -9.9846    159.2785     97.4936   4.6613797639e+01   2.9936474299e+01    0.3593704    0.3007919 -29.39 0.0005505556    1.251    0.201
        67  -9.8009    133.1812     96.4324   5.2768173825e+01   3.6276865975e+01    0.3166383    0.2533591  -8.98  0.001472674    1.535    0.348
        68 -10.3937    177.1277     90.3517   4.0671466168e+01   2.6897962206e+01    0.5445514    0.3885039 -16.63  0.002356441    1.742    0.426
        69 -11.4526    161.4827    104.6771   4.8066121236e+01   2.7971584962e+01    0.9454951    0.4412771  48.51  0.003435555    2.105    0.525
        70  -7.9548    206.1372     84.2358   3.3426545975e+01   2.0740776879e+01    0.2190859     0.202913  13.61 0.0005771104    1.189    0.159
        71 -10.7035    163.2184     67.3245   3.6974595189e+01   3.4531246130e+01    0.6612156    0.3222156 -32.91  0.002499896    2.160    0.537
        72 -12.1608    155.0389     75.7730   4.1327851350e+01   3.5110651953e+01     1.295316    0.6843254 -39.40  0.005104322    1.917    0.478
        73  -9.1982    182.8196     77.6230   3.5954320150e+01   2.7748119570e+01    0.5022114     0.400528 -87.09  0.001172056    1.480    0.325
        74 -10.0847    138.5565     79.2029   4.6344339591e+01   3.8478131607e+01    0.3804011    0.2267914  45.87 0.0009852702    1.651    0.394
        75  -8.0087    194.5674     77.7628   3.3763983534e+01   2.4738065995e+01    0.2226076    0.1389201 -46.72  0.000695798    1.640    0.390
        76  -9.0754    130.9995    231.4088   7.9567911120e+01   8.9832234631e+00    0.1967484    0.1755923  86.34 0.0002100603    1.244    0.196
        77  -7.7586    205.0128     75.9854   3.1435767475e+01   2.2408226620e+01    0.2087814    0.2080777 -46.59            0    1.053    0.050
        78  -8.4979    131.7269     76.0279   4.7130536173e+01   4.0677315874e+01    0.2577291     0.212292  45.96 0.0005362561    1.198    0.165
        79  -8.6666    169.7181     74.0336   3.7585702234e+01   3.1717174201e+01    0.4237437    0.2506112 -73.57  0.001386784    3.327    0.699
        80  -9.3869    217.3691     72.4550   2.8492750804e+01   1.9926348330e+01    0.4615638    0.3747689  17.93  0.001486351    1.554    0.356
        81  -8.9210    101.9655     64.3323   5.1764372410e+01   4.9305883944e+01    0.2989995    0.2001141 -31.55   0.00142084    1.502    0.334
        82  -9.1641    179.8202     72.6306   3.5127645176e+01   2.9374609963e+01    0.2871099    0.2526899 -46.39 0.0006175253    1.153    0.132
        83  -9.2354    198.8589     61.8973   2.8667287221e+01   2.6237515305e+01    0.4597949    0.2757865 -36.30  0.001019132    1.661    0.398
        84 -10.1838    198.2829     51.9537   2.6031327998e+01   2.7895612465e+01     0.986365    0.6168771  -4.72   0.00394639    2.592    0.614
        85  -9.6719    203.1415     48.4942   2.4340904687e+01   2.7151302453e+01    0.3543314    0.2858382 -26.69 0.0004465431    1.350    0.259
        86  -9.7753    170.4978     62.1518   3.3919818408e+01   3.3521227026e+01    0.3684306    0.3030526 -54.72  0.001825558    1.292    0.226
        87  -8.4471    170.1085     56.0372   3.2167941676e+01   3.4594322665e+01    0.2341101     0.217652  63.51 0.0005651064    1.032    0.031
        88  -8.7854    162.7516     50.8124   3.2031908695e+01   3.7300261907e+01    0.4080507    0.2008709 -32.49  0.001605712    2.118    0.528
        89  -8.6589    153.0426     47.7142   3.3057239269e+01   4.0257198463e+01    0.2207596    0.1911616  54.13  0.000701348    1.091    0.083
        90  -7.4059     99.3170     48.2806   4.7023391880e+01   5.2652944624e+01    0.1906528    0.1248136 -40.11 0.0008901569    1.573    0.364
        91  -8.5283    150.0649     39.9876   3.1187249354e+01   4.2123095056e+01    0.2194459    0.2047197  46.09 0.0003279434    1.019    0.018
        92  -8.5322    195.5287     35.4293   2.1890911279e+01   3.0909985621e+01    0.3606052    0.1540335 -23.63  0.001317258    2.914    0.657
        93  -9.1948    231.5035     25.7118   1.4965796482e+01   2.3128471011e+01    0.3822255    0.2738189  77.05  0.002118325    1.324    0.245
        94  -8.1621    201.0324     18.9702   1.6696903845e+01   3.1511759892e+01    0.2247321    0.1568273  39.05  0.001110364    1.729    0.422
        95  -8.0695    186.8256     17.9677   1.8238906148e+01   3.5290736362e+01    0.1996955    0.1737665  44.22 0.0003285303    1.243    0.195
        96  -8.2385    227.1904     16.7246   1.3261552420e+01   2.5246858519e+01    0.2156857    0.1656146  24.08 0.0004514739    1.879    0.468
        97  -8.8213     57.5717    232.0652   9.3285070733e+01   2.0010080554e+01    0.1976915    0.1355297  51.69  0.000325371    1.256    0.204
        98  -8.1385    116.6718    227.2152   8.1813953292e+01   1.2096393951e+01    0.2130376    0.1454119 -80.62  0.001231708    1.766    0.434
        99  -7.7770    250.4320    211.2662   5.3829913645e+01  -8.5950773419e+00    0.1581483    0.1096783 -35.13 0.0009532269    1.680    0.405
       100  -8.1786     58.1206    208.4056   9.1178881935e+01   2.4461569085e+01    0.1769119    0.1454884 -82.82 0.0004589801    1.237    0.191
