#   1 NUMBER                 Running object number                                     
#   2 MAG_AUTO               Kron-like elliptical aperture magnitude                    [mag]
#   3 X_IMAGE                Object position along x                                    [pixel]
#   4 Y_IMAGE                Object position along y                                    [pixel]
#   5 X_WORLD                Barycenter position along world x axis                     [deg]
#   6 Y_WORLD                Barycenter position along world y axis                     [deg]
#   7 A_WORLD                Profile RMS along major axis (world units)                 [deg]
#   8 B_WORLD                Profile RMS along minor axis (world units)                 [deg]
#   9 THETA_WORLD            Position angle (CCW/world-x)                               [deg]
#  10 FWHM_WORLD             FWHM assuming a gaussian core                              [deg]
#  11 ELONGATION             A_IMAGE/B_IMAGE                                           
#  12 ELLIPTICITY            1 - B_IMAGE/A_IMAGE                                       
         1 -14.0270    205.1507     19.6037   5.7001786824e+01   3.1047021628e+01      2.65673     1.424561  22.44   0.01041962    2.878    0.653
         2 -13.1698    210.8409     13.6896   5.4691755453e+01   3.0215808956e+01    0.6534156    0.5474337  18.48  0.001523151    1.357    0.263
         3 -11.5125      2.3621      5.3634   1.1773468877e+02   7.4254828415e+01    0.5767815     0.131784 -59.87  0.002251478    3.627    0.724
         4  -9.9702     16.3237      4.3137   1.0803418225e+02   7.3557829039e+01    0.1277964    0.0700459 -25.21 0.0002798805    1.661    0.398
         5 -11.6048     53.0907    228.4376   1.3393832837e+02   2.2828246164e+01    0.2000088    0.1401298  62.75 0.0001184283    1.135    0.119
         6 -11.3162    248.7508    249.4847   1.0140683711e+02  -6.3425536356e+00    0.3191444     0.181989  21.34  0.002252216    1.228    0.186
         7 -13.9999    139.1933    249.0197   1.2010469679e+02   8.7905198219e+00      2.38102    0.2048762  39.56  0.006684283    7.003    0.857
         8 -15.4464     16.5536    244.9396   1.4086918696e+02   2.3853981501e+01     8.052476     2.387962  26.49   0.03227593    6.698    0.851
         9 -15.9515      8.1357    210.5366   1.4108449500e+02   3.0231215402e+01     8.221888     1.297726 -78.49   0.02709004    5.442    0.816
        10 -14.9903     45.4368    215.0493   1.3452421916e+02   2.5919644855e+01     1.704213     1.360567  49.36   0.01345766    1.178    0.151
        11 -11.0245     66.3526    225.1915   1.3130833652e+02   2.1860767660e+01    0.2149222    0.1200554  62.86 0.0007881729    1.642    0.391
        12 -13.2554     54.6268    238.4980   1.3426130630e+02   2.1043293612e+01     0.535886    0.2747099  44.99  0.002446914    1.439    0.305
        13 -11.0625     26.3658    203.8495   1.3746912016e+02   2.9813530796e+01    0.1799951    0.1079434  51.62 0.0005196637    1.318    0.241
        14  -9.8780    226.4177    201.8262   9.7642708751e+01   1.5862448531e+00    0.2109927    0.1918436 -38.65  0.001457743    1.738    0.425
        15 -10.1230    193.2213    195.1201   1.0261886371e+02   7.7953749771e+00    0.5284916    0.2810085 -60.08  0.001458302    9.586    0.896
        16  -8.6681     67.2966    198.6185   1.2903457948e+02   2.6410870675e+01    0.1245952   0.07058599  65.05 0.0007020645    1.762    0.432
        17 -11.5941     64.0532    192.0367   1.2912982228e+02   2.8036143470e+01    0.3199827    0.2336846 -38.11   0.00143944    2.019    0.505
        18 -11.7112     69.4095    185.0564   1.2733282789e+02   2.8735928141e+01    0.2492413    0.2243725 -31.01  0.000833413    1.495    0.331
        19  -8.5700    181.5041    192.4762   1.0446259087e+02   1.0142349468e+01     0.131754    0.1070995  24.49 1.425081e-05    1.005    0.005
        20 -10.9745     78.9355    173.4405   1.2395293438e+02   2.9834199294e+01    0.2111203    0.1958634  72.52 0.0003747436    1.086    0.079
        21 -13.2308     66.0984    170.7085   1.2659889634e+02   3.2020808534e+01    0.4382816    0.2559592 -45.55  0.001525767    2.227    0.551
        22 -12.1799     85.6178    164.7963   1.2130987951e+02   3.0701964960e+01    0.8549511    0.4655282  52.94  0.002398734    1.842    0.457
        23 -13.3655     66.3641    142.8619   1.2315664606e+02   3.7970961412e+01     1.684329    0.8162662  79.02  0.003976565    4.051    0.753
        24 -11.1721     33.4243    166.3993   1.3365076651e+02   3.6434361747e+01    0.2439812    0.1419827 -71.08  0.001484968    1.602    0.376
        25  -9.8568     98.9301    149.3559   1.1575092343e+02   3.2002748970e+01    0.2457838    0.1949036 -51.28 0.0006748591    1.332    0.249
        26 -11.9670     87.5985    148.3275   1.1846601975e+02   3.3919023134e+01    0.2600875    0.2309297 -44.29 0.0005095733    1.253    0.202
        27 -10.3114     39.2905    147.0139   1.3056831311e+02   4.0019446327e+01    0.1707699    0.1399709  87.24 0.0004974087    1.054    0.052
        28  -9.1962    102.0223    145.1973   1.1426323173e+02   3.2407635627e+01    0.2229691    0.1612168  -6.68  0.001068488    2.115    0.527
        29 -12.8767     37.9150    224.4231   1.3642241216e+02   2.5095956576e+01     0.337678     0.276003  48.89  0.000813528    1.240    0.193
        30  -9.5085    110.0308    135.3626   1.1037756607e+02   3.3206815743e+01    0.2550586     0.194194 -21.63  0.001053311    1.675    0.403
        31 -10.4742     97.4724    132.3242   1.1314110032e+02   3.5938069769e+01    0.2565941    0.2213968 -17.39 0.0009134493    1.373    0.272
        32  -9.2039    107.0889    122.6607   1.0857974040e+02   3.6480611392e+01    0.1912427    0.1727438  32.22 0.0003446299    1.114    0.102
        33 -11.0684     53.1353    116.6982   1.2301123927e+02   4.5502967206e+01     0.288152    0.1714905 -81.30  0.001007924    1.796    0.443
        34 -10.8662    167.9823    112.9765   9.0750357164e+01   2.6247941164e+01    0.3433155    0.2923523 -83.13 0.0007937746    1.614    0.380
        35 -10.8602      1.8171     89.3002   1.3532188742e+02   5.5816505813e+01    0.3965753   0.08931419 -73.21  0.001557321    3.161    0.684
        36 -11.4727      2.1113     78.8228   1.3409686822e+02   5.8210451347e+01    0.5264857    0.1130536 -73.34  0.001990572    3.385    0.705
        37  -9.9405      1.4995     61.9661   1.3214399502e+02   6.2097072130e+01    0.1817322   0.09311663 -72.01 0.0004151715    1.527    0.345
        38  -8.6867    108.4549     42.4006   8.4210546332e+01   5.2643695056e+01    0.1471018    0.1381096   9.43  9.95295e-05    1.055    0.052
        39 -14.5452     94.0677    248.2413   1.2803140470e+02   1.4905188261e+01     2.213205    0.4287676  39.45  0.009406472    3.380    0.704
        40 -13.4843    106.8180    244.1763   1.2543631818e+02   1.3847115244e+01    0.8119329    0.4691645  57.64  0.004315653    1.680    0.405
        41 -11.6031     62.6709    249.5048   1.3352314081e+02   1.8467048408e+01    0.4507343    0.1175834  47.63   0.00233039    2.594    0.615
        42 -10.6336    189.9703     15.5166   5.7606570993e+01   3.5366027981e+01    0.2210171    0.1957529 -24.83 0.0007973682    1.163    0.140
