#   1 NUMBER                 Running object number                                     
#   2 MAG_AUTO               Kron-like elliptical aperture magnitude                    [mag]
#   3 X_IMAGE                Object position along x                                    [pixel]
#   4 Y_IMAGE                Object position along y                                    [pixel]
#   5 X_WORLD                Barycenter position along world x axis                     [deg]
#   6 Y_WORLD                Barycenter position along world y axis                     [deg]
#   7 A_WORLD                Profile RMS along major axis (world units)                 [deg]
#   8 B_WORLD                Profile RMS along minor axis (world units)                 [deg]
#   9 THETA_WORLD            Position angle (CCW/world-x)                               [deg]
#  10 FWHM_WORLD             FWHM assuming a gaussian core                              [deg]
#  11 ELONGATION             A_IMAGE/B_IMAGE                                           
#  12 ELLIPTICITY            1 - B_IMAGE/A_IMAGE                                       
         1 -16.0535     57.0934     70.6634   9.1958723053e+01   5.6390557447e+01     3.327228     2.653088  89.47   0.01778749    1.897    0.473
         2 -14.9686     79.4844     69.9244   8.3600000716e+01   5.3202553565e+01     2.387815     1.272873 -30.11  0.009961704    2.140    0.533
         3 -14.3702     69.4009     57.2204   8.2885979304e+01   5.7331169820e+01     2.133117     1.247067 -64.90  0.008119075    3.548    0.718
         4 -14.4912     67.4415     45.8940   7.9427085337e+01   5.9694939124e+01     2.287815     1.333794  63.92  0.007503723    5.575    0.821
         5 -14.2659     42.3675     42.4923   8.8362776384e+01   6.3800394929e+01     1.229615    0.7361508  -3.91  0.004395539    2.056    0.514
         6 -12.0057     32.4487      3.6650   7.5358078547e+01   7.0977978363e+01    0.5891712    0.4293307   9.60  0.004047939    1.131    0.116
         7 -12.7986     28.2836     10.8873   8.1231614939e+01   7.0549773763e+01    0.8116502    0.4766349 -46.20  0.004606893    2.224    0.550
         8 -15.2321      7.8679     21.4156   9.6936576817e+01   7.0769629655e+01     1.915417     1.073563 -37.10  0.009963525    1.351    0.260
         9 -12.2606     22.9071     17.2803   8.7105983327e+01   7.0187223161e+01       0.4414    0.3257043 -52.18  0.001971204    1.878    0.467
        10 -12.7985     83.0971     22.6977   6.4313200669e+01   6.0323341284e+01    0.5480384    0.4083626  46.35  0.002785109    1.337    0.252
        11 -12.4492    104.5119      4.5254   5.0818767150e+01   5.7632784970e+01    0.6002417    0.4801698 -20.66  0.002767844    1.376    0.274
        12 -12.7571    111.7620      3.5640   4.8856150326e+01   5.6061709970e+01    0.9711217    0.5432365 -38.85  0.002143136    2.104    0.525
        13 -12.4909     75.7414     13.4539   6.2635356636e+01   6.2819941360e+01    0.4421684    0.3177265 -19.45  0.000939106    1.391    0.281
        14 -12.5652     95.5687      3.3252   5.2454852428e+01   5.9710540669e+01     0.558852    0.4080558  50.47  0.002582887    1.203    0.169
        15 -13.6417     85.3765     11.8940   5.8919061984e+01   6.1075338585e+01     1.295105    0.5894493  51.48  0.006083091    1.984    0.496
        16 -13.5233     86.3446      3.3950   5.4898687261e+01   6.1669363557e+01     1.146218    0.4685069  54.70   0.00525574    2.139    0.532
        17 -11.7601     64.5077     18.0402   6.8714511581e+01   6.4336614494e+01    0.4138602    0.2814662  32.89  0.001371434    1.343    0.255
        18 -12.5695    123.9569     10.5426   4.8988075319e+01   5.2605827225e+01    0.3401384    0.2449861  55.35 0.0003833621    1.216    0.178
        19 -10.6564    150.8014      9.4534   4.3970730111e+01   4.6179852175e+01    0.2711358    0.1962837 -62.57  0.001476322    1.562    0.360
        20 -11.3673    192.8825      6.4444   3.7872207747e+01   3.6133920313e+01     0.365223    0.1862132 -28.65  0.001703505    2.093    0.522
        21 -11.5031    188.6279      5.2406   3.7995718200e+01   3.7275542024e+01     0.268845    0.2402047 -18.88 0.0009088106    1.338    0.253
        22 -11.9837    138.6257      4.7372   4.4336280116e+01   4.9581060684e+01    0.6904142    0.2328222  56.53  0.002810918    2.341    0.573
        23 -10.6646    128.8742      5.9360   4.6410966328e+01   5.1837612258e+01    0.1962146    0.1738368  50.61 0.0004071475    1.023    0.023
        24 -11.4396     73.3808      1.5715   5.7878058188e+01   6.4440201197e+01    0.2163539    0.1379386  47.83  0.000574822    1.414    0.293
        25 -11.4403    145.3918     50.9032   5.8395066511e+01   4.2515940206e+01    0.3165279    0.2668326 -37.00  0.000822586    1.222    0.182
        26 -10.4604    246.4960    183.7029   7.2244671336e+01  -2.4806493454e+00    0.2214506    0.1125473 -37.37 0.0002029443    1.849    0.459
        27 -10.7668     33.9794    177.5237   1.1819480685e+02   3.3467233705e+01    0.1565665     0.107642 -16.94 0.0008101896    2.594    0.614
        28 -11.9716    203.0018    172.0706   7.7946265713e+01   6.8723693226e+00    0.3589393    0.2015783 -31.19  0.001608557    1.821    0.451
        29 -10.6035    185.7512    167.5866   8.0557735727e+01   1.0980927640e+01    0.2041372    0.1373948  50.69 0.0009480122    1.655    0.396
        30 -13.3489    237.4250    154.3650   6.7748262176e+01   3.6947568249e+00    0.8320639    0.7086574  38.70  0.004955927    1.324    0.245
        31 -13.3776      5.6186     82.9635   1.1426591173e+02   5.8186649793e+01    0.9276768    0.3297855 -51.09  0.004410602    2.086    0.521
        32 -12.2471      2.8842     73.9723   1.1367727936e+02   6.0360009827e+01    0.4406087    0.2222969 -65.62  0.002422833    1.551    0.355
        33 -12.5991      2.1201     66.8921   1.1262152927e+02   6.1969404388e+01    0.4334432    0.2513846 -73.42    0.0024969    1.617    0.381
        34  -9.3415    249.6502     86.3161   5.0653895913e+01   1.2620844120e+01    0.1412891   0.09340309 -63.17 0.0007047363    1.730    0.422
        35 -10.5456    128.0177     81.7845   7.2507895889e+01   4.1226796972e+01    0.3295457    0.1927692 -62.36  0.001187092    2.714    0.632
        36 -12.4273    121.8742     80.6798   7.3843597841e+01   4.2798532087e+01    0.4145334    0.2773423 -28.16   0.00183295    1.619    0.382
        37 -13.3197     41.9412     47.8643   9.0521754077e+01   6.2848993557e+01    0.5213538    0.3550213  12.22  0.001228601    1.557    0.358
        38 -10.8668    146.7890     77.3953   6.6412712767e+01   3.7733626124e+01    0.2426296    0.2190896 -61.45 0.0003073697    1.186    0.157
        39 -12.5983    144.1224     74.7058   6.6226082976e+01   3.8858176678e+01    0.5530481    0.3507178 -21.97  0.001387727    1.913    0.477
        40 -12.6643      8.5886     64.8997   1.0962215724e+02   6.2086160301e+01    0.4059516    0.2250552 -40.14  0.002223717    1.532    0.347
        41 -10.1207    160.0305     72.4420   6.1930851828e+01   3.5435347754e+01    0.2205403    0.1479014  53.36 9.081362e-05    1.484    0.326
        42 -13.2115    123.4981     71.6051   7.0516800200e+01   4.4183487683e+01    0.7894493    0.3367192  59.92  0.002046197    3.733    0.732
        43 -12.9298    118.3786     65.9460   7.0067368631e+01   4.6353732555e+01    0.4401154    0.2618471 -35.77  0.001926897    1.682    0.405
        44  -9.8330    182.5314     71.5762   5.7220834425e+01   3.0090666706e+01     0.147445    0.1425377 -73.79 8.003496e-05    1.013    0.012
        45 -10.9319    146.1801     67.1502   6.3395090556e+01   3.9704865186e+01    0.2299479    0.2053206  20.20 0.0005338066    1.186    0.157
        46 -10.6666    169.0329     62.9710   5.7286712867e+01   3.4812783840e+01    0.4101565    0.1755056  57.37  0.001522538    2.310    0.567
        47 -10.5290    214.3172     61.2731   4.9381368558e+01   2.4134858675e+01    0.2795666     0.184249 -31.74  0.001380116    1.520    0.342
        48 -11.8078    125.1083     57.4515   6.5398444395e+01   4.6305724269e+01    0.3256885    0.2671022  39.58  0.000646447    1.188    0.158
        49 -10.4540    174.8234     56.7513   5.4388126896e+01   3.4354905712e+01    0.2095089    0.1940162  42.81 0.0005303068    1.130    0.115
        50 -14.0436     21.6589     51.9758   1.0073868524e+02   6.3978661016e+01     0.818496    0.5340794 -23.26  0.004160165    1.473    0.321
        51 -13.1631     27.4929     46.3121   9.6342906064e+01   6.4625820114e+01    0.4985605    0.3161228 -31.55  0.001786791    1.352    0.260
        52 -10.0733    209.3385     55.3081   4.8551430185e+01   2.6183993841e+01    0.1389636     0.108623  27.33  0.000258268    1.682    0.406
        53 -11.4627    152.6207     53.6201   5.7727075271e+01   4.0331682408e+01    0.3626474    0.2316449  38.16  0.001315856    1.723    0.419
        54 -11.8886    133.3481     53.5705   6.2028379498e+01   4.5007218243e+01    0.3719516    0.2866798  51.24  0.001052273    1.259    0.206
        55 -14.2145     36.7616     56.1042   9.5507923791e+01   6.1784665438e+01    0.9036606    0.6413513 -63.02  0.005135998    1.644    0.392
        56 -13.6406    247.0732    144.3325   6.3974170050e+01   3.6588958405e+00     1.803865    0.7580029 -32.91  0.007581616    2.159    0.537
        57 -12.0481    199.1806    154.9340   7.5026344725e+01   1.0772240780e+01    0.3678918    0.2806007 -61.09  0.001798064    1.697    0.411
        58 -13.7245      2.7889     46.7928   1.0774814034e+02   6.6219929125e+01    0.8097578    0.6611151  68.00  0.004199908    1.786    0.440
        59 -11.9997     58.3887    144.2942   1.0789888408e+02   3.8698783552e+01    0.5428413    0.3672001  73.32  0.002727691    1.697    0.411
        60 -11.3089    114.1372     87.2014   7.8044473198e+01   4.3114586567e+01    0.2102746    0.1880091 -81.41 0.0006701336    1.334    0.250
        61 -10.1891    123.3506     50.3133   6.3402996133e+01   4.7852448011e+01    0.1560461    0.1085876  20.92 0.0007046158    1.725    0.420
        62 -11.4963     99.5162     50.1697   7.0054389437e+01   5.3085919252e+01    0.3720097     0.177017  32.00  0.001407822    2.617    0.618
        63 -10.8827    137.5802     48.5752   5.9366541910e+01   4.4758570195e+01    0.3174211    0.2110294 -70.48  0.001341471    2.298    0.565
        64 -12.1064    121.9474     43.6080   6.1405440047e+01   4.9180615263e+01    0.2903813    0.2559811  17.26 0.0005404725    1.129    0.114
        65 -11.5000    157.4350     43.6338   5.3638055679e+01   4.0591547974e+01    0.3261307    0.2261734  52.46 0.0009591059    1.376    0.273
        66 -10.7408    140.9748     44.0036   5.7090501838e+01   4.4598234763e+01    0.1739508    0.1666987  43.34 0.0003863737    1.008    0.008
        67 -10.2362    182.0115     43.5021   4.9375424600e+01   3.4486961223e+01    0.2141274    0.1348549  63.99 0.0004076965    1.534    0.348
        68 -10.6190    197.2756     40.9271   4.6442618234e+01   3.1087298811e+01    0.2258175    0.1872756  76.78 0.0006350455    1.164    0.141
        69 -11.5919    217.8132     38.4343   4.3236064008e+01   2.6541260720e+01    0.2868832    0.2273999  67.00 0.0004103279    1.284    0.221
        70 -13.5617     48.9325    141.9406   1.1014281945e+02   4.0398407238e+01    0.7746392    0.5895123  32.20  0.004425696    1.492    0.330
        71  -9.7849    129.7218     37.3144   5.7317947207e+01   4.8227372211e+01    0.1383158    0.1101609 -67.16 0.0001753495    1.568    0.362
        72  -9.9556    159.9385     36.4430   5.0943920014e+01   4.0927389103e+01    0.2019844    0.1326483  62.49  1.68424e-05    1.437    0.304
        73 -10.2849    140.3704     35.0913   5.4242482051e+01   4.5944769987e+01    0.1890535    0.1789214 -16.76 0.0004052093    1.117    0.105
        74 -11.8301     82.1921     33.8364   6.9287236104e+01   5.9016640963e+01    0.3647407     0.273683  23.04  0.001344304    1.265    0.209
        75 -12.5603     78.9628     31.3069   6.9340746418e+01   5.9983254076e+01    0.4512402    0.4268677 -35.51  0.001665714    1.315    0.240
        76 -10.3065    176.2667     33.5426   4.7405557059e+01   3.7218129464e+01    0.2536233    0.1334945  69.97  0.001104867    1.896    0.472
        77 -11.3116     27.0059     30.5074   9.0753903935e+01   6.7597619423e+01      0.34297     0.183337 -10.70  0.001717267    2.302    0.566
        78 -10.9322     90.3829    145.8082   9.9369830380e+01   3.3779971237e+01    0.2179514     0.126687 -49.02 0.0009529984    1.697    0.411
        79 -12.5957    213.7666    142.3319   6.9336852251e+01   1.0229706842e+01    0.8567212    0.3680027  49.42  0.003293809    2.615    0.618
        80 -12.0507     76.1334    141.2705   1.0245719182e+02   3.7065245689e+01    0.3391269    0.2103925 -79.97  0.001434858    1.918    0.479
        81 -10.9739     33.8144    135.8326   1.1346178348e+02   4.3468908303e+01    0.1863687    0.1400219  77.80 0.0009240493    1.348    0.258
        82 -11.8675    223.6578    133.3549   6.5478147147e+01   9.8921097042e+00    0.4963844    0.3931305 -43.49  0.002668213    1.236    0.191
        83 -13.2647    219.1359    122.4022   6.3720650795e+01   1.2759847418e+01    0.9300793    0.6142024 -55.78  0.004307834    1.788    0.441
        84 -13.6641    203.9450    124.7814   6.7077053230e+01   1.5506616453e+01    0.8890589     0.727294 -52.96  0.004581213    1.295    0.228
        85 -10.3844    140.2185     21.3854   4.9659271204e+01   4.7597019947e+01    0.2715441    0.1142888  58.50  0.001119122    2.062    0.515
        86 -11.3675    122.0256    127.1459   8.6651557027e+01   3.2590265582e+01    0.3735933    0.3502349  18.53  0.001573603    1.124    0.110
        87  -9.6715    208.5235     18.5361   3.9335134190e+01   3.1137219109e+01    0.1322671    0.1124174 -75.63 0.0008088459    1.036    0.034
        88 -10.7386    194.0864    113.0743   6.6092896102e+01   1.9875514795e+01    0.2759558    0.2156542  58.10  0.001267838    1.404    0.288
        89 -11.7535    141.4140     96.5389   7.3394569696e+01   3.5236463742e+01    0.4741319     0.275602 -22.47  0.001725755    2.469    0.595
        90 -12.5820    134.9099     94.7786   7.4562133268e+01   3.7060898155e+01    0.7813926    0.2512696 -41.99  0.002393521    3.056    0.673
        91 -11.1012    241.7905     22.5479   3.7185172614e+01   2.3171656636e+01     0.262848    0.1860339 -57.26 0.0006179113    1.202    0.168
        92 -10.5311    113.9015     97.1190   8.1027957565e+01   4.1040809488e+01    0.2418022    0.2123349 -77.98 0.0008512182    1.336    0.252
        93 -12.0755    188.6490     94.4099   6.2307658764e+01   2.4616976795e+01    0.3140062    0.2911131  69.61   0.00026824    1.135    0.119
        94 -15.0695     96.6469     71.0338   7.8252665560e+01   4.9891533533e+01     1.352886     1.130748  13.38   0.00224451    1.245    0.197
        95 -14.6215     36.3556     85.1195   1.0357356101e+02   5.5482848926e+01     1.305028    0.9552364 -43.94  0.007612501    1.182    0.154
