#   1 NUMBER                 Running object number                                     
#   2 MAG_AUTO               Kron-like elliptical aperture magnitude                    [mag]
#   3 X_IMAGE                Object position along x                                    [pixel]
#   4 Y_IMAGE                Object position along y                                    [pixel]
#   5 X_WORLD                Barycenter position along world x axis                     [deg]
#   6 Y_WORLD                Barycenter position along world y axis                     [deg]
#   7 A_WORLD                Profile RMS along major axis (world units)                 [deg]
#   8 B_WORLD                Profile RMS along minor axis (world units)                 [deg]
#   9 THETA_WORLD            Position angle (CCW/world-x)                               [deg]
#  10 FWHM_WORLD             FWHM assuming a gaussian core                              [deg]
#  11 ELONGATION             A_IMAGE/B_IMAGE                                           
#  12 ELLIPTICITY            1 - B_IMAGE/A_IMAGE                                       
         1  99.0000     30.4369     22.5652   5.6185988106e+01   7.0643058122e+01     1.075946     0.664602 -51.86    0.0058429    1.689    0.408
         2  99.0000     42.3332     20.9326   4.8718272683e+01   6.9326361964e+01     1.141329    0.6244182 -26.00  0.005481953    1.989    0.497
         3 -13.6048     81.1732     41.9216   4.1529007885e+01   5.8794889987e+01     1.821332    0.7446184  53.13  0.006557315    2.916    0.657
         4 -12.7854     66.6387     15.8606   3.4769728468e+01   6.5813733636e+01     1.331205    0.8507366  17.62  0.006533193    1.850    0.460
         5 -12.0137     74.6955      5.5115   2.6277722271e+01   6.5355241996e+01     1.049365    0.6143311  80.63   0.00231467    3.022    0.669
         6 -12.9348     57.2584      4.5257   3.2226861380e+01   6.9094482240e+01    0.7055644    0.4698758  57.43  0.001401821    1.719    0.418
         7 -12.1771     52.6293     34.5550   5.0169449987e+01   6.5321422933e+01     1.812012    0.7122843  29.23  0.004680022    3.387    0.705
         8 -13.1291     55.1841     20.1214   4.1933642344e+01   6.7360928794e+01     2.135625    0.9978273 -49.26  0.008628692    3.010    0.668
         9 -14.4964    125.5348     88.3066   4.3916975930e+01   4.0039999668e+01     3.151112     1.873797  67.46    0.0117233    2.477    0.596
        10 -12.7753    249.8088     73.8121   1.7610831238e+01   1.4258157981e+01     1.246298    0.2361455 -31.38  0.001023992    4.462    0.776
        11 -12.0122    236.4432     38.0552   1.0538513652e+01   2.1621801282e+01     1.335749    0.8803651 -68.75  0.004458588    1.575    0.365
        12 -11.8459    210.7019     21.0013   8.5803253010e+00   2.9458817667e+01    0.5685629    0.4379068  78.26  0.001587386    1.295    0.228
        13 -14.7046    211.8755     59.4890   1.8623078719e+01   2.4280088920e+01     3.071151     1.831491  70.33  0.001493688    1.874    0.466
        14 -14.0791    197.5556     42.4560   1.5847346562e+01   3.0020052394e+01     2.004904     1.423855 -41.66   0.01015777    1.305    0.234
        15 -12.8805    221.8422     38.8294   1.2125525384e+01   2.4751150599e+01     1.122297    0.6273287 -64.96  0.001022766    2.019    0.505
        16 -13.5666    226.9502     20.3225   7.0239278605e+00   2.5779763129e+01     1.267188    0.7794899   4.81  0.004589204    2.814    0.645
        17 -12.0416    221.7831      9.1715   4.6529755400e+00   2.8142228636e+01    0.8514143    0.2562743 -39.75  0.003518933    2.535    0.606
        18 -13.9658    243.3346      8.2715   3.0322588734e+00   2.3498849953e+01     1.391559    0.5620444 -75.81  0.005960429    3.044    0.671
        19 -14.0562     10.4008     69.6129   8.1328963966e+01   6.1928630815e+01      1.39653     1.084674 -52.22  0.004875198    1.147    0.128
        20 -13.8978     29.2780     67.3696   7.2485185675e+01   6.1066625442e+01      1.84697     1.038577 -67.89  0.009093899    1.677    0.404
        21 -12.7800     25.1364     40.9128   6.6808161618e+01   6.7499128333e+01     1.650265    0.4698401 -47.73  0.006385646    2.799    0.643
        22 -12.4431      3.2783     28.1460   7.5315537552e+01   7.1833156565e+01    0.9364999    0.4690983 -26.71  0.004950936    2.046    0.511
        23 -13.7614     49.8278     52.3602   5.8635212234e+01   6.2147885642e+01     1.662488     1.150795 -11.64  0.006673301    1.807    0.447
        24 -13.7894     11.6599     36.4799   7.2878059012e+01   6.9538484001e+01     1.502984    0.7812592 -35.81  0.003764075    1.803    0.445
        25  99.0000    201.5141     18.8899   8.8716038678e+00   3.1905659736e+01    0.9194205    0.7600479 -63.08  0.005443646    1.089    0.082
        26 -14.1295    189.3785     56.7770   2.1029509572e+01   3.0028419715e+01      1.85804     1.230021 -28.76  0.004951754    1.518    0.341
        27 -11.9109    189.5170     23.0494   1.1283569595e+01   3.4414190626e+01    0.7473367    0.4446348  70.00  0.002498227    1.635    0.388
        28 -11.3069    148.5051     39.9073   2.2679260603e+01   4.2904872395e+01    0.8406465    0.3598885 -35.97  0.003198887    2.264    0.558
        29 -11.8736    160.7786     38.2711   1.9941646863e+01   3.9927527222e+01    0.8301237    0.3773705 -20.80   0.00302215    2.754    0.637
        30 -11.7527    241.7459     22.1185   6.3293411155e+00   2.2351187715e+01    0.4698087    0.3339765 -83.28  0.002851446    1.416    0.294
        31 -10.7408    176.0062     24.7664   1.3412201866e+01   3.7662796934e+01    0.4096199    0.2140969 -18.72  0.001723431    2.263    0.558
        32 -10.3519    154.0316     16.0806   1.3576268000e+01   4.4383049558e+01    0.2620182    0.2448583  23.36 0.0008992251    1.194    0.163
        33 -10.5711    134.8042     25.1522   2.0026786201e+01   4.8422761045e+01    0.4198228    0.2398213  70.60  0.001542754    1.784    0.439
        34 -10.9729    171.0659     18.3511   1.2043298496e+01   3.9667543120e+01    0.5857035    0.3146399  14.16  0.002107788    3.622    0.724
        35 -10.2830    131.1940     10.3320   1.5054614327e+01   5.0994267252e+01    0.5333921    0.3344032 -35.83  0.002592425    1.658    0.397
        36 -11.8930    116.0780      9.7923   1.7636171380e+01   5.4971069870e+01    0.4443513    0.3016332   1.51  0.001474096    1.766    0.434
        37  -8.2019    124.2310     10.2603   1.6258623594e+01   5.2820006447e+01     0.445389    0.2539044  21.35  0.001876016    2.397    0.583
        38 -10.1923     93.9438     11.8099   2.3718204891e+01   6.0260706993e+01    0.2089628    0.1622117  35.23 0.0002839896    1.230    0.187
        39 -10.2366     88.5233     11.4533   2.5063180929e+01   6.1579299156e+01    0.2488145     0.134169 -24.31  0.001140075    1.930    0.482
        40 -13.0135    173.0382      6.9760   8.2693801842e+00   4.0317459910e+01    0.4680874    0.3106845  -3.93  0.001373479    1.943    0.485
        41 -10.6179    109.6181     10.0708   1.9110265764e+01   5.6586330161e+01    0.2956612    0.2475924   0.62  0.001206667    1.289    0.224
        42 -12.9232     72.6579     24.7089   3.6922260974e+01   6.3340043125e+01    0.6882727    0.5836197 -19.18 0.0006135093    1.149    0.130
        43 -11.1528     26.9631      9.6736   5.1374605388e+01   7.3324870978e+01    0.2441255    0.1807472  -5.37 0.0005757377    1.275    0.216
        44  -9.6957    165.5647      9.3104   9.8354218319e+00   4.2036911001e+01     0.181713    0.1375202  -2.31 0.0009478033    1.621    0.383
        45 -11.8901    193.4780      7.4682   6.4453975832e+00   3.5078261321e+01    0.2625395    0.2415706  88.28 0.0006850836    1.102    0.092
        46  -9.7831    156.5567      7.6658   1.0385360330e+01   4.4559626206e+01    0.1769828    0.1264642 -41.20 0.0009155018    1.413    0.292
        47 -11.1261      2.8713      6.0171   6.6637059635e+01   7.6320850071e+01    0.2358421    0.1648361  -2.05 0.0008609333    1.422    0.297
        48  -9.5684    210.7912      5.9385   4.6323212190e+00   3.1025849148e+01    0.1607638   0.09903629 -27.54 0.0005771784    1.630    0.386
        49 -10.2835    146.3250      5.6187   1.1010257402e+01   4.7448863212e+01    0.2423124    0.1792049  49.46 0.0007116429    1.352    0.260
        50  -9.7508    142.7135      3.0288   1.0572662185e+01   4.8631756721e+01    0.2716293    0.2421203  51.43  0.001594755    1.132    0.117
        51  -9.7144     91.3043      6.7275   2.1980698961e+01   6.1418249992e+01    0.1292241    0.1051771 -69.96  0.000265257    1.538    0.350
        52 -11.6098     79.5867     22.3924   3.3262498831e+01   6.2223375235e+01    0.6503744    0.6096306  80.11  0.003327854    1.282    0.220
        53  -9.5130     13.5598      6.0305   5.8423293363e+01   7.5441833689e+01    0.1712551   0.07548067 -30.31 0.0004015968    2.360    0.576
        54  -9.7649    101.8456      4.0500   1.8134760819e+01   5.9104723419e+01    0.2494562    0.1673601 -42.69  0.001266482    1.679    0.404
        55  -9.5817     97.5070      5.3979   1.9771470098e+01   6.0049237446e+01    0.1360519    0.1241721  52.83 0.0001352023    1.048    0.046
        56  -6.8969    183.3063      3.5504   6.2328564271e+00   3.8008364484e+01    0.4050424    0.2056854 -59.96  0.001542578    2.029    0.507
        57 -10.9985    187.0291      1.4165   5.2871344594e+00   3.7264931063e+01    0.2585129    0.1281338  69.70 0.0004512022    1.864    0.464
        58 -10.6856    112.3409      4.0376   1.5929397073e+01   5.6463579139e+01    0.2651127    0.1900108  67.39  0.000638907    1.300    0.231
        59  -9.3225     19.4391      3.9703   5.2919890604e+01   7.5162769894e+01    0.1447052    0.1046839 -63.63 0.0008036447    2.351    0.575
        60 -11.1816    217.2044      2.4418   3.2887875567e+00   2.9866293528e+01    0.2904635    0.2084774  61.12  0.001378531    1.536    0.349
        61  -9.6785    207.3188      2.8580   4.0851853879e+00   3.2151536375e+01    0.1675199    0.1183761  -8.75 0.0008589734    1.786    0.440
        62 -12.3702     86.6082      1.3700   2.0559287722e+01   6.3036367840e+01    0.4836814    0.1199899  62.02  0.001185569    3.613    0.723
        63 -11.6827     49.0038      1.4876   3.4015187584e+01   7.1014558197e+01    0.4491419    0.1335581  49.44 0.0008373192    3.241    0.691
        64 -10.5392    250.0483      1.4308   1.1307545633e+00   2.2792298180e+01    0.1564576    0.1047539 -87.03 0.0003431975    1.460    0.315
        65 -12.2892     71.6619     73.0526   5.6533694471e+01   5.4213490118e+01      1.12633    0.6855037  34.46  0.005145619    1.747    0.428
        66 -10.8361     70.9899     88.0159   6.1103308286e+01   5.0834518003e+01    0.3477472    0.3156423 -65.79  0.001240487    1.077    0.071
        67 -12.4609     67.0116     82.6612   6.1101003394e+01   5.2733412742e+01    0.6499596    0.5540777 -87.80  0.003496999    1.323    0.244
        68 -11.5802     11.9666     97.3075   8.4791642652e+01   5.5027660411e+01    0.2727852     0.230273 -63.43  0.001020108    1.115    0.103
        69 -11.2259     13.5033     93.5640   8.3749423603e+01   5.5856661057e+01     0.228405    0.1921795 -41.69 0.0001034082    1.280    0.219
        70  -9.9033    232.5497     96.4890   2.5031747573e+01   1.4429151483e+01    0.1355982    0.1186865 -25.10 1.727735e-05    1.035    0.034
        71 -10.2680    222.4559     95.4651   2.6230786523e+01   1.6621180304e+01    0.1383274    0.1241052 -27.70 0.0001405861    1.014    0.014
        72 -13.8340    195.5755     85.2580   2.7877985442e+01   2.4104864058e+01     1.796335     1.090214 -38.88  0.006313366    1.540    0.351
        73 -11.7291     88.9328    114.9238   6.1741099959e+01   4.1358457444e+01    0.4301744    0.2852037  51.08  0.001860933    1.579    0.367
        74  -9.5262    245.8350    113.7702   2.7129199958e+01   9.4168077049e+00    0.1658738    0.1361027 -45.37 0.0003723601    1.288    0.224
        75  -9.5521    242.3988    112.2461   2.7266993082e+01   1.0254108330e+01    0.1731985    0.1074736 -38.26 0.0002440928    1.442    0.307
        76 -11.2817    138.7399    112.3695   4.7104029856e+01   3.2037995811e+01     0.283347    0.2032689  35.30 0.0009153091    1.472    0.320
        77 -11.0476     96.1672    111.0322   5.8621108709e+01   4.0996983804e+01    0.4017788    0.1524025 -41.99  0.001271736    3.230    0.690
        78 -11.7479    211.1638     47.4881   1.5547271467e+01   2.6095277852e+01    0.4717927    0.3239642 -72.39 0.0008095047    1.613    0.380
        79 -13.0278    233.8362     48.6241   1.3347618254e+01   2.0856547902e+01     1.147861    0.8446429 -84.48  0.004362555    1.499    0.333
        80 -11.9775    215.3710     42.1898   1.3673797155e+01   2.5809566346e+01    0.3497015    0.2611318 -41.08 0.0003995414    1.203    0.169
        81 -11.3843     63.3088    110.8236   6.9073167362e+01   4.6389055105e+01    0.2901235    0.1751413  55.92  0.001297716    1.901    0.474
        82 -10.1821    118.3253    110.3209   5.1985017636e+01   3.6825736759e+01    0.1569348    0.1242448  -4.13 0.0005643152    1.681    0.405
        83 -10.3465     50.3630    109.8262   7.3228922771e+01   4.8328227817e+01    0.1877518     0.165426  64.52 0.0003184732    1.151    0.132
        84 -10.6533     38.2767    110.0154   7.7369607584e+01   4.9636986314e+01    0.2011194    0.1607928 -74.73 0.0006779659    1.116    0.104
        85 -12.9634     56.4858     94.8553   6.8037201141e+01   5.1288480244e+01     0.553188     0.393057  59.94 0.0006419719    1.628    0.386
        86 -10.5841    172.4200     91.3033   3.3780965692e+01   2.8466862866e+01    0.3531146    0.2604254  84.43  0.001591457    1.816    0.449
        87 -10.3648    168.0483     89.8561   3.4269790991e+01   2.9761210475e+01    0.3316939    0.2280625  61.33  0.001158625    1.581    0.368
        88  -9.6462     79.5410     90.9698   5.8892720041e+01   4.8719301753e+01    0.2153851    0.1408946 -51.93 0.0004078049    1.462    0.316
        89 -10.4503     21.8241     91.1705   8.0278603602e+01   5.5855996361e+01    0.1837734      0.13844 -46.57  0.001065316    1.320    0.243
        90 -13.9807     43.2778     75.5285   6.8516822981e+01   5.7657243664e+01     1.737475     1.009527 -32.96  0.006634958    2.044    0.511
        91 -13.0716     10.0472     82.6088   8.3551652655e+01   5.8778388413e+01    0.8491378    0.3439342 -62.24  0.003004301    1.927    0.481
        92 -10.8244    196.3134    107.7286   3.3524352678e+01   2.0173423531e+01    0.4373622    0.3101143 -65.37    0.0020297    1.922    0.480
        93 -10.4445    191.6461    103.2358   3.3244512468e+01   2.1964507181e+01    0.3827442    0.1812735 -44.71  0.001504367    2.140    0.533
        94 -12.4208     55.2279     72.1870   6.2706987883e+01   5.6932577140e+01    0.6458229    0.3980697 -66.83 0.0005814712    1.793    0.442
        95 -12.1642    161.0831    105.8273   4.0102166321e+01   2.8375738938e+01    0.4644229    0.3436352  89.93  0.001616428    1.974    0.493
        96 -11.1047    153.1523    108.2052   4.2530634945e+01   2.9700208857e+01    0.2297382     0.210529   7.17 0.0005223187    1.166    0.142
        97 -10.0772    210.0005    105.6903   3.0658015103e+01   1.7600584384e+01    0.2556355    0.1877622 -54.41  0.001058852    1.538    0.350
        98 -12.4520     14.2965     45.7388   7.4143328734e+01   6.7300462772e+01    0.5956644    0.3912913 -58.01  0.001871913    1.275    0.215
        99 -10.8766    183.3938    103.1124   3.4766666332e+01   2.3825912224e+01    0.3556526    0.2304776 -32.62  0.001624702    1.523    0.343
       100 -12.3496     60.4564     64.8115   5.8305592109e+01   5.7863003935e+01     0.846588    0.4755394 -22.72  0.003221187    2.938    0.660
       101 -11.8835     57.3934     59.6031   5.7847701320e+01   5.9480789980e+01    0.3948863    0.3230945 -76.49 0.0005504097    1.488    0.328
       102 -12.6452     39.5178     55.9579   6.4603376722e+01   6.2666355477e+01    0.7684146    0.3473519 -55.13  0.003382679    1.965    0.491
       103 -12.3744     34.7741     52.5991   6.5784350011e+01   6.3952478031e+01     0.323458    0.2503596 -44.11 0.0003287282    1.135    0.119
       104 -11.8110    222.8589     88.0645   2.4373339292e+01   1.7660927679e+01    0.4153476    0.2450546  63.51  0.001978648    2.018    0.505
       105 -11.8987     48.5317     85.4912   6.8854412740e+01   5.4610826982e+01     0.400414    0.2069933  26.23  0.001766689    2.192    0.544
       106 -12.2406     52.2900     86.2750   6.7596699352e+01   5.3947870784e+01    0.5475478    0.3058786 -26.92  0.001640105    2.761    0.638
       107 -10.8665     55.0389     81.9726   6.5464164374e+01   5.4631766942e+01    0.2231891    0.2071108  26.18 0.0003222368    1.169    0.144
       108 -11.9646    236.4659     86.1527   2.2073256087e+01   1.5159357413e+01     0.516374     0.312288  74.95  0.001509297    2.355    0.575
       109 -13.3949    161.6520     84.8580   3.4191659657e+01   3.2200086605e+01     1.634931    0.8314282  31.90  0.005437862    3.172    0.685
       110 -11.3427    168.5136     80.4692   3.1515040066e+01   3.1327594793e+01    0.2959946    0.2755525 -76.69 0.0008151126    1.120    0.107
       111 -11.4957    167.1500     76.8341   3.0732476064e+01   3.2293999071e+01    0.2947595    0.2716444   3.79  0.000310947    1.185    0.156
       112 -10.8102    175.3530     86.2155   3.1794765897e+01   2.8676957888e+01    0.4294252    0.1981867  44.79  0.001077395    2.338    0.572
       113 -10.9833    180.6004     82.8749   2.9873300456e+01   2.8006326411e+01    0.3544964    0.3431118  42.26  0.001058122    1.073    0.068
       114 -12.9719    177.1872     71.7386   2.7348385250e+01   3.0695650339e+01     1.454042    0.4421998 -44.04  0.002576583    3.379    0.704
       115 -11.6741    165.4349     66.0402   2.7854910308e+01   3.4546504977e+01    0.8711771    0.5706536  49.55  0.003944855    1.555    0.357
       116 -11.7294    147.6185     83.5532   3.6932872920e+01   3.5819890928e+01    0.6537517    0.4341927 -49.59  0.002191205    1.572    0.364
       117 -13.1891      4.8511     54.3681   8.1047822077e+01   6.5851883559e+01    0.9954511    0.5859931 -66.33    0.0039764    1.389    0.280
       118 -11.1212    144.6673    103.1601   4.3207019894e+01   3.2633357386e+01    0.3837669     0.308944  21.53  0.001831294    1.442    0.307
       119 -12.6265    215.1206     83.3309   2.4313042513e+01   2.0032354766e+01    0.4452622    0.3575673  59.13   0.00246671    1.365    0.268
       120 -11.5510    213.5963     77.2255   2.2984240413e+01   2.1294138886e+01    0.3102122     0.147734 -43.17  0.001307063    1.956    0.489
       121 -11.8020     83.3517     83.8309   5.5573972660e+01   4.9715877491e+01    0.2749446     0.248731  46.24  0.000340068    1.146    0.128
       122 -12.2741    200.6442     76.6183   2.4760990248e+01   2.4319676450e+01    0.5280315    0.2868529  73.78  0.002110495    2.565    0.610
       123 -12.2499    222.7739     79.6486   2.2313573207e+01   1.8935145806e+01    0.3547356    0.2751391  78.27  0.001465541    1.534    0.348
       124 -10.3225    232.0241     78.6013   2.0840566912e+01   1.7145214169e+01    0.2450416    0.1356863  72.47  0.001107305    2.447    0.591
       125 -10.5234    155.4071     76.6157   3.3104973061e+01   3.5212297825e+01    0.3236116    0.2686361  66.38  0.001004217    1.261    0.207
       126 -13.2616    117.1248     94.7617   4.8131667827e+01   4.0521975940e+01     1.086143    0.6409464 -69.34  0.003834664    2.848    0.649
       127 -11.0035    204.5212     79.5111   2.4922753126e+01   2.2979875317e+01    0.2507693    0.1921975  78.26 0.0009743455    1.533    0.348
       128 -12.1520    242.3918     61.6349   1.5579512106e+01   1.7361111830e+01    0.5103239    0.4008805 -69.80  0.003069126    1.363    0.266
       129 -13.3661    106.4298     95.8036   5.1556288699e+01   4.2533723322e+01     1.057086    0.5863001 -40.05  0.002060498    1.910    0.477
       130 -10.9946    100.2866     54.1501   3.9911894566e+01   5.2505142832e+01    0.5551686    0.4847015  29.48  0.002531364    1.167    0.143
       131 -11.3522     99.6274     47.7132   3.7649279763e+01   5.3807477175e+01    0.4993894    0.3093978  31.95  0.001511387    1.887    0.470
       132 -10.6928    248.1040     56.0647   1.3695701509e+01   1.6935991320e+01    0.2912149    0.2576114  37.82   0.00189283    1.389    0.280
       133 -11.1390    180.9740     52.3187   2.1028681732e+01   3.2768548650e+01    0.7116349     0.336067  64.13  0.002839842    2.174    0.540
       134 -10.8918    174.0531     54.7035   2.2865661267e+01   3.4160897879e+01     0.377376    0.2718271 -48.63  0.001007578    1.376    0.274
       135 -10.5683    170.3186     56.0549   2.3917464506e+01   3.4902053200e+01    0.2600267    0.2170005 -89.28  0.001032196    1.276    0.217
       136 -10.5838     69.6666     54.9652   5.1135881528e+01   5.8477008292e+01    0.3247002    0.2455454 -85.78   0.00153126    2.052    0.513
       137 -11.2935     90.4816     51.0447   4.1934660261e+01   5.5208032709e+01      0.24185     0.216992  40.08  0.000663466    1.118    0.106
       138 -12.3789    246.5736     42.0257   1.0579070762e+01   1.9010933206e+01    0.3552518    0.2352936 -62.59 0.0009127072    1.497    0.332
       139 -10.8288    245.5138     49.9981   1.2532932716e+01   1.8234759860e+01    0.3551758    0.1988074  71.42 0.0008401722    2.057    0.514
       140 -10.6411    247.9888     47.0829   1.1626110411e+01   1.8097702676e+01    0.4100367    0.2403281 -79.31  0.001388474    2.169    0.539
       141  -9.7798    179.3307     47.8781   1.9963758371e+01   3.3820507853e+01    0.2067979    0.1780346 -33.80            0    1.163    0.140
       142 -11.1034    167.6609     32.8098   1.7089444261e+01   3.8849143304e+01    0.5343542    0.4885301  -4.74  0.003000265    1.236    0.191
       143 -12.4128    172.3266     44.8620   2.0144339937e+01   3.6030706014e+01    0.7908764    0.6186713  38.66  0.002580962    1.442    0.307
       144 -11.6736    178.0321     37.5034   1.7029998780e+01   3.5565080523e+01    0.3901322    0.2814808   9.92  0.001077763    1.911    0.477
       145 -10.6100    164.9755     38.7671   1.9410529885e+01   3.8767979200e+01    0.3080142    0.2515553  72.95 0.0003838941    1.203    0.169
       146 -10.8129    126.2866     44.4748   2.9070899760e+01   4.7942440705e+01    0.8249497    0.4828527  84.32  0.002978176    2.905    0.656
       147 -10.6720    132.2189     39.8501   2.6001577727e+01   4.7130379491e+01    0.6462231    0.4901339 -73.28  0.002803507    1.588    0.370
       148  -9.9049    142.5919     45.9367   2.5933324858e+01   4.3560887523e+01    0.7381222    0.4164474  60.05  0.001741845    1.734    0.423
       149 -12.7230    136.6579     82.4490   3.9252006311e+01   3.8647159554e+01    0.8744503    0.6060002 -47.49  0.003933132    1.467    0.319
       150 -10.7777     41.1774     45.1641   6.0080955875e+01   6.4829248966e+01    0.2934158     0.238374  36.02 0.0008996913    1.378    0.275
       151 -11.0619     35.5334     42.5242   6.1921348047e+01   6.6068392059e+01    0.4872369    0.1980669  30.26  0.002090692    2.626    0.619
       152 -10.4333     39.6387     39.9526   5.8837464206e+01   6.6109919893e+01    0.5280051     0.292155 -40.99  0.002605581    1.643    0.392
       153  -9.6256    121.2713     45.2464   3.0596474247e+01   4.9073698237e+01    0.2368854    0.1672743 -72.27  0.001028952    1.943    0.485
       154 -10.6965     93.6474     42.6791   3.7540454341e+01   5.6009561933e+01    0.4097086    0.2504435 -24.62  0.001800382    1.847    0.459
       155  -9.9229    105.5365     43.4044   3.4167450888e+01   5.3174553826e+01    0.1468631    0.1404274  32.64 -8.574178e-06    1.017    0.016
       156 -10.8561     99.5955     41.0936   3.5014799923e+01   5.4931933524e+01    0.3497948    0.3100933 -84.30  0.001872705    1.346    0.257
       157  -9.9072    250.4316     37.6762   9.2519611216e+00   1.8751345968e+01    0.2437399    0.1500239 -22.86  0.001325207    1.677    0.404
       158 -10.9299    114.5252     27.9876   2.5536212782e+01   5.3268890453e+01    0.2501567    0.2015981  38.75 9.232096e-05    1.231    0.188
       159 -10.9338    112.8994     32.5604   2.7800417855e+01   5.3049174043e+01     0.474977    0.3053206  14.66  0.001940285    2.212    0.548
       160  -9.9904    108.5125     32.4343   2.8899140304e+01   5.4143400622e+01    0.3492407    0.2512276  41.89  0.001717722    1.368    0.269
       161  -9.8502    152.2626     33.7673   1.9898156307e+01   4.2754767623e+01    0.1838287    0.1620665  35.00 0.0003482233    1.228    0.185
       162 -10.5338    131.6368     33.4282   2.3757031616e+01   4.8182824852e+01    0.3055626    0.2089771 -64.15 0.0004580019    1.802    0.445
       163 -10.2159    122.5984     33.4471   2.5779171744e+01   5.0494976826e+01    0.2845411    0.1690749 -35.01 0.0009227448    1.711    0.415
       164 -11.2283     92.8218     32.8500   3.3655416067e+01   5.7775147687e+01    0.4225296     0.315126   4.43  0.001993615    1.589    0.371
       165 -10.4918     74.9049     33.6203   4.0249665460e+01   6.1481952984e+01    0.2780406    0.2288064  51.32 0.0009408381    1.316    0.240
       166 -11.9148    134.6446     71.2633   3.6257532088e+01   4.1271074987e+01    0.7660118    0.6101353  74.68  0.002654769    1.434    0.303
       167  -9.5936    140.8121     28.7193   2.0197235335e+01   4.6408270517e+01     0.191388    0.1570724 -59.14 0.0006929513    1.285    0.222
       168 -10.1067    128.6157     27.2412   2.2057140778e+01   4.9774112015e+01    0.4172393    0.1768985 -25.70  0.001401572    2.544    0.607
       169  -9.7194    104.4124     28.2599   2.8260703909e+01   5.5721314906e+01    0.3150752    0.1396865 -30.05 0.0006922062    2.317    0.568
       170 -11.5034     86.0357     28.4976   3.3925949986e+01   5.9942443070e+01    0.3629218    0.2516797  45.43 0.0007439031    1.386    0.279
       171 -10.6103    234.0089     24.9277   7.5841033592e+00   2.3698523924e+01    0.4301665    0.3183227  61.36  0.002575705    1.526    0.345
       172 -10.6961    246.6520     22.7014   6.1121322376e+00   2.1257686414e+01    0.2959381    0.1762662 -35.99  0.001234834    1.418    0.295
       173 -11.9277    160.9630     55.5711   2.5468209279e+01   3.7358928046e+01     1.102047    0.4933241 -33.82  0.004179685    2.193    0.544
       174 -12.8004    149.9481     63.9911   3.0370480303e+01   3.8781196533e+01     1.578675      1.03023  35.30  0.005854208    1.820    0.451
       175  -9.6730    159.9555     26.2822   1.6132517820e+01   4.1670506531e+01    0.2127479    0.1779053  68.88  0.001142421    1.144    0.126
       176 -12.3451    140.0808     56.2821   3.0016218205e+01   4.2564887048e+01     1.004596    0.9579318  -0.21   0.00374604    1.111    0.100
       177 -10.0862    149.1630     24.3478   1.7179643359e+01   4.4743421903e+01    0.4247431     0.249484 -61.16  0.001493065    2.055    0.513
       178 -10.2713    150.8011     21.0219   1.5760439210e+01   4.4695352386e+01    0.2904791    0.2126245 -18.43   0.00122731    1.519    0.342
       179 -12.8678    101.5537     77.6698   4.7661178163e+01   4.7529267791e+01     2.232951    0.9332324 -31.04  0.005063013    4.355    0.770
       180 -11.5851     98.4036     21.9554   2.7167651324e+01   5.7997537616e+01    0.5930263    0.2748963  61.30  0.002130659    2.231    0.552
       181 -10.7987    104.7467     20.2035   2.4695026739e+01   5.6679441527e+01    0.3988959    0.2700265  71.37  0.001123387    1.625    0.385
       182  -9.9098    163.0154     21.2476   1.4032809729e+01   4.1451431495e+01     0.280919    0.1919814  30.59 0.0007483361    1.838    0.456
       183 -14.1338    116.7035     63.2996   3.8335740791e+01   4.7047359669e+01     1.281681     1.071999  68.93  0.002840773    1.312    0.238
       184  -9.8723    123.6145     26.6727   2.2906877479e+01   5.1134502674e+01    0.4764667    0.2062642 -36.40  0.001858879    2.312    0.568
       185 -11.0148    130.0550     19.3523   1.8738288268e+01   5.0343057207e+01    0.2848209    0.2395315  83.37 0.0004518153    1.206    0.171
       186  -9.9637     19.8249     19.2272   6.1089506906e+01   7.2429640862e+01    0.1879862     0.180971 -12.37  0.001281451    1.261    0.207
       187 -10.0145     13.9701     19.1332   6.4885271758e+01   7.2978295634e+01    0.2369832    0.2014914  45.87  0.001581463    1.583    0.368
       188 -10.5797    168.4192     26.4100   1.4942644693e+01   3.9438746509e+01    0.2846421    0.2444972 -59.37  0.001282529    1.133    0.118
       189 -10.7319    150.1213     12.9235   1.3048116955e+01   4.5743660005e+01    0.2526004     0.190736 -75.79  0.001005137    1.377    0.274
       190 -10.2021    124.9963     16.4496   1.8581992317e+01   5.1981121981e+01    0.2643835     0.177112 -39.47 0.0006008652    1.569    0.363
       191  -9.7732    121.1722     17.1618   1.9635451903e+01   5.2891666325e+01    0.1931093    0.1588324 -85.02  0.000489253    1.336    0.251
       192 -10.9900     93.9271     16.1928   2.5786930485e+01   5.9768378419e+01    0.3410019    0.1913317  43.55  0.001566021    1.695    0.410
       193  -9.7329    103.7259     15.3530   2.2812104026e+01   5.7496197417e+01    0.2212641    0.1143298  52.27 0.0009671532    1.742    0.426
       194  -9.0760     36.6530     14.2638   4.8211274053e+01   7.1264721750e+01    0.1109013    0.1026353  70.15 0.0006978954    1.607    0.378
       195 -10.1299    187.2667     13.1427   8.6506809123e+00   3.6061653092e+01    0.2520621    0.1433394 -69.23  0.000338441    1.887    0.470
       196  -9.4805    159.7457     13.7194   1.1997421589e+01   4.3122681903e+01    0.1339427    0.1030052  37.64 0.0001900865    1.468    0.319
       197 -11.7475    127.1775     58.8918   3.4005925191e+01   4.5334275053e+01    0.6066397    0.3091015  37.55  0.002223401    2.419    0.587
       198 -12.8924     91.7705     67.6098   4.7539687716e+01   5.1668951668e+01     1.346171    0.9623156  78.23  0.005823348    2.147    0.534
       199 -11.9401     90.9360     59.4501   4.4943217701e+01   5.3499055566e+01    0.8949503    0.5522047  65.95  0.001928264    2.453    0.592
       200 -10.7687     36.3336    248.4954   8.9885070342e+01   1.9764835272e+01    0.1656975   0.08894222 -83.08   0.00109292    1.994    0.498
       201 -11.2910    113.5103    246.0987   7.5126610761e+01   1.0605988479e+01    0.2468045    0.1904287 -29.83  0.001374683    1.848    0.459
       202 -10.1202    180.4974    243.4992   6.2218655048e+01   1.6152838917e+00    0.1155879   0.08764428  25.32 -0.0001271843    1.024    0.024
       203  -9.2021    236.6792    146.2704   3.5461610516e+01   6.3384255609e+00    0.1134284    0.1009409 -59.46 0.0002258401    1.566    0.361
       204 -10.1397    152.9411    124.0522   4.6568569288e+01   2.6553589984e+01    0.2161908    0.2142024   3.51  0.001192726    1.021    0.020
       205  -9.5535    220.5041    121.4114   3.2641002388e+01   1.2982630602e+01    0.1358641    0.1221738 -13.01 7.742677e-06    1.019    0.019
       206 -10.3589     57.7556    119.9688   7.2602027929e+01   4.4856238237e+01     0.217319    0.1812205 -46.09 0.0007785989    1.285    0.222
       207 -11.7254     49.3071     28.6285   4.9015155176e+01   6.6922454862e+01    0.6613899     0.337033  28.99  0.003008109    2.196    0.545
       208 -10.6831    181.4491    116.8239   3.8609232458e+01   2.1786339947e+01    0.4429578    0.2190605 -46.66  0.001751172    2.153    0.535
       209 -12.8061     79.8073     59.1159   4.8772570734e+01   5.5773409347e+01    0.8615466    0.5975945  25.68  0.003415353    1.653    0.395
       210 -13.1683     79.7354     50.5513   4.5564709206e+01   5.7489234744e+01     0.875431    0.5255976  28.11   0.00380026    2.009    0.502
       211 -10.4140    203.6911    116.0213   3.4228472466e+01   1.7214034348e+01    0.3688481    0.2137656  64.50  0.001551408    2.468    0.595
       212 -10.1789    165.1621    102.1477   3.8233980480e+01   2.8149763720e+01    0.2146222    0.1827293 -65.15 0.0008424277    1.316    0.240
       213 -10.0700    242.8698    101.0593   2.4685403300e+01   1.1777868266e+01    0.1953769    0.1661703 -21.77 0.0004495666    1.059    0.056
       214 -12.9199     85.7952     98.5492   5.8791143956e+01   4.5832639330e+01    0.7018804    0.4162197  29.13  0.002563488    1.968    0.492
       215 -10.8465     89.0994     93.9484   5.6491102986e+01   4.6322795764e+01    0.2620415    0.2408035 -22.34 0.0002734692    1.171    0.146
       216 -11.1938     33.9867    100.0565   7.7238886232e+01   5.2570528429e+01    0.3159468    0.1818922 -77.90 0.0008270491    1.688    0.408
       217 -10.8227    158.9415     99.1552   3.8790105660e+01   3.0155247268e+01    0.2695482    0.2171498 -48.72 0.0003104154    1.261    0.207
       218 -11.9611    153.4073     96.7648   3.9385080442e+01   3.1902869850e+01    0.7335671    0.5454226  49.70  0.002592067    1.354    0.262
       219 -10.6692    170.4738     97.7314   3.5928043684e+01   2.7750545914e+01    0.3459802    0.2864076 -50.96  0.001544229    1.240    0.194
       220 -12.0269     73.3073     96.7723   6.2538970023e+01   4.8357481041e+01    0.4578209    0.2838827 -46.04  0.002083345    1.603    0.376
       221 -11.1025    226.4292     97.7786   2.6205167453e+01   1.5458959695e+01    0.3255146    0.1822659  41.73  0.001527166    2.054    0.513
       222 -11.5595    199.8478     96.2780   3.0018794282e+01   2.1327104509e+01    0.3794317    0.2778151 -57.30 0.0009019705    1.552    0.356
       223 -13.3881     61.2159     89.5018   6.5039589079e+01   5.1950478936e+01    0.9055592     0.504092 -72.43  0.003745056    2.204    0.546
       224 -12.4381     48.6993     94.9677   7.0905427577e+01   5.2248238456e+01    0.4844041    0.2844928  34.79  0.001126275    1.805    0.446
       225 -12.4580     86.0108     72.9136   5.1285310386e+01   5.1670419311e+01    0.7350129    0.5711257  42.82  0.001332251    1.325    0.246
