#   1 NUMBER                 Running object number                                     
#   2 MAG_AUTO               Kron-like elliptical aperture magnitude                    [mag]
#   3 X_IMAGE                Object position along x                                    [pixel]
#   4 Y_IMAGE                Object position along y                                    [pixel]
#   5 X_WORLD                Barycenter position along world x axis                     [deg]
#   6 Y_WORLD                Barycenter position along world y axis                     [deg]
#   7 A_WORLD                Profile RMS along major axis (world units)                 [deg]
#   8 B_WORLD                Profile RMS along minor axis (world units)                 [deg]
#   9 THETA_WORLD            Position angle (CCW/world-x)                               [deg]
#  10 FWHM_WORLD             FWHM assuming a gaussian core                              [deg]
#  11 ELONGATION             A_IMAGE/B_IMAGE                                           
#  12 ELLIPTICITY            1 - B_IMAGE/A_IMAGE                                       
         1 -11.3327     73.1932     28.0226   5.4762106745e+01   6.0372145637e+01    0.7042732    0.4749056  37.84  0.004079167    1.261    0.207
         2 -11.1726     79.8740     43.9757   5.8449290792e+01   5.7014512768e+01     1.382428    0.7420425  14.26  0.005319339    3.272    0.694
         3 -10.8702     18.3406     28.1296   7.8516015507e+01   6.8396790517e+01    0.3676207     0.282391 -31.99 0.0008993183    1.319    0.242
         4 -11.8242     61.9778     21.1169   5.5960452085e+01   6.3225150783e+01    0.7043451    0.4593537 -26.96  0.001465249    1.662    0.398
         5 -10.3953     68.8078     16.8363   5.1826153446e+01   6.2441400252e+01    0.3534861    0.3145681  83.67  0.001917816    1.682    0.405
         6 -10.4610     72.5881     15.7651   5.0161663460e+01   6.1831609110e+01    0.2295848    0.2092727 -29.65 0.0006412052    1.392    0.281
         7 -10.8039     69.6209     11.5596   4.9425100513e+01   6.2807363870e+01    0.3476776    0.1864772  42.48  0.001066349    1.500    0.334
         8 -10.5951     40.8804     21.0717   6.4519141333e+01   6.6643788501e+01    0.3986731     0.296289  45.18  0.002024334    1.756    0.431
         9 -10.5397     36.2869     17.7467   6.5157934385e+01   6.7715908002e+01    0.3778281     0.216189  18.14  0.001198615    1.620    0.383
        10 -10.9008     50.5153     22.2228   6.0874238483e+01   6.5029491429e+01    0.3053026     0.216389   7.69   0.00044083    1.288    0.223
        11 -12.1617    105.0291     21.1593   4.3224643557e+01   5.4594195236e+01    0.2974111    0.2492541 -17.51 0.0004777303    1.372    0.271
        12 -10.9921     86.1784     22.3752   4.8571616770e+01   5.8458089036e+01    0.3754307    0.2680879  73.08 0.0004522777    1.907    0.476
        13 -10.3685    172.7427     22.4922   3.1827799233e+01   3.9104310058e+01    0.5174062    0.3600645  31.82  0.002284948    2.055    0.513
        14 -11.3730    182.5463     17.9631   2.9593837279e+01   3.7404536665e+01     0.350106    0.2842611  -6.96 0.0005158779    1.783    0.439
        15 -10.8995    174.4540     13.2084   2.9409044886e+01   3.9684522856e+01    0.6900603    0.3775559  61.05  0.003219868    1.623    0.384
        16 -10.7163    131.3582     21.7221   3.7932475701e+01   4.8634319487e+01    0.4752485    0.2782055 -25.78  0.002525444    2.036    0.509
        17 -10.7767    151.8851     18.1644   3.3576097053e+01   4.4292293106e+01    0.2870809    0.2649805 -41.04 0.0002644383    1.266    0.210
        18 -10.8239    116.5134     15.0059   3.8717131187e+01   5.2645084773e+01    0.4066659    0.2754803  71.78 0.0006753688    1.442    0.307
        19 -10.5118    165.7430     18.6379   3.1784710203e+01   4.1090373295e+01    0.4279779    0.2361356  38.71  0.001466322    2.521    0.603
        20 -10.0923    144.6101     12.7052   3.3184548546e+01   4.6480753232e+01    0.4241338    0.1384051  60.38  0.001183681    2.372    0.578
        21 -10.2282      7.9059      9.2439   7.6152938071e+01   7.2140059645e+01    0.4826804     0.218518  29.32  0.001955565    2.169    0.539
        22  -9.7741     14.2811     18.3368   7.6619740202e+01   7.0263285480e+01    0.5737989    0.3505353 -16.31   0.00349425    1.400    0.286
        23  -9.7587      1.3972      8.4571   7.9690003089e+01   7.2812731472e+01     0.436244    0.1662634 -50.19  0.002054891    3.687    0.729
        24 -11.1620      5.9456     16.2702   8.0437629744e+01   7.1317014339e+01    0.3348546    0.2498277  21.89   0.00132654    1.534    0.348
        25 -10.5478      9.3970     15.1854   7.7980495461e+01   7.1176161856e+01    0.2749537    0.1926036 -10.10 0.0005814707    1.072    0.067
        26 -10.3135    231.8502     16.1551   2.4670302628e+01   2.7362473177e+01    0.2654239    0.1821575 -63.84  0.001581043    1.183    0.155
        27  -9.2910    127.2829     15.9613   3.6962481953e+01   5.0126656295e+01    0.3282849     0.207377   5.76 0.0008109623    2.367    0.578
        28 -10.5704    210.7417     11.6771   2.5500340507e+01   3.2054227372e+01    0.4770536    0.2328697 -24.88   0.00244245    2.997    0.666
        29 -11.0465    207.9844      3.7421   2.4150052669e+01   3.3428087410e+01     0.405515    0.2162782 -66.56  0.002393461    1.746    0.427
        30  99.0000     85.3302     14.3636   4.5835628459e+01   5.9431604546e+01    0.4241276    0.2194054  55.01 0.0006470448    1.685    0.407
        31  -9.4562     88.9838     13.5103   4.4534770178e+01   5.8755609283e+01    0.3999611    0.1483619  56.66  0.001298618    2.326    0.570
        32  -7.7325     90.5100      9.1432   4.2547962569e+01   5.8822492284e+01    0.4175424    0.3459606  29.49   0.00281019    1.144    0.126
        33  -9.0199     87.6774      6.6958   4.2365165779e+01   5.9619447971e+01    0.1902314     0.146954  33.66  0.001053877    1.157    0.135
        34 -11.3832    132.9716     12.7641   3.5033762329e+01   4.9129051932e+01    0.2458376    0.2172245  47.58 0.0003067818    1.161    0.139
        35 -10.0576    244.3643     13.6272   2.3319371024e+01   2.5281355903e+01    0.3204534    0.1608594  51.45  0.001758392    3.079    0.675
        36 -10.8643    101.7558     11.3097   4.0636374690e+01   5.6232979889e+01    0.2968932    0.2601955  88.59  0.001026732    1.347    0.258
        37 -10.0163     96.9783     12.9358   4.2314182820e+01   5.7119010168e+01    0.2438035    0.1648718  43.07 0.0004084702    1.249    0.199
        38 -10.7122    107.1463      7.0897   3.8054797176e+01   5.5411017844e+01    0.5078799    0.1990636  54.61  0.001669516    1.945    0.486
        39  -9.9469    106.9352      2.0944   3.6448851972e+01   5.5848306531e+01    0.4300169    0.2073494  54.38  0.002282485    1.603    0.376
        40 -10.5779     31.0165     12.1529   6.5122255822e+01   6.9120736674e+01    0.3526248    0.2509332  31.56   0.00198738    1.397    0.284
        41  -8.4566    191.5807     11.2719   2.7157933469e+01   3.6127277869e+01    0.2647799    0.1684469 -41.12  0.001000053    1.639    0.390
        42  -9.4540    190.7233      6.8103   2.6277088707e+01   3.6754021532e+01    0.2120964    0.1942432 -64.15  0.000671466    1.252    0.201
        43 -10.2372    196.4496      3.5373   2.5066894483e+01   3.5850504399e+01    0.5281429    0.1587653  67.74  0.002420856    2.688    0.628
        44  -8.9918    124.9726     11.5524   3.6053302804e+01   5.1052780510e+01    0.1939135     0.180529 -15.25 0.0007165989    1.291    0.225
        45 -10.0755    124.8095      6.7691   3.4644440038e+01   5.1498926632e+01     0.437146    0.3010744  81.82   0.00259865    1.468    0.319
        46 -10.1737     54.4333      8.3874   5.3359542101e+01   6.5880550783e+01    0.3287655    0.2732416   7.47  0.001159253    1.165    0.142
        47  -9.9177    218.9431     11.2722   2.4749888891e+01   3.0433384461e+01    0.3414512     0.198227  88.26  0.002123005    1.520    0.342
        48  -9.3218    199.1358      9.8458   2.6143300677e+01   3.4660946460e+01    0.2550826    0.1339586  68.95   0.00112171    1.664    0.399
        49  -9.2295     51.3394     12.2373   5.6239224595e+01   6.6023988262e+01     0.295027     0.125068  39.04 0.0009094725    1.949    0.487
        50  -9.1267     44.1429      9.8187   5.8095228406e+01   6.7449852774e+01    0.2244856     0.126402   2.71  0.001207218    2.073    0.518
        51 -10.0116    165.2924      1.6808   2.7702158731e+01   4.2794153488e+01    0.2246172    0.1497258  76.34 0.0002988096    1.228    0.186
        52 -12.1328    156.0647      3.5587   2.9236681546e+01   4.4698053481e+01    0.3870926    0.2031987  49.56 0.0004619871    1.933    0.483
        53 -12.0455    159.9817      1.6949   2.8305918031e+01   4.3978023575e+01    0.4866889    0.2956458 -59.37  0.001421707    1.768    0.434
        54 -11.0840     37.9676      4.8151   5.8441949126e+01   6.8923072647e+01     0.304723    0.2445584 -10.49 0.0005927881    1.313    0.238
        55  -9.4748     42.9980      1.3456   5.4647452522e+01   6.8460878975e+01    0.3842969    0.2194999  58.40  0.001986915    2.817    0.645
        56 -11.2804     79.3902      4.3358   4.3654092255e+01   6.1511899000e+01    0.2483191    0.2186329  26.22 0.0004339278    1.145    0.127
        57 -10.5112     73.6851      5.6637   4.5796779818e+01   6.2542103597e+01    0.2749521    0.2090695 -13.13  0.001195323    1.477    0.323
        58 -11.0162     74.5202      2.5010   4.4292694723e+01   6.2632544198e+01     0.353179    0.2005414  54.75 0.0008772115    1.506    0.336
        59  -9.0757     48.7755      7.9764   5.5361752930e+01   6.6883793282e+01    0.1627528    0.1447325  18.36 0.0007640041    1.273    0.215
        60  -9.7114    171.2449      6.1902   2.8117943449e+01   4.1069255879e+01     0.282465    0.1713745  53.64 0.0007694442    1.666    0.400
        61 -10.3399     24.7731      6.8590   6.5723511975e+01   7.0562235233e+01    0.1958477    0.1596368  21.21 0.0004486126    1.354    0.261
        62 -10.0230     21.4785      5.5214   6.6782325772e+01   7.1131722198e+01    0.2506773    0.1415965  19.22  0.001041708    1.488    0.328
        63 -10.1423    232.4259      3.4829   2.2325743348e+01   2.8607798430e+01    0.3484265     0.208577 -31.50  0.002259337    2.063    0.515
        64  -8.1756    138.6649      6.7338   3.2426760954e+01   4.8364790376e+01    0.1253193    0.0769674  47.14 0.0002553747    1.587    0.370
        65  -9.0094     98.4729      6.1988   3.9613824382e+01   5.7370938489e+01    0.2167661     0.131673  42.32  0.001245391    1.426    0.299
        66  -8.6866     15.7415      8.0208   7.1099763662e+01   7.1501917305e+01    0.1583334    0.1149708  -5.05 0.0006107304    1.069    0.064
        67 -10.0877    238.8065      3.1746   2.1858056395e+01   2.7433834535e+01    0.2691123    0.1475729  73.81 0.0008534687    1.681    0.405
        68 -10.0543    218.4774      2.7907   2.3167544495e+01   3.1399822681e+01    0.2728474    0.2001074  64.98   0.00194839    1.494    0.330
        69 -10.0273     30.7279      2.7421   6.0770569349e+01   7.0201645743e+01    0.2323023    0.1645821 -33.49  0.001455952    1.831    0.454
        70  -9.9784     13.4147      2.8812   6.9885119444e+01   7.2385987692e+01    0.2341904    0.1765631 -34.25  0.001677864    1.740    0.425
        71  -8.7565     17.7752      2.4074   6.7220963946e+01   7.1938718743e+01    0.2197506    0.1162301  -2.21 0.0006933704    2.057    0.514
        72 -10.1551    179.6384      2.4380   2.6382786208e+01   3.9564355846e+01    0.4640242     0.171952  70.37  0.002246056    2.207    0.547
        73  -9.9965    135.2388      2.2386   3.1677710349e+01   4.9510187019e+01    0.3384888    0.2080322  74.29  0.001968298    1.411    0.291
        74 -10.5988     92.1870      2.4537   3.9725006393e+01   5.9005421973e+01    0.4039868    0.2074374  74.25  0.001884898    2.523    0.604
        75 -11.0055    249.8529      1.5831   2.0919634826e+01   2.5573171591e+01    0.1676511    0.1105172 -89.59  0.000339551    1.270    0.213
        76 -10.4636    115.6769      1.9298   3.4757454760e+01   5.3928125217e+01    0.2170656    0.1440113  59.81 0.0003237244    1.202    0.168
        77  -9.5043      5.2635      1.7241   7.4098950687e+01   7.3366816096e+01    0.2158697    0.1163075  13.35 0.0009200317    1.570    0.363
        78  -8.5613    126.5406      1.4466   3.2779462754e+01   5.1533274516e+01    0.1228104   0.09825043  62.58 7.002908e-06    1.027    0.026
        79  -8.8352     23.1574      1.4148   6.3866157954e+01   7.1374380408e+01    0.1419482   0.09137932  35.24 0.0006391672    1.565    0.361
        80  -9.5492     63.0759    120.0467   8.6924573366e+01   4.4363318974e+01    0.3350323    0.1915124 -10.31  0.001234458    2.869    0.651
        81 -10.1633    201.6707    249.2035   7.5536289945e+01  -6.3033160990e+00    0.3740428    0.2217117  -8.08  0.001466142    1.852    0.460
        82 -10.6754    115.9357    248.4133   9.3898833697e+01   5.8884020601e+00    0.2950859    0.2700756  66.58  0.001583025    1.222    0.182
        83  -8.9792     94.0823    119.1130   7.6510752042e+01   3.9747341303e+01    0.2467182    0.2005176 -12.51 0.0007460061    1.356    0.263
        84  -8.5639     57.6303    119.1435   8.8584582215e+01   4.5301293688e+01    0.2126083    0.1184027 -46.34 0.0004818391    1.649    0.394
        85  -8.3407      8.2232    106.7105   1.0365247105e+02   5.2886628613e+01    0.6573378    0.1406582 -43.79  0.002173519    3.917    0.745
        86 -10.5625     13.6399    113.1461   1.0277856117e+02   5.0991929065e+01    0.6102128    0.2412923 -53.01  0.002150379    1.967    0.492
        87 -10.0134      8.6330    113.2894   1.0453044676e+02   5.1263358073e+01    0.6851519    0.2523616  49.19  0.002348463    4.727    0.788
        88 -10.2425     34.6869    114.7166   9.5671862861e+01   4.8940051674e+01    0.4486647    0.2285168  51.63  0.001803449    2.902    0.655
        89  -8.5080    104.2311    115.3590   7.2419439161e+01   3.8776338514e+01    0.2073768    0.1432913  44.94 0.0003229899    1.514    0.340
        90  -9.1577     82.7028    115.2174   7.9204872593e+01   4.2604883821e+01    0.4065639    0.2092343  22.86  0.001531872    2.378    0.580
        91  -9.1181     46.3816    113.8177   9.1356136247e+01   4.7959780043e+01    0.2392039    0.2155565 -79.59 0.0007205442    1.246    0.197
        92  -8.6465     53.4677    112.5205   8.8568574382e+01   4.7448459209e+01    0.1445395    0.1325748 -38.33  7.04951e-05    1.028    0.028
        93  -8.2588    140.5425    111.5303   6.1297312482e+01   3.2256874245e+01    0.1517328    0.1498391 -17.18  0.000112431    1.008    0.008
        94  -9.2942     36.9816    110.2589   9.3966688572e+01   4.9815696834e+01    0.1853089    0.1436651  16.44 0.0003007443    1.396    0.284
        95  -9.8480     37.3688    106.8009   9.3105931068e+01   5.0618140249e+01    0.3573607    0.1750672 -49.11 0.0004683021    1.743    0.426
        96  -8.6858    134.7236    109.3438   6.2222847161e+01   3.3956316275e+01    0.1536052    0.1234525 -81.46 0.0005238476    1.625    0.385
        97  -8.8812    116.3316    108.2922   6.6983626058e+01   3.7998886976e+01    0.1580752    0.1210841  -0.19 0.0007022157    1.631    0.387
        98  -9.1339     91.8392    106.6942   7.4033542743e+01   4.3026555462e+01    0.2596606    0.1928628 -34.79  0.000455204    1.346    0.257
        99 -10.4491     31.5479    106.5505   9.5182067522e+01   5.1227323983e+01    0.3675122    0.2471885 -17.13  0.001195968    1.628    0.386
       100 -10.7079      5.8715    116.1032   1.0588036332e+02   5.0729828122e+01    0.5705089    0.3578463   0.14  0.003038096    1.898    0.473
       101  -9.0780    142.0047    103.6895   5.8890861255e+01   3.3564228033e+01    0.2159487    0.1938538  49.69 0.0006301628    1.121    0.108
       102 -10.0925     56.6212    100.8917   8.4679731999e+01   4.9824334728e+01     0.698761    0.3686905 -10.95  0.002418161    3.479    0.713
       103  -9.8359     50.5632     99.7901   8.6637375566e+01   5.0840634584e+01    0.3234235    0.2093014 -32.86 0.0008014906    1.519    0.342
       104  -9.4453     44.8320     99.7216   8.8756072001e+01   5.1522236733e+01    0.3615718    0.1891247  19.37  0.001166244    2.101    0.524
       105  -9.0937    100.6927    103.0244   7.0239411328e+01   4.2216769018e+01    0.2455015    0.2054608  -6.63 0.0005186778    1.286    0.222
       106 -10.2495    105.4719     99.9983   6.7939101031e+01   4.1951112981e+01    0.3525535    0.2242321  28.67   0.00152591    1.706    0.414
       107 -10.7079     70.6704    101.9962   7.9926303878e+01   4.7592466471e+01    0.3775415    0.3197177 -22.61  0.001084302    1.134    0.118
       108  -9.4443     40.5837    102.9171   9.1075611965e+01   5.1224550596e+01    0.2622068    0.1966794 -55.77  0.001412348    1.247    0.198
       109  -9.0772     77.3531    102.3021   7.7687226012e+01   4.6480481819e+01    0.2442377     0.168431 -15.70  0.001059081    1.754    0.430
       110  -9.2319     80.0678    100.5681   7.6294459336e+01   4.6430257386e+01    0.4029372    0.2338395  58.10  0.001504851    2.884    0.653
       111  -8.6845     87.2897    101.6723   7.4169794490e+01   4.4957162902e+01    0.1453012    0.1223305  83.11            0    1.618    0.382
       112  -8.8132     36.5215    100.0165   9.1943694956e+01   5.2324483173e+01    0.2166845     0.121737 -55.24 0.0006364831    1.576    0.366
       113 -11.5634    117.6776     98.0224   6.3807493118e+01   3.9905677040e+01    0.2829439    0.2587504  22.63 0.0003301453    1.080    0.074
       114  -9.2035    100.7050     98.4013   6.8960160241e+01   4.3215465323e+01    0.2712318    0.1822556 -24.50  0.001131855    1.753    0.430
       115  -8.5055     95.3189     99.7296   7.1027244411e+01   4.3942598355e+01    0.1447129    0.1212263  72.11 0.0006967763    1.562    0.360
       116  -8.7657     16.5213     98.9668   9.9266478777e+01   5.4228875350e+01    0.2059744    0.1132262 -61.55  0.001023987    1.566    0.361
       117  -9.2260      4.6919     98.0114   1.0351157895e+02   5.5154693290e+01    0.4428045    0.1477377  18.51  0.001859735    3.270    0.694
       118  -9.6230      3.6743     79.4948   1.0051385229e+02   5.9464934367e+01    0.4198651    0.1302504 -49.29  0.001111154    2.250    0.556
       119 -10.0930      2.5056     92.4414   1.0338668135e+02   5.6568087966e+01    0.4226007    0.2518491  67.46  0.001630487    2.619    0.618
       120  -9.8523      2.5379     85.7974   1.0218762294e+02   5.8097299635e+01    0.3833788    0.1516635 -51.81  0.001825036    1.853    0.460
       121  -9.7305    140.9469     96.3863   5.7212847242e+01   3.5250821682e+01    0.2756021    0.2329868  14.10 0.0009431859    1.356    0.263
       122  -9.9931    124.6068     96.6067   6.1492646957e+01   3.8741666308e+01     0.451924    0.2743766  58.38  0.001861217    2.009    0.502
       123  -8.5169    154.2980     96.3366   5.4065441056e+01   3.2313423799e+01    0.1498378    0.1188982   4.36 0.0005431252    1.655    0.396
       124  -9.5251     85.8534     95.5943   7.2969389297e+01   4.6544227484e+01    0.3080155    0.2357314  68.10  0.001170227    1.889    0.471
       125  -9.0446     42.1720     95.3785   8.8721616400e+01   5.2826514712e+01     0.242843     0.164631 -44.64 0.0007696113    1.300    0.231
       126 -10.8369     32.1102     92.8185   9.1996337800e+01   5.4427883055e+01    0.7381904    0.3520744 -53.21  0.003380093    1.784    0.439
       127  -9.8331     19.9786     81.6471   9.4260843515e+01   5.7977269805e+01    0.4148497    0.2884139  51.76   0.00223492    2.061    0.515
       128 -10.7340     23.3538     92.9994   9.5447177304e+01   5.5133463723e+01    0.5499739    0.2372076 -68.36  0.002239242    2.616    0.618
       129 -10.2257     25.8563     87.1948   9.3163708555e+01   5.6265073186e+01    0.3325739    0.3008143  88.60  0.001085349    1.410    0.291
       130  -9.5512     29.4497     85.5301   9.1325383084e+01   5.6330471328e+01    0.4756926    0.2273252 -46.25  0.001355294    1.752    0.429
       131  -9.1931     13.3772     93.7107   9.9456413351e+01   5.5672418603e+01    0.3269558    0.1881347 -45.77  0.001730838    1.423    0.297
       132  -9.5336     18.0407     90.9077   9.7081303117e+01   5.6013453097e+01    0.2416582    0.1738744  -4.88 0.0004105084    1.463    0.316
       133  -9.9530     47.3851     92.2983   8.5961352223e+01   5.2943493087e+01    0.3331795    0.2884245 -85.90  0.001447703    1.515    0.340
       134  -9.2516     44.5859     88.1817   8.5980749764e+01   5.4194235888e+01    0.2142946    0.1269973 -51.14 0.0005788804    1.556    0.357
       135  -9.7630    134.2132     91.9531   5.7687474504e+01   3.7589202420e+01    0.4325705    0.2448751  29.87  0.001655888    2.338    0.572
       136  -9.8195    108.7203     90.7318   6.4348306409e+01   4.3228154325e+01    0.6369049    0.3044573  27.00  0.001946036    3.235    0.691
       137  -8.7898    104.1161     90.3296   6.5616732288e+01   4.4232134989e+01    0.1985615    0.1820691  36.68 0.0003068719    1.096    0.087
       138  -9.3836    116.5103     89.5545   6.1754737077e+01   4.1856996478e+01    0.3312735    0.2545019 -34.82  0.001636538    1.336    0.252
       139  -9.2264     71.3823     91.2014   7.6744000645e+01   4.9895447823e+01    0.1977291    0.1375751 -57.76 0.0004141872    1.644    0.392
       140  -8.9426     61.9989     91.5246   8.0248665715e+01   5.1222152063e+01    0.2036825    0.1380685  27.91 0.0003444393    1.498    0.333
       141  -8.8786     53.1584     91.1376   8.3457290905e+01   5.2497619300e+01    0.2793859     0.187499  58.54  0.001262064    2.344    0.573
       142 -10.1313     86.0750     89.1886   7.1064941898e+01   4.7867136039e+01    0.4745829    0.3307515 -14.46  0.001626799    1.738    0.425
       143  -9.2887     87.0644     83.8286   6.9151977178e+01   4.8787347494e+01    0.2161291    0.2052007  -1.92 0.0004530981    1.062    0.059
       144  -9.0717     39.8878     88.7668   8.7971972403e+01   5.4580690347e+01    0.3456592    0.1515748 -42.73    0.0014658    2.039    0.510
       145 -11.6213    123.8853     85.6284   5.8603997338e+01   4.1045208024e+01     1.063615    0.4223658  43.54 0.0005159465    2.470    0.595
       146 -10.6323    120.5575     83.4713   5.8881968344e+01   4.2167691028e+01    0.6218016    0.2663876  46.04  0.002337227    2.254    0.556
       147 -10.0280     97.5979     88.8270   6.7203082764e+01   4.5809279016e+01    0.3227544    0.2417044  45.92  0.001045768    1.387    0.279
       148  -9.7700     58.1831     87.7203   8.0625345766e+01   5.2588534619e+01    0.2657354    0.1917475 -60.80 0.0009333954    1.619    0.382
       149 -10.9065     65.0951     85.7304   7.7475510050e+01   5.2030193370e+01    0.5769405    0.3784348 -26.61  0.002721598    1.602    0.376
       150  -9.5188     15.2013     86.5945   9.7300982999e+01   5.7197952190e+01    0.3947574    0.1761003 -38.41  0.001825227    1.991    0.498
       151  -9.6824    150.0444     80.0387   5.0694445498e+01   3.6246941192e+01    0.3740349    0.2587283  77.79   0.00123546    1.886    0.470
       152 -11.7213    155.1803     85.0981   5.0928335474e+01   3.4194515837e+01    0.2849999    0.2706825 -48.85 0.0002756756    1.066    0.062
       153 -10.8953    155.5288     78.8318   4.9197078337e+01   3.5214017228e+01    0.4741205    0.3241624  40.60  0.001248009    1.566    0.361
       154  -9.7614    110.4887     85.3713   6.2273755114e+01   4.3925448098e+01    0.2752655    0.2183288  40.71  0.001395726    1.223    0.182
       155 -11.2147     80.1484     83.1801   7.1316117278e+01   5.0141493035e+01    0.8158078    0.4437037  19.26  0.001171662    2.466    0.594
       156 -10.9102     73.6686     79.8537   7.2603371900e+01   5.1905207136e+01    0.7167803    0.4032781 -21.33  0.002680907    2.457    0.593
       157 -10.8940     38.8430     81.6251   8.6532422668e+01   5.6274127608e+01    0.3213886    0.2561048 -28.42 0.0005876489    1.093    0.085
       158 -10.2148     45.5450     69.4661   8.0298013308e+01   5.8048680099e+01     0.509571    0.2666258  36.39 0.0009670237    2.080    0.519
       159 -10.6735     51.8112     82.3802   8.1576854210e+01   5.4587059048e+01    0.3945852    0.2819089 -38.97 0.0008616312    1.278    0.217
       160 -10.1592     47.7126     63.9504   7.7666556478e+01   5.8853798827e+01     0.686706    0.4181246  56.78  0.002837352    3.461    0.711
       161 -10.7488     53.3111     70.7084   7.7520407403e+01   5.6795031662e+01    0.4188375    0.3252161 -65.25  0.001351978    1.783    0.439
       162  -9.3600     92.5019     79.7286   6.6121299163e+01   4.8586081577e+01    0.3437024    0.2296864  -3.76  0.001490988    2.091    0.522
       163 -10.4648    165.4800     71.5293   4.5309435341e+01   3.4171711370e+01    0.3148977    0.2169563 -53.86 0.0006411687    1.523    0.343
       164 -10.7654    166.8152     77.8808   4.6685056180e+01   3.2822720727e+01    0.2512849    0.2355477 -84.11 0.0002509704    1.035    0.034
       165 -10.1336    169.6151     74.2466   4.5232213807e+01   3.2794246163e+01    0.3086739    0.2369702 -26.31  0.001053003    1.510    0.338
       166  -8.7920    177.3120     78.3028   4.4848075713e+01   3.0400300854e+01    0.1352884    0.1109815  19.35 0.0002066587    1.611    0.379
       167 -10.1868    110.0760     74.6729   5.9205708422e+01   4.6006496428e+01    0.5498465    0.3046934 -56.57  0.002162132    2.637    0.621
       168  -8.9018     12.9117     77.8605   9.6326873942e+01   5.9306620913e+01     0.194701    0.1338917 -37.44 0.0002830676    1.198    0.166
       169  -9.5209    145.0879     75.8270   5.0643588619e+01   3.8095994653e+01    0.2808032    0.2109298 -32.70  0.001422865    1.428    0.300
       170 -10.4770    134.0898     76.2409   5.3320647562e+01   4.0503290839e+01    0.3713596    0.2395395  62.66 0.0007233712    1.743    0.426
       171  -9.8152    100.0500     76.1168   6.2629129075e+01   4.7797830648e+01    0.3238169    0.2032763 -37.01   0.00150225    1.646    0.392
       172 -10.8158     88.5590     74.0980   6.5672604102e+01   5.0398797803e+01    0.7970472    0.4369633 -20.81 0.0007525463    2.731    0.634
       173  -9.8460     94.4988     71.7922   6.3021582573e+01   4.9685414012e+01    0.3838135    0.3569148  27.90 0.0009532582    1.077    0.071
       174 -10.8159     87.5454     67.5326   6.3918998871e+01   5.1784285789e+01    0.6483932    0.3098239  36.46 0.0009822702    2.048    0.512
       175 -10.2918     83.0371     64.1825   6.4339199639e+01   5.3214707662e+01    0.4818366    0.3078738 -50.19  0.001407593    1.908    0.476
       176 -10.1493     64.0868     74.7616   7.4580284616e+01   5.4439475749e+01     0.332865    0.2606075  58.56  0.001727392    1.821    0.451
       177  -8.5500     21.4820     76.5378   9.2404560180e+01   5.8987434970e+01    0.1327851    0.1078059 -32.20 -1.123826e-05    1.012    0.012
       178  -9.7067    174.8184     75.3481   4.4562166277e+01   3.1444574091e+01    0.2153982    0.2107185 -53.78 0.0003677318    1.103    0.093
       179 -10.6940    177.1488     71.8849   4.3294336063e+01   3.1483896448e+01    0.4161899    0.2709837 -81.62 0.0002865068    2.089    0.521
       180  -9.9836    173.5379     68.9564   4.3194517099e+01   3.2759341019e+01    0.2569879    0.2231809  87.72 0.0003986986    1.130    0.115
       181  -8.8425    141.5034     75.4959   5.1362877962e+01   3.8963969518e+01    0.1439039    0.1379193  48.47 0.0008105948    1.020    0.019
       182 -10.6982    141.5293     83.7281   5.3634731941e+01   3.7508217338e+01    0.6278315    0.2909625  48.18  0.001583923    2.090    0.521
       183 -10.2031    118.5061     70.8351   5.5709803405e+01   4.4877371918e+01    0.6380864    0.3411242 -26.18  0.002573414    2.425    0.588
       184 -10.2632     29.0276     74.8957   8.8791468227e+01   5.8699302587e+01    0.3359016    0.2115975 -30.16 0.0009586712    1.441    0.306
       185  -9.5594     18.8237     72.9799   9.2647503477e+01   5.9959573493e+01    0.3308999    0.1864184 -38.91   0.00175434    1.484    0.326
       186 -10.4425    157.4060     69.5000   4.6337712039e+01   3.6337268080e+01     0.526238     0.184293 -42.20  0.001910148    2.878    0.653
       187  -9.0898    136.5142     72.1142   5.1568478559e+01   4.0664046845e+01    0.2083254    0.1431765 -38.88  0.000535163    1.523    0.343
       188  -9.9053    146.0141     70.0021   4.8833677571e+01   3.8857754509e+01    0.3680282    0.2576646 -59.48  0.001790158    1.679    0.405
       189 -10.3359    140.8302     68.2992   4.9499611962e+01   4.0315719491e+01      0.37345    0.2825091 -48.73 0.0009925578    1.411    0.291
       190  -8.9573    143.3456     65.6609   4.8204902034e+01   4.0164784423e+01    0.3091537    0.1964575  85.78  0.001162947    2.509    0.601
       191 -10.2673     29.9861     69.0366   8.6765179206e+01   5.9839197705e+01    0.3672284    0.2337385 -38.45  0.001280525    1.347    0.257
       192 -11.1559     24.9284     67.7727   8.8612363260e+01   6.0562746172e+01    0.3763476    0.2657791 -24.80 0.0004483385    1.237    0.192
       193 -10.1656    218.7877     69.8720   3.6658512582e+01   2.2909366612e+01    0.2048897    0.1746579 -80.27  0.000295834    1.088    0.081
       194  -9.5010    102.3014     69.5753   5.9915844817e+01   4.8518596913e+01    0.3726801    0.2397985  -2.80  0.001555046    2.420    0.587
       195  -8.9359     11.3645     66.3156   9.4234524192e+01   6.1890405789e+01    0.3385765   0.07100448 -46.77  0.001265832    3.096    0.677
       196 -10.3434     15.7740     64.7255   9.1845982694e+01   6.1921514032e+01    0.4670425    0.2064433 -24.57  0.002073583    2.493    0.599
       197 -11.5783      9.1890     51.6750   9.1273250900e+01   6.4988838755e+01    0.7255623    0.5845585  29.66  0.004835929    1.577    0.366
       198 -10.4866     35.4358     54.4827   7.9859542335e+01   6.2118957319e+01    0.7785125     0.401354 -31.35  0.003831636    1.863    0.463
       199 -11.3933      2.4150     66.1861   9.8190908624e+01   6.2422509008e+01    0.3613114    0.2475644 -44.64  0.001259987    1.141    0.124
       200 -11.3595      5.0493     60.6098   9.5655182886e+01   6.3449804646e+01    0.5259814    0.4298284  25.33  0.002188279    1.506    0.336
       201 -10.4744     19.7976     55.5125   8.7368109446e+01   6.3455952051e+01    0.3176427    0.2989692  71.21  0.001008118    1.593    0.372
       202 -11.0895     24.7097     54.7118   8.4830867610e+01   6.3177882409e+01    0.3949597    0.2754321 -53.12  0.001343276    1.567    0.362
       203  -9.7141     28.6535     52.0690   8.2145797126e+01   6.3290660825e+01    0.2000748    0.1503284  10.30  0.001232815    1.254    0.202
       204  -8.8668     36.1805     67.5833   8.3673221711e+01   5.9506691526e+01    0.2120997    0.1673662 -51.08 0.0006105044    1.368    0.269
       205  -8.5178    248.7870     66.9132   3.2661988380e+01   1.7641044430e+01    0.1486151   0.08254147 -41.87 0.0003071673    1.582    0.368
       206  -8.9097    215.2314     65.9760   3.6282864686e+01   2.4215608579e+01    0.1700486    0.1446974 -61.42 0.0002220125    1.049    0.047
       207 -11.0373    134.2579     63.4395   4.9603931822e+01   4.2584290802e+01    0.5818402    0.4444009 -63.06  0.001648657    1.574    0.365
       208 -10.6290    127.6169     57.7661   4.9488035092e+01   4.4958109130e+01    0.6485364    0.2773892  61.68  0.002368116    2.843    0.648
       209  -9.8201     74.9839     66.1062   6.7787226018e+01   5.4312479620e+01    0.3127984     0.191293  31.32 0.0008651926    1.575    0.365
       210 -10.0388     77.2166     61.9300   6.5608062041e+01   5.4660497045e+01    0.4191422    0.2558473 -18.92  0.001923486    2.006    0.502
       211 -10.1956     97.6607     63.9927   5.9550613578e+01   5.0417207998e+01    0.2858476    0.2549482 -37.42 0.0003046561    1.224    0.183
       212  -8.8427     94.6060     59.1954   5.8930562400e+01   5.1821854146e+01    0.2515157    0.1841482  27.85 0.0009092083    1.333    0.250
       213  -9.6220    193.7042     61.0919   3.8102816103e+01   2.9483420811e+01    0.3519849    0.2071646 -32.84  0.001329896    1.887    0.470
       214  -9.6455    167.5903     62.0281   4.2485735217e+01   3.5174934546e+01    0.3274085    0.1984961 -60.07  0.001064904    1.950    0.487
       215  -8.6652    147.5241     63.5551   4.6732710160e+01   3.9538040807e+01    0.1397763     0.130733  63.29   0.00016518    1.008    0.007
       216  -9.7770     65.1431     62.0968   7.0096543148e+01   5.6670562268e+01     0.469941    0.2295169  26.64  0.002011418    2.194    0.544
       217  -9.7833     71.3920     60.3604   6.7174885246e+01   5.5946002537e+01     0.464093    0.3123459  -4.63  0.002287572    1.770    0.435
       218 -10.1904     22.8269     63.5007   8.8338047680e+01   6.1617782245e+01    0.4100428    0.1952458 -32.36  0.001286898    1.970    0.493
       219  -8.3638    228.5903     62.4649   3.3956187649e+01   2.2066800205e+01    0.1237814     0.102203 -64.77 2.701055e-05    1.015    0.014
       220  -9.7365    102.4926     62.4921   5.7617136008e+01   4.9677941062e+01    0.3865795    0.1423184 -34.47   0.00138383    3.066    0.674
       221  -9.5360    100.2884     59.6636   5.7358305846e+01   5.0591726653e+01    0.3530249    0.1618291  53.02  0.001401204    2.357    0.576
       222 -10.3367     53.1263     60.2610   7.4222614179e+01   5.8811490286e+01    0.3468274    0.2990458  71.44  0.001364159    1.864    0.464
       223 -11.9893     56.4002     56.7720   7.1709728551e+01   5.8963632981e+01     0.369072    0.3133829  51.99 0.0002465602    1.612    0.380
       224  -8.1655    239.2813     61.7288   3.2649828784e+01   2.0129550934e+01    0.1200005   0.07677535 -67.59            0    1.495    0.331
       225  -8.7480    176.0241     61.2631   4.0859087691e+01   3.3378166828e+01    0.1871812    0.1698532 -79.22   0.00113227    1.037    0.036
       226  -9.7804    161.6409     60.6584   4.3199180054e+01   3.6739833037e+01    0.2872058     0.219987  38.84 0.0007972501    1.468    0.319
       227  -9.9233    155.5448     60.5807   4.4321199051e+01   3.8150159319e+01    0.3007329     0.244355  76.81 0.0008735001    1.242    0.195
       228 -12.4733     53.1329     75.2096   7.8966326076e+01   5.5913740472e+01    0.4962621    0.2891699 -35.42 0.0003853511    1.637    0.389
       229  -9.5813    142.4026     58.7919   4.6475812832e+01   4.1438106318e+01    0.2397901    0.1659394  30.72 0.0007092837    1.754    0.430
       230  -9.1339    139.4442     59.5339   4.7320059752e+01   4.2004252967e+01    0.2126685    0.2020965  76.23 0.0005977764    1.055    0.052
       231  -8.5502     40.5376     59.7322   7.9344303905e+01   6.0548151389e+01    0.1654625    0.1233782 -50.68 0.0009372791    1.520    0.342
       232  -8.3723    190.1499     56.9161   3.7644367097e+01   3.0868446545e+01    0.1631298    0.1491919  48.15 0.0002483518    1.280    0.219
       233 -10.9614    225.8514     55.3878   3.2830269192e+01   2.3613297028e+01    0.2244979    0.1799851 -70.90 0.0002853487    1.064    0.060
       234 -10.5178    161.4557     54.4834   4.1615721324e+01   3.7684861034e+01    0.3526606    0.2430945  88.15   0.00140068    1.711    0.415
       235  -8.8409     92.5086     54.5075   5.8023507164e+01   5.2983909985e+01    0.2578162    0.2005843  30.00 0.0008416243    1.186    0.157
       236  -9.5114     95.4712     52.5082   5.6443407317e+01   5.2691941040e+01    0.4116145    0.2883457  71.48  0.001956987    2.171    0.539
       237  -8.7552     57.0245    249.0057   1.0691765142e+02   1.3715786446e+01    0.1426525     0.120695  57.57 -0.003769674    1.002    0.002
       238  -9.3120     30.7009    248.0054   1.1230375067e+02   1.6957118732e+01    0.1734524    0.1375736  73.55  0.001174027    1.086    0.079
       239 -11.1303     75.6714     35.5796   5.6791396076e+01   5.8958685948e+01    0.5439744    0.3560815  27.21  0.001011689    1.438    0.305
       240  -9.7833     81.6685     33.5118   5.4052852933e+01   5.8073189297e+01     0.321929    0.2500764 -23.35 0.0009746249    1.391    0.281
       241 -12.9082     61.5360     44.3091   6.5207337280e+01   6.0211278226e+01    0.4869668    0.3274631  39.99   0.00121912    1.491    0.329
       242 -10.7361     71.2303     50.7984   6.3916391738e+01   5.7561276806e+01      0.42435    0.2812711  -6.28  0.001080286    1.787    0.441
       243 -10.0844     68.5367     48.4712   6.4073031255e+01   5.8393786132e+01    0.2733869     0.202999  23.61 5.909907e-05    1.215    0.177
       244 -10.0192     46.4390     47.1216   7.2435904722e+01   6.2036322216e+01     0.469005    0.3787989 -37.10 0.0008552861    1.364    0.267
       245  -9.7546     43.5122     54.0120   7.6140831607e+01   6.1233490153e+01    0.3557879    0.2283935  43.53   0.00185581    2.021    0.505
       246  -9.1061     42.5077     50.5045   7.5356332401e+01   6.1980990434e+01     0.219932    0.1621435 -20.23  0.001299982    1.209    0.173
       247  -8.4382    212.0132     53.9807   3.4122342617e+01   2.6612504953e+01    0.1508862    0.1270632 -87.51 0.0005312606    1.084    0.077
       248  -9.5617    185.6922     53.3493   3.7449114620e+01   3.2359648127e+01    0.2779194    0.2028715 -65.50  0.001567394    1.375    0.273
       249 -10.2511    181.1613     51.9130   3.7771369653e+01   3.3570539529e+01    0.2684789    0.2586396  68.00 0.0003776342    1.170    0.146
       250  -9.1784    106.1708     53.7891   5.3761667749e+01   5.0268746091e+01    0.1952154    0.1555536  13.26 0.0005865789    1.367    0.269
       251 -10.1486    193.0070     52.3068   3.6178138639e+01   3.0894542506e+01    0.2702288    0.2298356 -71.96  0.001158973    1.069    0.065
       252  -8.9706    151.4053     52.7729   4.2999965111e+01   4.0240847164e+01    0.1751836    0.1350309 -19.76 0.0003606822    1.582    0.368
       253  -9.7107    145.8771     52.2851   4.3937750891e+01   4.1584001679e+01    0.2434915    0.2098354 -17.04 0.0007889851    1.358    0.264
       254  -9.2178    122.9130     51.8756   4.8829657312e+01   4.6880110354e+01     0.286307    0.1851974 -28.33  0.001421995    1.747    0.428
       255  -9.5610     61.3316     52.2086   6.8155396141e+01   5.8985263020e+01    0.2348953    0.1963193  16.91 0.0005188404    1.083    0.077
       256  -9.4062    175.3567     49.3768   3.8029117588e+01   3.5226490805e+01    0.3334036     0.240625  -7.76  0.001724851    2.126    0.530
       257  -9.0669    136.5873     56.1736   4.6977356274e+01   4.3157971981e+01    0.1881049     0.136244 -16.32   0.00094506    1.734    0.423
       258 -10.7700    136.6072     49.4556   4.5027204081e+01   4.4110267806e+01    0.3425319    0.2426461  67.39 0.0001507139    1.415    0.293
       259  -9.7036    141.8155     48.8254   4.3774433158e+01   4.2999885854e+01    0.3216805    0.2331591 -55.19   0.00127525    1.560    0.359
       260 -10.0423     86.1800     49.1579   5.8203694591e+01   5.5046120765e+01    0.5424461    0.2176249  41.57  0.002210487    2.276    0.561
       261  -9.1382     56.5754     50.0032   6.9255114048e+01   6.0090839894e+01     0.214293    0.1740498  40.73 0.0005607877    1.444    0.307
       262  -8.8124    228.2042     49.1083   3.1321027624e+01   2.4014111146e+01    0.2082833    0.1070653 -59.52 0.0009790028    1.883    0.469
       263  -9.0071    200.6327     48.5638   3.4337716960e+01   2.9758563967e+01    0.2817884    0.1637955  26.87  0.001024065    4.952    0.798
       264 -10.3138    153.9238     47.8151   4.1188845254e+01   4.0344313618e+01    0.3419653     0.269099 -78.40  0.001075921    1.392    0.282
       265 -10.4837    128.1423     47.9469   4.6423906727e+01   4.6249428441e+01    0.3010435    0.2623581  62.62 0.0004466675    1.097    0.088
       266  -9.9930    123.9282     44.9211   4.6462147869e+01   4.7611424589e+01    0.5599567     0.196202  49.70  0.001588821    2.485    0.598
       267 -10.1140    114.8120     45.6601   4.8872810318e+01   4.9549165571e+01    0.3290349    0.2571801  47.31  0.001239224    1.143    0.125
       268  -9.5449     32.1324     47.4346   7.8951352734e+01   6.3757097077e+01    0.2036485    0.1729409 -16.70  0.001336025    1.128    0.113
       269  -9.6188     22.3259     46.0702   8.3124652827e+01   6.4999685979e+01    0.3004947    0.1920105   4.83 0.0008841027    1.475    0.322
       270  -9.4642     19.0745     34.2116   8.0495373470e+01   6.7349776641e+01    0.2360571    0.1460683 -21.47  0.000636408    1.395    0.283
       271  -8.9057      1.4406    244.0081   1.1781195794e+02   2.0683235187e+01    0.1622257   0.09418717 -86.17 0.0003910336    1.526    0.345
       272 -10.9836     13.4621     38.5742   8.4954118289e+01   6.7099793567e+01     0.674323     0.464023 -21.11  0.004346354    1.163    0.140
       273  -9.8090      4.4620     31.9137   8.7360932608e+01   6.8920832483e+01    0.2599556    0.1704337 -34.41 0.0009913464    1.223    0.183
       274 -11.1978      7.3385     35.9874   8.7241477794e+01   6.8015510364e+01    0.4889947    0.2891163   7.34  0.001855234    1.589    0.371
       275 -11.0406      9.7140     31.6505   8.4438020388e+01   6.8583944747e+01    0.2583908    0.1934963   3.10 0.0002298027    1.215    0.177
       276  -8.7983    235.1246     47.1607   3.0249147780e+01   2.2933124789e+01    0.1628017    0.1119992 -70.68 0.0004759615    1.292    0.226
       277  -8.7356     38.1977     46.8612   7.5974076357e+01   6.3149460274e+01    0.1803661    0.1664775   8.24 0.0009007364    1.311    0.237
       278  -9.6632      3.8514     45.8310   9.2184865458e+01   6.6440506272e+01    0.2663678    0.1400661 -30.20 0.0002768048    1.567    0.362
       279  -8.4419      2.3471     42.6535   9.1993541312e+01   6.7125195768e+01    0.1524459    0.1173263 -65.05 0.0009911585    1.676    0.403
       280  -9.6670    244.1848     45.2298   2.9040264676e+01   2.1482367627e+01    0.2860403    0.2037328  37.40  0.001711601    2.465    0.594
       281  -9.1612    164.6758     46.3748   3.8962511106e+01   3.8064043792e+01    0.3140541    0.1182253  46.94  0.001184975    3.012    0.668
       282  -9.3913    145.8195     46.0971   4.2221766591e+01   4.2444849083e+01    0.2256004    0.1789254  67.97 0.0005078336    1.178    0.151
       283  -9.1709    184.8527     44.2783   3.5424534899e+01   3.3779013762e+01    0.2118931    0.1664863  19.42 0.0006019605    1.917    0.478
       284  -9.2393    179.6379     44.3293   3.6165979361e+01   3.4937482823e+01     0.280863    0.1507579  82.71  0.001030065    2.279    0.561
       285 -11.0323    106.9296     41.4703   4.9531136896e+01   5.1831307539e+01    0.6387924    0.5171524  46.25   0.00173332    1.096    0.088
       286 -12.1700    107.9537     29.1262   4.5189378669e+01   5.3105805472e+01    0.4631582    0.3266081  31.10  0.002118139    1.448    0.309
       287 -10.4162     97.5129     35.0824   4.9909706077e+01   5.4653580208e+01    0.2555645    0.1904486  43.66 0.0003516532    1.162    0.139
       288 -10.2522     91.0188     41.7335   5.4101732515e+01   5.5138650327e+01    0.3888976    0.3476864  11.17  0.001510205    1.091    0.083
       289  -9.0448     93.8024     38.1587   5.2028806353e+01   5.5040722558e+01    0.2059876    0.1601397  16.96            0    1.318    0.241
       290  -8.9672    200.7640     43.1854   3.3133698230e+01   3.0446848622e+01    0.1847929    0.1686448  52.09 0.0007453975    1.344    0.256
       291  -9.5774    204.0124     39.5939   3.1970378373e+01   3.0218390294e+01    0.2210076    0.1697912 -49.86 0.0005222279    1.261    0.207
       292 -10.6230    113.6334     34.8618   4.5703395001e+01   5.1187928125e+01    0.5263522    0.4571154 -21.07  0.003261269    1.295    0.228
       293  -8.9931     71.5327     42.4882   6.0800023809e+01   5.8766469101e+01    0.2321562    0.1562195   7.78 0.0006241482    1.668    0.400
       294  -9.3978     46.1201     42.3717   7.0814835836e+01   6.2853311019e+01    0.2810189    0.1691988  -9.75  0.001425428    1.898    0.473
       295 -10.4689     27.9829     42.6829   7.9214313955e+01   6.5031961818e+01    0.2260629    0.1688337  -9.36 0.0002043605    1.109    0.099
       296 -10.4392    143.8180     41.2476   4.1242648102e+01   4.3537159211e+01     0.317968    0.2190024  63.96 0.0007135305    1.326    0.246
       297  -8.6439     34.7151     41.9669   7.5779630979e+01   6.4394752481e+01    0.2606733    0.1467691   3.24  0.001300811    2.021    0.505
       298 -10.5212    228.9932     39.2282   2.9296893594e+01   2.5159616056e+01    0.3429731    0.2640544  79.40  0.001221512    1.255    0.203
       299  -8.8215    222.9154     40.7289   3.0185924274e+01   2.6171352274e+01    0.1656819     0.134244 -80.53 0.0005326811    1.055    0.053
       300  -8.8841    113.0888     40.8114   4.7750489839e+01   5.0569672077e+01    0.1948604    0.1764462  72.66 0.0004407131    1.202    0.168
       301  -9.0147     50.8106     40.5641   6.8129826985e+01   6.2459588439e+01    0.2003303    0.1730747 -27.50  0.001116039    1.309    0.236
       302  -8.7458     53.4399     38.4536   6.6227972789e+01   6.2378839373e+01    0.1863104     0.141578  28.45 6.443495e-05    1.224    0.183
       303  -8.9988     46.7067     34.6815   6.7590152847e+01   6.3942200106e+01    0.2588695    0.1382968  38.36 0.0009988432    1.854    0.461
       304  -7.8669     50.5228     35.5371   6.6303534845e+01   6.3251380803e+01     0.185468    0.1414777  32.85 -3.524605e-06    1.317    0.241
       305  -7.8089     50.9846     32.5155   6.4912045561e+01   6.3610238501e+01    0.6084762    0.1830996  37.34  0.002395694    3.030    0.670
       306  -8.9590     54.6679     31.6592   6.3058084690e+01   6.3148676465e+01    0.2020964    0.1483081   6.66 0.0006433226    1.246    0.197
       307  -8.7623    213.7927     39.9842   3.0975755102e+01   2.8121713286e+01     0.165027    0.1333618 -67.05  0.001092052    1.069    0.064
       308  -8.7135    165.5214     40.0461   3.7205921696e+01   3.8690939821e+01    0.1875424    0.1298249 -34.14 0.0009094483    1.602    0.376
       309  -9.7702    128.3804     40.0003   4.3980143234e+01   4.7238303817e+01    0.4082625    0.1852272  61.62  0.001739561    2.141    0.533
       310  -9.5930    238.0271     36.9791   2.8044070248e+01   2.3702201309e+01    0.3239963    0.1942527 -63.78  0.001947205    1.456    0.313
       311  -9.4245    158.6076     39.0505   3.8049192220e+01   4.0402168311e+01    0.2721347    0.1695199  80.57 0.0006629658    1.746    0.427
       312  -8.9217    121.0009     39.0221   4.5309024910e+01   4.9032185144e+01    0.2067857    0.1591257 -81.14  0.001096372    1.695    0.410
       313  -8.1646     40.2264     39.3863   7.2285905348e+01   6.4123410319e+01    0.1296578   0.08077739 -14.79 0.0006884888    1.624    0.384
       314  -9.7003     25.4991     38.0208   7.8707232418e+01   6.6080009478e+01     0.361427     0.175263 -18.05   0.00166335    2.515    0.602
       315  -9.4973    177.7751     37.4280   3.4764363986e+01   3.6237293178e+01    0.3238991    0.1767787  76.89  0.001032039    1.881    0.468
       316  -8.4090    149.3007     38.3210   3.9431600580e+01   4.2638030404e+01    0.1318557   0.09628089  33.86 0.0006104078    1.626    0.385
       317  -8.9654    153.1846     37.1159   3.8435052233e+01   4.1889944752e+01    0.1984907    0.1673071  49.94 0.0006231561    1.197    0.165
       318  -9.3242    138.4227     36.4423   4.0899500010e+01   4.5375906291e+01    0.3142295    0.1880274  43.07  0.001050602    1.708    0.414
       319  -9.3548     86.3591     36.7676   5.3766185852e+01   5.6732177019e+01    0.2450814    0.1891652 -10.07 0.0008103317    1.389    0.280
       320  -9.0789     87.7468     33.2356   5.2072407513e+01   5.6897689494e+01    0.3432857    0.2092108  30.91  0.001771051    1.617    0.382
       321  -8.7813    131.3121     36.5331   4.2330013343e+01   4.6996827921e+01    0.2367442    0.1564731  55.04  0.001264542    1.325    0.245
       322  -9.3524    129.5073     33.0450   4.1655906977e+01   4.7823222422e+01    0.2838349    0.1282988 -32.86  0.001228671    2.450    0.592
       323  -9.3384     56.8705     35.8602   6.3831972130e+01   6.2212425539e+01    0.1906793    0.1447483   6.95 0.0002823284    1.182    0.154
       324  -9.8830     60.9524     34.4340   6.1675949080e+01   6.1737593807e+01    0.2222426    0.1817231  -5.96 0.0003707361    1.153    0.133
       325  -8.7275    242.2914     34.9162   2.7296607975e+01   2.3158292086e+01    0.1608954    0.1199762 -58.80 0.0007584624    1.117    0.104
       326  -9.7007    225.1844     33.6085   2.8555018744e+01   2.6618591059e+01    0.3923764    0.1736268  63.73   0.00206091    2.204    0.546
       327  -8.4529    190.6265     43.5025   3.4473066685e+01   3.2604799057e+01    0.1238458    0.1109599 -81.27 8.791705e-05    1.056    0.053
       328  -9.1869    145.3975     34.3823   3.9033072533e+01   4.4014924506e+01    0.3847954    0.1509704  51.04  0.001619537    2.307    0.566
       329 -10.2018    153.1099     32.0553   3.7088742910e+01   4.2509967925e+01    0.2613297    0.1814465  76.20            0    1.374    0.272
       330  -9.2682    158.8364     32.5640   3.6313373240e+01   4.1133915676e+01    0.2567219     0.148563  68.43  0.001317913    1.572    0.364
       331  -8.7430     29.5616     32.9807   7.4786073377e+01   6.6442776193e+01    0.1697242    0.1081319 -37.08  0.001003098    1.541    0.351
       332 -10.2759    233.6558     30.7898   2.7257167798e+01   2.5306928828e+01    0.3006628    0.1928706  63.94 0.0007487161    1.662    0.398
       333  -8.6169    190.0838     32.7737   3.2091523439e+01   3.4072077173e+01     0.162612   0.09251768  71.93 0.0008615669    1.615    0.381
       334 -11.3152    145.3148     29.1475   3.7593451099e+01   4.4637146716e+01    0.6484787    0.2566953  48.28 0.0008776887    2.474    0.596
       335  -9.8154    133.7722     30.0871   3.9941513265e+01   4.7185780937e+01    0.5150313    0.2872944 -17.12  0.002450692    2.483    0.597
       336  -9.3114    119.0638     31.4592   4.3376702413e+01   5.0373526759e+01    0.2365331    0.1764293  16.35  0.001158603    1.620    0.383
       337  -9.7435     24.2541     31.2474   7.6723261023e+01   6.7304108341e+01    0.2523058    0.1989329   0.47  0.001333333    1.087    0.080
       338 -10.1829    247.9802     30.1659   2.5979580829e+01   2.2692732079e+01    0.2635906    0.1354017 -46.52  0.001052051    1.630    0.386
       339  -9.6710    178.9958     29.4593   3.2697436226e+01   3.6920302220e+01    0.3337667    0.2207365  49.97  0.001897284    1.647    0.393
       340  -9.7314    125.3566     30.5469   4.1749657264e+01   4.9055101451e+01    0.2337589    0.2159257  19.24  0.000485562    1.192    0.161
       341  -9.4017     94.2411     30.1729   4.9103632003e+01   5.5927152469e+01    0.3077021    0.2188939  74.87  0.001004392    1.932    0.483
       342  -8.7149     40.8999     30.3075   6.8393375552e+01   6.5397499082e+01    0.2434339    0.1270906 -26.29  0.001260752    1.946    0.486
       343 -10.5447     45.1267    119.5347   9.2976467212e+01   4.6682258918e+01    0.3400826    0.2591821  18.93  0.001224461    1.419    0.295
       344 -10.1520    244.8562    242.1310   6.6177950133e+01  -1.0399228583e+01    0.2282609    0.1671718  -5.02 0.0009283502    1.061    0.057
       345  -9.0907    145.8210    242.1739   8.6333800117e+01   2.7059347053e+00    0.1878718    0.1460147   0.51 0.0005892597    1.329    0.248
       346  -9.8512    102.3711    241.3841   9.6078528773e+01   9.2352745219e+00    0.3041614    0.1351993 -66.35  0.001253878    2.935    0.659
       347  -9.4148    161.5740     27.1146   3.4493371884e+01   4.1129780570e+01    0.3022846    0.2003496 -60.98   0.00168357    1.643    0.391
       348  -9.1646     31.1276     17.9109   6.7684679982e+01   6.8392922850e+01    0.1843163    0.1539271 -13.29 0.0008241895    1.288    0.224
       349 -10.1877     26.2730     22.7923   7.2224072892e+01   6.8336367514e+01    0.2512777    0.1817052  12.72  0.000348553    1.162    0.139
       350 -10.1516     43.4887     15.5667   6.0957002325e+01   6.6920025545e+01    0.4311886     0.157908  36.25   0.00179516    2.358    0.576
       351 -10.3614     37.2086     26.1941   6.8378554514e+01   6.6479698018e+01    0.2705675    0.1851316  15.82 0.0005102676    1.241    0.194
       352 -10.1625     32.3552     27.0723   7.1037481410e+01   6.6988365336e+01    0.3890163    0.3354724 -16.92  0.002484792    1.308    0.235
       353  -8.2933    167.7148    237.3521   8.0743794782e+01   3.7164854632e-01    0.1231333    0.1063146  64.08 0.0005918208    1.662    0.398
       354  -9.7348    188.0511    235.5023   7.6083291246e+01  -2.2194564345e+00    0.1971094    0.1167546  28.72 0.0005522756    1.553    0.356
       355 -10.6708     48.3603     26.7761   6.3678040828e+01   6.4790660259e+01    0.3770652    0.2338594  42.46 0.0006045751    1.710    0.415
       356  -9.1348    221.5286    233.6413   6.9044323185e+01  -6.3768638604e+00    0.2034115    0.1068523  28.14 0.0008043252    1.844    0.458
       357  -9.5308    211.8537     26.9925   2.8494064506e+01   3.0119925294e+01    0.2467561    0.1594661 -28.87  0.001460704    1.939    0.484
       358  -9.0137    188.6111     28.1809   3.1224879685e+01   3.4938313342e+01    0.3451974    0.1468421  74.00  0.001573952    2.327    0.570
       359  -9.5300    222.1760     26.7935   2.7492968689e+01   2.8043269863e+01    0.1462727    0.1281124  71.75   0.00057137    1.330    0.248
       360  -8.7996    101.0448     26.0270   4.5854278076e+01   5.4948514975e+01    0.2470923    0.1435858  39.79  0.000753273    1.576    0.366
       361  -9.0915     31.9803    232.1824   1.1089476454e+02   2.0184932244e+01     0.191647    0.1390913  62.61 0.0004376796    1.206    0.171
       362  -9.1606    109.4994     23.4545   4.2950740442e+01   5.3378102618e+01    0.1805574    0.1591692   4.62 0.0001358354    1.264    0.209
       363  -8.4628    178.6534    231.3034   7.7378184571e+01  -1.3398429020e-01    0.1261365    0.1052457  55.83 0.0003093344    1.691    0.409
       364 -10.3280      2.4856     24.8564   8.5878936293e+01   7.0238530700e+01    0.3379325    0.1633996 -32.49  0.001696344    1.663    0.399
       365  -8.6390    228.5579    234.2079   6.7811269673e+01  -7.3344397848e+00    0.1703591   0.09605161 -25.37  0.000533387    1.592    0.372
       366  -8.5961    206.9897    226.4900   7.0653706652e+01  -3.3017798471e+00    0.1885386    0.1170618  26.02 0.0005631323    1.537    0.349
       367  -8.8391    163.2178    226.4628   7.9958435284e+01   3.0698140842e+00    0.1903183    0.1203842  40.80 0.0006088246    1.627    0.385
       368  -8.2997    143.6335    226.2953   8.4392540041e+01   6.1190131769e+00    0.1409589    0.1047387  57.58 0.0007029936    1.720    0.419
       369 -10.4608    232.2435     22.9022   2.5892818279e+01   2.6518750061e+01    0.3793567     0.246209 -83.63  0.002502875    1.350    0.259
       370  -8.6918    152.8347     13.5986   3.2238868282e+01   4.4521763412e+01    0.2568038    0.1376485  84.62  0.001062044    2.029    0.507
       371 -10.1475    153.5690     22.7911   3.4550559651e+01   4.3431044139e+01    0.2817238    0.1826876  67.50   0.00102859    1.330    0.248
       372  -8.7296    223.8659    225.1256   6.7122248865e+01  -5.3092955090e+00    0.1771852    0.1239502  -7.92 0.0006193419    1.283    0.221
       373  -8.6714    123.5167     23.2254   3.9881448375e+01   5.0264304774e+01    0.4348327     0.243759 -85.45   0.00175285    3.405    0.706
       374  -8.9351    132.1662    225.1999   8.6896668351e+01   8.1211533803e+00    0.1858946    0.1593503  55.21 0.0004072421    1.308    0.236
       375  -9.9216    220.4834     20.8234   2.6473650151e+01   2.9074914739e+01    0.2922109    0.2135663  84.65  0.001495436    1.201    0.167
       376  -9.3812    216.9111     17.8328   2.6194167164e+01   3.0130925542e+01    0.2159563    0.2069511  -6.84  0.001017584    1.545    0.353
       377  -8.4494    208.3581     22.7112   2.7951342052e+01   3.1340320729e+01    0.1266682    0.0737244 -72.35 0.0007025522    1.684    0.406
       378  -9.0237    188.2552     21.6396   2.9790219830e+01   3.5755128361e+01    0.1861567    0.1638518 -55.20 0.0006600232    1.226    0.184
       379  -8.2954    116.7232     22.6710   4.1104963326e+01   5.1852171416e+01    0.1299045   0.08755838  32.40 0.0006993294    1.594    0.373
       380 -10.2730     17.1795     46.3487   8.5723636997e+01   6.5402435669e+01    0.4526829    0.1983516 -43.04  0.002290583    1.898    0.473
       381  -9.4255     89.3516    220.7997   9.6521552110e+01   1.5527848215e+01    0.2618807    0.2188058   5.32 0.0009263133    1.387    0.279
       382  -8.8529    144.8102     20.7674   3.5361360228e+01   4.5649868053e+01    0.1960228     0.160208 -72.62 0.0004674615    1.301    0.231
       383  -9.7808    143.4885     16.1373   3.4294872900e+01   4.6412210220e+01    0.3310399    0.1957365  81.13  0.001132496    1.745    0.427
       384  -8.3428    175.2054    218.3438   7.5905624347e+01   2.7864114382e+00    0.2758323    0.1109238 -56.90 0.0008619583    4.609    0.783
       385  -9.9670    238.0202     17.4515   2.4446794321e+01   2.6038578472e+01    0.2068257    0.1707391  52.61  0.001204423    1.723    0.420
       386  -9.7076    205.0636     18.9339   2.7484206998e+01   3.2451433460e+01    0.2294423    0.1714021 -25.03 0.0009267884    1.780    0.438
       387  -8.8863    199.5952     19.8463   2.8206943277e+01   3.3505853786e+01    0.2120877    0.1166476 -29.41  0.001156631    2.214    0.548
       388  -8.6125    140.0918     20.2996   3.6000112798e+01   4.6779424362e+01    0.1841638    0.1440669  67.81 0.0005935559    1.096    0.088
       389  -9.5138     78.0756     19.3949   4.9860262032e+01   6.0394475967e+01    0.3581722    0.2233433  65.27  0.000829801    2.109    0.526
       390  -8.9974     20.3506     17.4285   7.2944381059e+01   6.9758224878e+01    0.1639988    0.1403177 -37.07 0.0009457041    1.667    0.400
       391  -8.4913    117.9683    212.0189   8.8257464510e+01   1.3182799867e+01     0.173801    0.1604736  27.90 0.0004274107    1.018    0.018
       392  -8.4779      2.4693    212.4728   1.1586495026e+02   2.7415925689e+01    0.1221423   0.09712613  77.55 -1.801136e-07    1.030    0.029
       393  -8.9285    242.7917    210.0993   6.0988502162e+01  -5.2688766128e+00    0.1787364    0.1500877 -30.68 0.0006848685    1.281    0.219
       394  -8.2503    221.3351    198.7318   6.2805941011e+01  -4.8355342805e-01    0.1136378     0.107962  86.70  0.000279128    1.591    0.371
       395  -8.7568     96.0208    195.7067   9.1251106752e+01   2.0407964278e+01     0.204095    0.1846003  30.70 0.0004232497    1.093    0.085
       396  -9.5419    246.9771     19.5102   2.4168749287e+01   2.4137060764e+01    0.1618852   0.09232318  80.35  0.001045661    1.630    0.387
       397  -9.3328    225.2213     16.7698   2.5300976924e+01   2.8587510221e+01    0.1961309    0.1817365   0.39 0.0007194277    1.697    0.411
       398  -9.3020      6.8955    194.6528   1.1367012373e+02   3.1200491292e+01     0.218422    0.1485057 -67.08  0.001295081    1.352    0.261
       399  -8.8969    228.6969     15.2899   2.4750269589e+01   2.8069931103e+01    0.1622825    0.1273126 -62.91 0.0004861079    1.136    0.119
       400  -9.1824    248.3746    191.9088   5.6717914744e+01  -2.9986030573e+00    0.3392206   0.09760907 -49.24 0.0009442319    6.380    0.843
       401  -8.6053     16.4684    188.5353   1.1088699373e+02   3.1874735989e+01    0.1304931    0.1092691  83.31 0.0008082588    1.050    0.048
       402  -9.7409      6.5047    175.4869   1.1223942497e+02   3.5879519358e+01     0.286786     0.167247  55.01  0.001268937    1.765    0.434
       403  -9.2099     17.9229    174.4837   1.0921146168e+02   3.5226335351e+01    0.1815179    0.1324729  21.50  0.001031158    1.596    0.373
       404 -10.5317     11.8359    166.6702   1.1004926404e+02   3.7670951209e+01    0.2475401    0.1995463 -34.99  0.001102451    1.429    0.300
       405  -9.6531     15.4617    165.4657   1.0895446646e+02   3.7692485486e+01    0.1726349    0.1293425  -3.38 9.092711e-05    1.709    0.415
       406 -12.3851     39.2266    160.3414   1.0166743274e+02   3.6843808317e+01     1.456309    0.5060591  47.24  0.004978151    3.575    0.720
       407 -10.3684     32.5046    155.9944   1.0303436489e+02   3.8630414672e+01    0.3527345    0.1734634 -81.31   0.00105266    2.282    0.562
       408 -11.2217     29.5235    153.4707   1.0357254250e+02   3.9557030387e+01    0.3745268    0.2848437 -46.10  0.001334566    1.298    0.229
       409  -8.1634     28.3107    164.3057   1.0528775786e+02   3.6889042512e+01    0.1395022    0.0932549 -41.59 0.0003265582    1.615    0.381
       410  -9.9687     24.5411    163.2056   1.0621094009e+02   3.7508490906e+01    0.2296652    0.1993614 -35.52 0.0005771181    1.278    0.218
       411 -10.3328     20.5098    159.0262   1.0685725268e+02   3.8916310498e+01    0.3723721    0.1155021 -70.19  0.001370005    2.761    0.638
       412  -9.4536      9.6654    157.5654   1.0972540035e+02   4.0117168501e+01    0.2162556    0.1333255   9.04  0.001129648    2.056    0.514
       413 -10.2905      2.1908    156.8355   1.1170073317e+02   4.0801591589e+01    0.4499292    0.2045526 -44.30  0.001360797    2.348    0.574
       414 -10.0117      2.3152    153.3271   1.1133274954e+02   4.1668500832e+01     0.308889    0.2196184 -12.24  0.001787746    1.795    0.443
       415  -9.5271    249.0580    153.9744   4.9445471515e+01   3.3688892721e+00    0.2053683    0.1613048 -33.64 0.0007233089    1.044    0.042
       416 -10.5083     10.5030    151.8197   1.0888312665e+02   4.1506247018e+01    0.3076977    0.2677317  14.08  0.001632156    1.368    0.269
       417 -10.7209     14.9312    150.5119   1.0746546934e+02   4.1518239333e+01    0.2277585    0.2090298  34.70 0.0006530497    1.249    0.199
       418 -10.6524     23.5548    148.2049   1.0464773618e+02   4.1428296558e+01    0.3297488     0.197406 -24.58  0.001559487    2.147    0.534
       419  -8.9623     62.6896    147.3167   9.2540484438e+01   3.7486728192e+01    0.3227543    0.1907953 -80.73  0.001069966    2.230    0.552
       420  -8.5443     58.2303    150.8304   9.4531069077e+01   3.7146501227e+01     0.193441    0.1601375 -30.35 0.0003673117    1.284    0.221
       421  -9.3600     10.4960    147.1460   1.0836620093e+02   4.2686854780e+01    0.2479652    0.1598347 -21.75  0.001088988    1.935    0.483
       422 -10.2722     12.9907    142.3760   1.0706995050e+02   4.3720565070e+01    0.3902407    0.1673481 -53.25  0.001648392    1.977    0.494
       423  -8.6931     55.4763    145.9393   9.4532095683e+01   3.8753124812e+01    0.2195539    0.1370685 -63.95 0.0004220586    1.516    0.341
       424  -9.6516      5.3743    143.9561   1.0950230983e+02   4.3824224752e+01     0.328042    0.1839274 -41.45 0.0009458648    1.839    0.456
       425  -9.5440    240.3983    143.4224   4.8717823505e+01   6.5430901416e+00    0.3373436    0.1785375 -56.01  0.001527659    2.314    0.568
       426  -8.8871     29.1373    143.9019   1.0237102921e+02   4.2051616908e+01    0.1859071    0.1433268 -44.88  0.001024356    1.254    0.203
       427  -9.6288      1.8707    139.3310   1.1002627366e+02   4.5190026039e+01    0.2385131    0.1486773 -82.36  0.001054203    1.456    0.313
       428  -8.1687    121.7110    139.6974   7.3282461318e+01   2.9724581625e+01    0.1589513    0.1225582 -13.19 0.0002253009    1.565    0.361
       429 -10.1513     40.6174    137.6479   9.7801346775e+01   4.2561470737e+01     0.276784    0.2271678 -11.82  0.001520756    1.363    0.266
       430  -8.3152     83.0200    136.0445   8.3940600851e+01   3.7442812229e+01    0.1804438    0.1733353 -27.66 0.0003696097    1.014    0.014
       431  -9.8299     58.3340    135.6829   9.1741863685e+01   4.1040780658e+01    0.2837685    0.2237936 -32.88 0.0002216299    1.292    0.226
       432  -8.5055     62.5312    133.5602   8.9964610749e+01   4.1041316329e+01    0.2479056    0.2199853 -76.55 0.0005324352    1.196    0.164
       433  -9.2781     60.3602    131.3381   9.0225764814e+01   4.1890020292e+01    0.3350804    0.2164876 -28.55  0.001498174    1.789    0.441
       434  -8.9579    236.0120    136.5501   4.8026990808e+01   8.4749345161e+00    0.1716522    0.1328034  46.49  0.000410596    1.533    0.348
       435 -10.2900      7.8176    133.4319   1.0754654586e+02   4.6313853342e+01    0.3463899     0.204846 -25.44  0.001135734    2.004    0.501
       436  -8.8310     86.8812    129.9078   8.1359316524e+01   3.8353223055e+01    0.2036755    0.1825088 -89.64 0.0004782759    1.298    0.229
       437  -9.5143     41.7583    130.0584   9.6115807334e+01   4.4385861818e+01    0.2842698    0.1736938 -45.95  0.001353459    1.508    0.337
       438  -9.4152     18.0757    127.9426   1.0355367202e+02   4.7007263522e+01    0.3624769    0.1468598 -50.51  0.001555119    2.068    0.516
       439  -9.1984     12.0381    127.7988   1.0548371739e+02   4.7458581579e+01    0.3552918    0.1094114 -53.80  0.001403922    2.458    0.593
       440  -9.5037     50.5339    126.3807   9.2497345346e+01   4.4353459729e+01    0.2412525     0.216141 -13.15 0.0005379751    1.154    0.133
       441  -9.7157     33.9831    126.8592   9.8134903622e+01   4.5965028328e+01    0.2544656    0.1883598 -65.95  0.001359755    1.248    0.198
       442  -9.0358    241.5141    124.0136   4.4696294993e+01   9.7600135756e+00    0.2086424    0.1087406 -42.88  0.001033345    1.598    0.374
       443  -9.9370     39.0148    123.4221   9.5823607119e+01   4.6346714398e+01     0.318598    0.2388121 -10.88  0.001304633    1.500    0.333
       444  -8.9514     71.7114    122.7423   8.4631583562e+01   4.2481310561e+01    0.2825792    0.1748537 -51.02  0.001259908    1.514    0.339
       445  -8.9149     83.9644    122.1041   8.0467820032e+01   4.0742474557e+01    0.2537942    0.1774427 -21.62  0.000742792    1.705    0.413
       446  -9.2855      8.2220    121.9143   1.0591276633e+02   4.9162174746e+01    0.2016636    0.1878512 -20.05 0.0005563039    1.203    0.168
       447  -9.6508     29.9586    120.8428   9.8445028782e+01   4.7843847747e+01    0.2926251    0.1774201  40.38  0.001255351    1.903    0.475
       448  -9.8799     28.3856    117.2346   9.8346742948e+01   4.8879880236e+01    0.2892444    0.2184781  83.25  0.001058803    1.620    0.383
       449 -11.0113     21.3183    118.9038   1.0106847350e+02   4.9031443926e+01     0.513982     0.399957  51.18  0.002933382    1.533    0.348
       450 -10.9684     21.3696    110.2479   9.9566410410e+01   5.1164104462e+01    0.4133469     0.356407 -64.35  0.001402106    1.122    0.109
       451  -9.9818    221.4715    119.3397   4.6765600829e+01   1.4106155455e+01    0.3304437    0.2443449  37.73  0.001381199    1.626    0.385
