#   1 NUMBER                 Running object number                                     
#   2 MAG_AUTO               Kron-like elliptical aperture magnitude                    [mag]
#   3 X_IMAGE                Object position along x                                    [pixel]
#   4 Y_IMAGE                Object position along y                                    [pixel]
#   5 X_WORLD                Barycenter position along world x axis                     [deg]
#   6 Y_WORLD                Barycenter position along world y axis                     [deg]
#   7 A_WORLD                Profile RMS along major axis (world units)                 [deg]
#   8 B_WORLD                Profile RMS along minor axis (world units)                 [deg]
#   9 THETA_WORLD            Position angle (CCW/world-x)                               [deg]
#  10 FWHM_WORLD             FWHM assuming a gaussian core                              [deg]
#  11 ELONGATION             A_IMAGE/B_IMAGE                                           
#  12 ELLIPTICITY            1 - B_IMAGE/A_IMAGE                                       
         1 -11.8968    162.0897     55.7153   3.3678728460e+01   3.6717332703e+01     1.729469    0.6830864 -45.53  0.005827874    2.900    0.655
         2 -14.2829    221.1145     72.9331   2.8037382202e+01   1.8939047757e+01     2.474391     1.309322  46.37   0.01032707    2.091    0.522
         3 -13.9164    192.6235     54.7357   2.7722055575e+01   2.8942202137e+01     3.922398      1.35365 -23.88   0.01082915    4.724    0.788
         4 -12.9569    207.7056     45.2962   2.2818208750e+01   2.6440993347e+01     1.447623     1.115117  82.09    0.0044492    1.296    0.228
         5 -12.3033    226.9446     45.4338   2.0289183214e+01   2.1634277725e+01     1.109062    0.7432458 -44.41  0.004313827    1.406    0.289
         6 -12.8550    162.8414     38.5761   2.8211891117e+01   3.9026287362e+01     1.134842     1.029993  77.15  0.004932202    1.090    0.082
         7 -11.3244     30.1167     20.8683   6.2157158969e+01   6.7661232436e+01    0.7727546    0.5182043 -51.39   0.00191655    1.866    0.464
         8  99.0000     42.4035     20.1268   5.6419630141e+01   6.6371140126e+01     1.537171     1.315598  86.88   0.00939585    2.484    0.597
         9 -14.6630     36.6481     74.1129   7.6640755858e+01   5.6932013799e+01     1.616251     1.047102 -63.68  0.008497058    1.478    0.323
        10 -14.1386     51.3797     47.6851   6.3431963787e+01   6.0642659567e+01     2.236742     1.070883 -32.10  0.007208199    2.143    0.533
        11 -13.6429    116.8459     64.8583   4.7602420325e+01   4.6099496437e+01     2.263431     1.583513  18.24   0.01025118    1.782    0.439
        12 -14.1859     85.2596     61.4528   5.6072141122e+01   5.2974516795e+01     2.789804     1.632575  64.77   0.01022148    3.747    0.733
        13 -13.0619     39.6087     57.1699   7.0990653227e+01   6.0158004254e+01     1.137514    0.5401676 -53.29  0.005622503    1.869    0.465
        14 -13.4232      4.2839     54.3215   8.3859176450e+01   6.3429075185e+01     1.046324    0.5296561 -62.08   0.00614076    1.582    0.368
        15 -14.4276     12.5287     36.8770   7.5849717307e+01   6.6359572985e+01     1.675362    0.9751681 -44.93  0.003046284    1.298    0.230
        16 -11.9341     51.5818     18.9814   5.2093110799e+01   6.5312333136e+01    0.4966386    0.4123155  33.82  0.001072188    1.433    0.302
        17 -13.8587     61.5552     18.0961   4.7795629265e+01   6.3935246241e+01     1.884222    0.8717705 -39.78  0.005953603    2.366    0.577
        18 -12.2598     76.2130     14.5931   4.1033365245e+01   6.1864176205e+01    0.6188245    0.4284316 -34.66 0.0004580054    1.606    0.377
        19 -13.1201     72.7091     24.7034   4.6571221963e+01   6.1194281901e+01    0.7184711    0.4218345 -41.71 0.0008345382    1.958    0.489
        20 -11.7884     80.9356     22.6986   4.2929796665e+01   5.9986671889e+01    0.6463751     0.363374  39.45  0.003287115    1.664    0.399
        21 -14.3521     10.3431     67.7915   8.4525065330e+01   6.0303627246e+01     1.409488     1.071353 -68.14  0.009717337    1.212    0.175
        22 -12.3494    151.0560     22.1361   2.5151591905e+01   4.4115108176e+01    0.4618407    0.3725816 -49.14 0.0009790059    1.380    0.275
        23  -9.1286    235.2879     23.7660   1.4121228895e+01   2.2466516338e+01    0.4768451    0.2476345  56.91  0.002273284    1.998    0.500
        24 -11.7563    220.9596     12.0157   1.2745954667e+01   2.7299720795e+01    0.2800948    0.2416024 -80.09 0.0003960816    1.011    0.011
        25  -9.8179    160.3839     14.2206   2.1008353254e+01   4.2569209482e+01     0.232568    0.1172709 -39.97 0.0002656566    2.144    0.534
        26 -11.2511    163.0016     20.3357   2.2491006581e+01   4.1233937333e+01    0.4048852    0.3002832 -71.87 0.0009897508    1.556    0.357
        27 -13.8476     77.4958     44.6434   5.2773175638e+01   5.7317811638e+01     1.569443     1.113137  87.52  0.006382312    3.794    0.736
        28 -10.5974    151.4564     14.3385   2.2533618923e+01   4.4854363611e+01    0.4928741    0.3190221  74.38 0.0005420245    1.549    0.354
        29 -10.6962    153.1254     11.1779   2.1226465801e+01   4.4744862534e+01    0.2264281    0.1738253 -85.00 0.0002495371    1.445    0.308
        30 -11.0648    125.6682     14.2891   2.7507626711e+01   5.1282702268e+01    0.3848753    0.2720091 -85.84 0.0009505821    1.982    0.495
        31 -10.1060    133.6499     13.3227   2.5502549714e+01   4.9436843412e+01    0.2819201    0.1996938 -86.85  0.001392815    1.838    0.456
        32  -9.8710    130.4337     11.4684   2.5492665622e+01   5.0410065408e+01    0.2109139    0.1882712 -74.65 0.0005348117    1.317    0.241
        33 -12.1881    247.8201     10.3400   9.9616759781e+00   2.1149820218e+01    0.4740982    0.2548839 -81.26  0.002369445    1.924    0.480
        34 -11.7340    241.8549      7.3356   9.7868927767e+00   2.2849691687e+01    0.5421019    0.3911933  76.79  0.002280105    1.300    0.231
        35  -9.6887    179.9476     12.1912   1.7523412273e+01   3.7699481528e+01     0.195695    0.1605291  79.53  0.001097935    1.103    0.093
        36 -10.9966     88.4717     11.5325   3.5852982318e+01   5.9845713141e+01    0.5711829    0.2209467  57.21  0.002273493    2.942    0.660
        37 -10.9397     84.9581      8.2705   3.5500003963e+01   6.0889714115e+01    0.3389765    0.2136321 -25.93  0.001453668    1.644    0.392
        38 -10.3761    146.3718     10.4360   2.2134555239e+01   4.6538527184e+01    0.3519424    0.2289903  42.20  0.001774731    1.483    0.326
        39  -9.6216    145.4315      6.5260   2.0997492635e+01   4.7144570083e+01    0.2042453    0.1449235  35.86 0.0005702226    1.436    0.304
        40 -11.1453    116.0998     10.1153   2.8077410947e+01   5.3963748714e+01    0.3337491    0.2224607  25.47 0.0002810516    1.549    0.354
        41 -10.5046    116.4779      6.5547   2.6637794351e+01   5.4210831462e+01    0.2855344    0.1238289  61.98  0.001026664    2.173    0.540
        42  -9.5705    102.6845      9.7797   3.1198653335e+01   5.7031087519e+01    0.2446339   0.09161174  53.11  0.001003666    2.283    0.562
        43 -11.1474     48.6381      8.3405   4.8420692884e+01   6.7140649934e+01     0.249722    0.1887378 -12.04 0.0006323517    1.126    0.112
        44  -9.9590     27.1387      9.2750   5.8437327759e+01   6.9713244260e+01    0.1826966    0.1192094 -10.58  0.001096678    1.337    0.252
        45 -11.6940    194.2107      7.2005   1.4366611999e+01   3.4530592056e+01    0.2817695    0.2335084  54.74 0.0006224058    1.242    0.195
        46  -9.5823    165.4732      7.4756   1.8151396565e+01   4.1923435270e+01    0.1395625    0.1229355  73.53 0.0008094372    1.026    0.025
        47 -10.5019      3.5126      6.3247   6.9058292438e+01   7.2196278667e+01    0.2394348    0.1401158  -0.62  0.001615983    1.700    0.412
        48  -9.9231    233.2261      5.5633   1.0107367822e+01   2.5056563103e+01     0.245909    0.1761552 -17.02  0.001385182    1.821    0.451
        49 -10.0457    173.0450      6.3566   1.6760628711e+01   4.0071634607e+01    0.1905961    0.1555381  74.02 0.0003908731    1.079    0.074
        50 -10.3270    109.3545      4.6477   2.7518213313e+01   5.6023956842e+01    0.3435504    0.2601297  52.92  0.001404965    1.190    0.160
        51 -10.4422     98.0187      6.2714   3.0979652509e+01   5.8383456459e+01     0.231447    0.1552339  50.46 0.0004215066    1.342    0.255
        52  -9.4630    101.7468      4.3541   2.9237564618e+01   5.7750105986e+01    0.1388743    0.1121298  30.87 0.0004345514    1.071    0.066
        53 -11.9989     70.2894      3.1058   3.7837738511e+01   6.4195054548e+01     0.485177    0.3044186  49.76  0.002774196    1.649    0.393
        54 -10.3384    154.0706      3.4310   1.8593689349e+01   4.5227086815e+01    0.2481821    0.2027929 -16.41 0.0008748136    1.412    0.292
        55 -10.2437    183.3035      3.7035   1.4694924169e+01   3.7675554594e+01    0.3106351    0.2055606 -68.66 0.0008204858    1.625    0.385
        56 -10.4963     85.0542      1.9395   3.2704308036e+01   6.1482781686e+01    0.2388357    0.1588274  24.93 0.0006417203    1.369    0.270
        57 -10.4179     89.0117      1.1657   3.1247663939e+01   6.0746234852e+01    0.2520357    0.1199462  57.14 0.0008462301    2.055    0.513
        58 -10.2849    219.1558      1.5834   1.0409722883e+01   2.8854009792e+01    0.2362729    0.1309271  57.54  0.001184599    1.810    0.448
        59 -10.8624    126.9800      1.6961   2.2664545850e+01   5.2135684611e+01    0.2214884    0.1459245  51.27 0.0003361051    1.283    0.221
        60 -11.9517     47.0526      1.9502   4.5963362276e+01   6.8127632285e+01    0.3033072    0.1627202  26.19  0.001415238    1.767    0.434
        61 -10.2887    173.9744      1.1965   1.5137235354e+01   4.0310915235e+01    0.1607446   0.09505294  71.35 0.0007799774    1.473    0.321
        62 -12.8661    122.0948     85.8676   5.2693871194e+01   4.0902475293e+01    0.5975841    0.5042425   3.08  0.002354541    1.357    0.263
        63 -11.4423    248.8598    249.4738   6.0620829041e+01  -1.2687815593e+01    0.2627782    0.1732689   9.57  0.001782087    1.301    0.231
        64 -11.2286    228.9917    249.1040   6.3967304675e+01  -9.7464625662e+00    0.2170576    0.1533706 -13.38  0.000797723    1.509    0.337
        65 -11.8994    227.5137    242.6923   6.3222359043e+01  -8.7983932434e+00    0.2643687    0.2321121 -52.98  0.001521583    1.879    0.468
        66 -11.9235     36.1246    249.1093   9.8035515370e+01   1.9662556981e+01    0.2310775    0.1803485  84.34  0.001873671    1.268    0.212
        67 -10.7253    126.5090     81.4403   5.0169490174e+01   4.0816503862e+01    0.3692958    0.2118373 -31.46  0.001195874    1.937    0.484
        68  -9.8856     68.0650     94.5382   7.1219997015e+01   4.8742100283e+01    0.1888787    0.1375486  33.67 0.0005412393    1.516    0.340
        69 -11.5724     96.5369     90.1553   6.1294987373e+01   4.5123117051e+01    0.5347556    0.4033901  71.08  0.002555796    1.797    0.443
        70 -11.1872    203.8246     90.6650   3.5530011521e+01   2.0198680843e+01    0.3025427    0.2776895  63.73  0.000775824    1.107    0.096
        71 -14.0454    178.6022     85.5015   3.9014334653e+01   2.7417683549e+01     2.483618     1.060323  34.16   0.00657057    4.680    0.786
        72 -12.5092    182.9182     68.5860   3.3374081492e+01   2.9258483562e+01     1.142844    0.2372218 -39.73  0.002951239    4.402    0.773
        73 -11.2447    113.3854    245.2096   8.4452194705e+01   9.5812804992e+00    0.1884356    0.1107937 -61.34   0.00111386    2.062    0.515
        74 -11.1948      3.2756    248.3145   1.0304103194e+02   2.3365884139e+01    0.2498299    0.1362287  84.42  0.001876635    1.403    0.287
        75 -12.8328    191.3767     69.0109   3.1929023397e+01   2.7014601388e+01     1.285517     0.732377  26.79  0.004505364    3.032    0.670
        76 -13.9119    203.6745     69.7074   2.9982370464e+01   2.3772055794e+01     1.024559     0.836969 -28.71  0.003714008    1.282    0.220
        77 -13.9335    205.2458     60.1800   2.7166459817e+01   2.4876723654e+01     1.682488    0.9869456  50.01   0.00425658    1.748    0.428
        78 -10.5834     13.5165    248.5106   1.0151727791e+02   2.2284988011e+01    0.1030281   0.06845545  70.20 -8.880562e-06    1.004    0.004
        79 -12.6930    243.4794    243.0252   6.0501856099e+01  -1.1235353691e+01    0.3248301    0.2541429   5.70  0.002350052    1.140    0.123
        80 -12.4739    173.7549     54.3913   3.0974809387e+01   3.3900984278e+01     1.063508    0.4812389  56.60   0.00347234    2.065    0.516
        81 -12.6742    236.7998     53.1012   2.0941517790e+01   1.8195140777e+01     1.162529    0.5379825 -38.05  0.002898858    1.968    0.492
        82 -11.0601    174.0046     39.7174   2.6543802681e+01   3.5958318009e+01    0.3813893    0.2496786  55.68  0.001108842    1.421    0.296
        83 -12.0609    232.8937     45.8839   1.9669575825e+01   2.0139960558e+01    0.6907462    0.5359534 -10.07  0.002635747    1.671    0.402
        84 -10.5251    180.3896    243.1998   7.1825430068e+01  -1.2193111539e+00    0.1437594    0.1196002 -60.14 0.0007834424    1.683    0.406
        85 -12.9097    173.0600     45.6797   2.8499625884e+01   3.5373154432e+01    0.5500281    0.4513625  24.28  0.001164002    1.407    0.289
        86 -11.1550    219.5951    240.1583   6.4225486269e+01  -7.2625771790e+00    0.2704576    0.2052886  27.44  0.001821074    1.045    0.043
        87 -13.8944    144.0732     83.8204   4.6346200651e+01   3.6281589437e+01      1.75395    0.9213525  49.84  0.006860382    1.875    0.467
        88 -12.8432    132.4561     55.6963   4.0421683991e+01   4.4108313259e+01     1.964944    0.7507343  44.20  0.006783497    2.626    0.619
        89 -12.2006     90.6093     50.8844   5.0681917001e+01   5.3910686897e+01    0.3323537     0.245387   6.81   0.00170705    1.524    0.344
        90 -12.6578     86.0036     74.8404   6.0096004564e+01   5.0210298709e+01    0.8665405    0.7566552 -25.91  0.004913519    1.089    0.081
        91 -10.3826     15.9821    238.4540   1.0065498554e+02   2.3765832769e+01    0.1607304     0.103849  85.23 0.0005195073    1.225    0.184
        92 -11.0260    235.1731    244.1991   6.2123140943e+01  -1.0133025567e+01    0.1516672    0.1220193  34.36 0.0005006489    1.336    0.252
        93 -10.4362    159.8048    219.8495   7.2346773419e+01   5.8701491730e+00    0.1849078    0.1582617  32.31 0.0003154331    1.122    0.109
        94 -12.1832    152.8614    124.2411   5.5173706407e+01   2.5939480974e+01    0.2894434     0.279646  69.80 0.0003350707    1.045    0.043
        95 -12.9908    150.8969     62.1470   3.8100715437e+01   3.8522203720e+01     1.369178     1.122423  79.56   0.00671605    1.395    0.283
        96 -10.0980    225.5699    121.0449   3.9233100947e+01   9.8077579486e+00    0.2728463    0.1910981  32.85 0.0005220702    1.579    0.367
        97  -9.9363    248.9348    117.9950   3.4634841573e+01   5.3744372750e+00    0.2551194    0.1869001 -84.88  0.001224618    2.141    0.533
        98  -9.9132    204.2499    116.5202   4.2070301110e+01   1.5443978521e+01    0.2818864     0.153245  57.19 0.0008084448    2.032    0.508
        99  -9.6410    210.5981    113.1826   4.0035017479e+01   1.4572963071e+01    0.3207995    0.1993831 -19.13  0.001077033    2.035    0.509
       100 -11.5989    133.4837    112.2282   5.6953171181e+01   3.2847397256e+01    0.3094472    0.3029811  67.01  0.001562547    1.021    0.020
       101  -9.7266    201.9828    110.2014   4.0921871105e+01   1.7135647439e+01    0.2087024    0.1218899  52.14  0.000858892    1.735    0.424
       102 -12.2092     24.9635     43.3639   7.2588263364e+01   6.4207660837e+01    0.5442762    0.4021199 -51.90  0.003244987    1.282    0.220
       103 -12.0183     26.6375     36.1881   6.9518682968e+01   6.5392578148e+01    0.3534771    0.2312857 -26.16 0.0007081247    1.341    0.254
       104 -10.8309     65.5885    110.2734   7.5536393423e+01   4.5475689215e+01    0.2016417    0.1136665 -49.74 0.0009496511    1.626    0.385
       105  -9.6485    217.0523    109.3518   3.7906335359e+01   1.3760741621e+01    0.2010134      0.19323  58.95 0.0004518787    1.090    0.083
       106 -13.4516     56.0726     69.3271   6.8526967865e+01   5.5802277562e+01      1.08723    0.6290086 -43.57  0.005568848    1.512    0.339
       107 -12.4903     58.8590     60.5447   6.4886806731e+01   5.7220943135e+01    0.5813783    0.4619961  75.65  0.003198199    2.013    0.503
       108 -10.1159     97.4467    109.5130   6.6087774557e+01   4.0655252444e+01    0.1467654    0.1393562 -48.08 2.747379e-05    1.032    0.031
       109 -10.4223    195.5118    106.9948   4.1367968659e+01   1.9274264985e+01    0.4260176    0.2289657 -56.00  0.001534536    2.522    0.603
       110 -12.6386     82.3315     40.7265   4.9657586656e+01   5.7114869223e+01     0.542495    0.5073165  84.29  0.002038368    1.482    0.325
       111 -13.1595    224.4682     60.9027   2.4492681600e+01   1.9991458848e+01     1.278058    0.8867731  52.01  0.004139967    1.519    0.341
       112 -12.2401    208.2047     84.9018   3.3240501299e+01   2.0118352049e+01    0.3559774    0.2488489  37.66  0.001625077    1.627    0.386
       113 -12.6232    184.7255     47.5087   2.6994705252e+01   3.2061981100e+01     1.083304    0.7592768 -66.28  0.004396057    1.663    0.399
       114 -13.1637    196.2425     84.6778   3.5331789248e+01   2.3124535266e+01     0.697176    0.5470561 -17.73  0.002118852    1.452    0.311
       115 -10.1536    166.6631     89.3590   4.2654275513e+01   2.9695734801e+01    0.2759314    0.1936431  65.39 0.0005845707    1.588    0.370
       116  -9.8290     86.4759     89.4419   6.4159385937e+01   4.7041369519e+01     0.288358    0.1416308  39.16  0.001198788    2.157    0.536
       117 -11.0916     71.0731     87.8552   6.8578912189e+01   4.9802410728e+01    0.3687396    0.2546795 -29.64  0.001269361    1.596    0.374
       118 -12.9755     67.3447     82.3472   6.8324324242e+01   5.1538361989e+01     0.771625    0.4930408 -65.74  0.002538204    1.848    0.459
       119 -11.2398     24.0765     86.1468   8.3514931481e+01   5.5386190859e+01     0.335268    0.1600641 -72.46  0.001610135    2.137    0.532
       120 -11.7259      6.2351     86.1916   8.9234813174e+01   5.6576399476e+01    0.4975969    0.2219178 -21.14  0.002277401    3.700    0.730
       121 -11.2940      5.5107     83.4816   8.9028495065e+01   5.7208767828e+01    0.2337181    0.1352285 -64.89 0.0008115631    1.317    0.241
       122 -10.4175    232.9772     78.9232   2.7762679713e+01   1.5173532085e+01    0.3094766    0.2258126 -33.24 0.0006744094    1.328    0.247
       123 -11.3129    237.5107     86.4335   2.8927861194e+01   1.2935766904e+01    0.4222947    0.2616646  62.61 0.0007115223    1.772    0.436
       124 -11.2511    231.2245     83.2985   2.9100690304e+01   1.4878781931e+01    0.3593558    0.2714252 -76.63  0.001269912    1.579    0.367
       125 -10.1127    222.3208     87.3055   3.1491548079e+01   1.6307723332e+01    0.1485421    0.1157615  17.60 0.0002806492    1.636    0.389
       126 -11.5592    186.5980     86.8764   3.7780445228e+01   2.5155799311e+01    0.3197497    0.2306999  63.48  0.001446853    1.454    0.312
       127 -11.7248    162.5070     84.1743   4.2101280911e+01   3.1704196880e+01    0.5406602    0.3774119  59.09   0.00210812    1.473    0.321
       128  -9.6749    245.3259     85.2331   2.7514473715e+01   1.1385307625e+01    0.1901718    0.1162882 -41.66 0.0002291333    1.489    0.328
       129 -12.0825    169.3755     79.7291   3.9311901120e+01   3.0793467960e+01    0.5797277    0.5030457 -68.61  0.001975913    1.266    0.210
       130 -10.1988     15.8654    106.8573   8.9471306154e+01   5.1354067256e+01    0.1595425    0.1224291  86.39 0.0003551162    1.296    0.228
       131 -10.7811    155.3703     76.6435   4.1511981122e+01   3.4870126915e+01    0.4217307    0.3062004  37.09  0.001909019    1.454    0.312
       132 -10.8579    249.8573     75.0540   2.4503854642e+01   1.1967236737e+01    0.3112761    0.2161476 -18.76  0.001473321    1.690    0.408
       133 -11.6112     73.1594     75.1348   6.4373284456e+01   5.2224305325e+01    0.3455534     0.270748 -38.97 0.0008635338    1.163    0.140
       134 -11.5445     72.3130     71.4229   6.3553700566e+01   5.3120314339e+01    0.5564657    0.2176798  40.59  0.001879221    2.790    0.642
       135 -12.1003    176.6596     71.1015   3.5313699717e+01   3.0445943206e+01    0.7410468    0.5515742 -83.00  0.000318291    1.710    0.415
       136 -10.8356    164.5119     73.1021   3.8420315582e+01   3.3204616826e+01    0.3295498    0.2648246 -48.74 0.0009091088    1.299    0.230
       137 -12.3018    162.4535     66.6583   3.6937677865e+01   3.4839199122e+01    0.8748668    0.4848171  44.04   0.00351448    1.845    0.458
       138 -10.7045    238.6485     72.6780   2.5435316438e+01   1.4844325772e+01    0.3506276    0.1906411  55.53  0.001581812    1.922    0.480
       139 -11.2765    166.1449     26.3685   2.3834391168e+01   3.9719266270e+01    0.4859529    0.3581179 -43.24  8.63395e-05    1.452    0.311
       140  -9.7228     75.2880     67.9846   6.1498710470e+01   5.3359089235e+01    0.1932357    0.1565272 -35.51  0.001082303    1.127    0.113
       141  -9.9732    175.7472     62.5554   3.3005324389e+01   3.2098443528e+01    0.3500977     0.170021 -46.93  0.001302993    2.261    0.558
       142 -13.0782    138.6809     70.9513   4.3774613243e+01   3.9983758557e+01      1.79495    0.8522465  37.40  0.006344941    2.519    0.603
       143 -10.9208    100.4474     54.1755   4.8770850123e+01   5.1432430421e+01    0.5268878    0.4241828  37.46  0.002114611    1.227    0.185
       144 -10.7266    247.8427     57.2283   2.0586006780e+01   1.5062211236e+01    0.3944247    0.1779945  58.68  0.001382899    2.288    0.563
       145 -10.3950    108.8710     56.4344   4.7049652638e+01   4.9305900962e+01    0.3466216    0.2052393 -40.67  0.001416338    1.719    0.418
       146 -13.7427     28.4844     59.0407   7.5753038678e+01   6.0824120750e+01    0.9753865     0.813494 -24.67  0.003478811    1.157    0.136
       147  -9.8786    111.6895     52.2136   4.4779667492e+01   4.9416560682e+01    0.1911717    0.1556262   9.27 0.0004065465    1.300    0.231
       148 -10.2922    249.4759     49.9171   1.8701906618e+01   1.5734109985e+01     0.243723    0.1868331  59.97 0.0007723355    1.409    0.290
       149 -10.0904     99.7194     46.7648   4.6353286134e+01   5.2818742126e+01    0.2709303    0.2540635   4.24  0.001500415    1.056    0.053
       150  -9.8379    104.6533     44.3524   4.4006824719e+01   5.2183171213e+01    0.4080376    0.2849944  -0.65  0.001964425    1.724    0.420
       151 -10.8887    148.7544     45.8281   3.3366212175e+01   4.1624338213e+01    0.3963532    0.2804212  50.39  0.001898469    1.323    0.244
       152 -10.9747    147.4039     39.0205   3.1427995386e+01   4.2931915052e+01    0.5733873    0.4070021 -50.92  0.002120606    1.619    0.382
       153  -9.7312    142.5214     46.2384   3.4879853781e+01   4.3128432845e+01    0.3992488    0.2067446  35.47  0.001349405    2.338    0.572
       154 -11.5333    133.1643     46.1531   3.7041284069e+01   4.5436930520e+01    0.5781052    0.3017729  50.56  0.002281097    1.785    0.440
       155 -10.8641    136.0326     42.3221   3.5058103473e+01   4.5302450901e+01     0.310406    0.2801522 -40.07 0.0006396956    1.194    0.162
       156 -12.6532    126.4417     45.3976   3.8444481451e+01   4.7154123629e+01    0.7438182    0.4635774  43.82 0.0006467989    1.526    0.344
       157 -11.5163    131.7502     40.2132   3.5345600051e+01   4.6645162939e+01    0.6724247    0.2951121  36.84  0.002368128    2.815    0.645
       158 -10.7474     34.3910     43.0201   6.8589498441e+01   6.3411786454e+01    0.3259344    0.2261689   5.68  0.002014084    1.557    0.358
       159 -11.2194    247.6456     42.3090   1.7149212319e+01   1.7195723011e+01    0.3471811    0.2327589 -70.92 0.0009321605    1.535    0.348
       160  -9.8724    239.5374     43.4201   1.8301073448e+01   1.8911803975e+01     0.181209    0.1266075  88.17 -8.025176e-05    1.489    0.328
       161 -10.1492    241.0585     40.1243   1.7354020312e+01   1.9004600302e+01      0.25605    0.1905129 -30.76 -0.0009232552    1.413    0.292
       162  -9.8483     96.5248     42.5243   4.5772453921e+01   5.4136339258e+01    0.1388757    0.1288313   5.64 -3.195802e-06    1.056    0.053
       163  -9.6231    101.5233     40.4404   4.3488826069e+01   5.3438111865e+01    0.1447992    0.1243544  14.10 6.837495e-05    1.096    0.088
       164  -9.9562     39.8907     39.8106   6.5229836097e+01   6.3424329295e+01    0.1990197    0.1407447 -21.98 0.0008598171    1.272    0.214
       165 -10.8971    234.1798     36.9066   1.7352349905e+01   2.1052967051e+01    0.5059395     0.254263 -71.07  0.001512764    2.733    0.634
       166  -9.7931    186.3946     29.1723   2.1470225660e+01   3.4084468118e+01    0.2169421     0.191729  54.46 0.0004366939    1.138    0.121
       167 -12.7337    187.2125     34.5503   2.2879292669e+01   3.3188422407e+01    0.5501419    0.4186679  60.83  0.002847682    1.231    0.187
       168 -10.7838    181.4959     30.4228   2.2569590216e+01   3.5209059810e+01    0.3419186    0.2638794  43.15  0.000998982    1.366    0.268
       169 -10.8011    114.4484     38.4598   3.9107377200e+01   5.0934131200e+01    0.6154997     0.278869  65.55  0.001995675    3.870    0.742
       170  -9.9583    112.1835     34.0527   3.8096812043e+01   5.2059173549e+01    0.3602885     0.198613 -27.57  0.001626554    1.893    0.472
       171  -9.8406    123.7673     37.5273   3.6353683610e+01   4.8924742764e+01     0.286527    0.1244264  48.72  0.001123116    2.097    0.523
       172 -12.3363     91.8474     33.8236   4.3914109210e+01   5.6371939892e+01    0.4690457    0.3428333  13.83  0.002516452    1.418    0.295
       173 -11.8423    131.8476     33.8666   3.3117343964e+01   4.7490018058e+01    0.2642187    0.2509373 -67.10 0.0003875081    1.197    0.165
       174  -9.3776    120.2357     35.2857   3.6440885162e+01   5.0058085980e+01    0.1922628    0.1703369  -3.27            0    1.141    0.123
       175  -9.6306    122.2620     32.7044   3.4999352091e+01   4.9932795700e+01    0.1894128    0.1534374  18.87  0.000191325    1.259    0.205
       176  -9.7125    212.0848     33.9319   1.9245462902e+01   2.6867774397e+01    0.2079832    0.1647933 -66.00 0.0002823203    1.227    0.185
       177 -10.4276    217.5037     23.4767   1.5932904159e+01   2.6821906270e+01    0.4071769    0.2678524   8.14  0.001843512    2.601    0.615
       178 -11.6610    218.0414     30.9973   1.7761699717e+01   2.5753634679e+01    0.6703814    0.3483168  83.02  0.002210097    2.192    0.544
       179 -11.2793    219.3124     27.5613   1.6749546040e+01   2.5871424937e+01    0.4125901     0.259543  80.22 0.0009763228    1.565    0.361
       180  -9.7375    228.7802     28.8634   1.6011726857e+01   2.3389855989e+01    0.3155482     0.250972 -16.20  0.001764931    1.561    0.359
       181 -11.6994     86.6600     28.7008   4.3528813574e+01   5.8101705323e+01    0.2935102    0.2303444  17.49 0.0005986965    1.187    0.157
       182 -11.5356    146.7930     26.0086   2.7241315974e+01   4.4753021246e+01    0.4534009    0.3234094 -10.99  0.001566057    1.640    0.390
       183 -10.2680    183.8151    105.8570   4.3454330504e+01   2.2322539597e+01    0.2730676     0.233952  67.95 0.0006143086    1.249    0.199
       184  -9.3452    140.6179     29.2551   2.9589642171e+01   4.5916050251e+01    0.1446384    0.1103998 -83.45 0.0005391981    1.666    0.400
       185 -12.4474    112.8344     28.1051   3.5702529518e+01   5.2698596615e+01    0.4686249    0.2641053  53.44  0.001634946    1.683    0.406
       186 -10.1901    104.9676     28.4724   3.7963783557e+01   5.4390752824e+01    0.2734642    0.2224928 -57.31  0.001490382    1.631    0.387
       187  -9.0349    213.0000    103.9772   3.7292044934e+01   1.5650224432e+01    0.2535029   0.08421098 -36.03            0    2.930    0.659
       188  -9.8727    241.4945     22.6670   1.3264496556e+01   2.1145354711e+01    0.3130481    0.1822612  79.52  0.001327336    1.688    0.408
       189  -9.9280    244.7800     20.8555   1.2549066863e+01   2.0607240287e+01    0.3123892    0.2036474 -48.23   0.00114591    1.374    0.272
       190 -10.2836    176.2980     25.0386   2.1794554864e+01   3.7224561368e+01    0.3529318    0.2035774 -34.45  0.001251392    1.815    0.449
       191 -10.7252    124.8320     25.3479   3.1717798083e+01   5.0252588364e+01    0.4488679    0.2134257  37.59  0.001511494    2.258    0.557
       192 -11.5556    226.8360     22.7835   1.4750650500e+01   2.4613294602e+01    0.4656612    0.2703171  68.37   0.00128201    1.626    0.385
       193 -10.9138    144.3854    102.8951   5.1697191214e+01   3.2375815108e+01    0.4011604    0.3005943  24.79  0.001756367    1.587    0.370
       194  -9.6032    226.4801     18.4508   1.3745147795e+01   2.5216992487e+01    0.2343301    0.1731215 -65.55 0.0005142275    1.254    0.202
       195 -11.4348    223.0052     16.9374   1.3732711786e+01   2.6239742327e+01    0.2351372    0.1966525 -84.38  0.001407046    1.052    0.049
       196 -11.2075    131.2567    103.4173   5.5199753160e+01   3.5232777579e+01    0.3024297    0.2474316  -5.89 0.0008177207    1.504    0.335
       197 -10.2769    161.1473     24.9488   2.4247803583e+01   4.1187668955e+01    0.3969431    0.1492588 -39.87  0.001462565    2.806    0.644
       198  -8.9769    241.0000    102.9696   3.2364309299e+01   9.4800601760e+00     0.239971   0.07630806 -34.94 0.0007981576    2.913    0.657
       199 -10.4903    135.1675     24.8923   2.9243789318e+01   4.7798079049e+01    0.4386265    0.2921412 -88.57  0.001918694    2.190    0.543
       200  -9.9711    138.1062     22.5187   2.7803769051e+01   4.7344938425e+01    0.2288939    0.1798526  31.30  0.000354331    1.282    0.220
       201 -11.3591    139.1690     17.9529   2.6016753208e+01   4.7585493608e+01    0.2479145    0.2212779 -26.20  0.001438675    1.234    0.190
       202 -10.3547    209.7040     22.5218   1.6587614641e+01   2.8891150392e+01    0.2625419     0.168223 -41.96  0.001325268    1.541    0.351
       203 -10.9493    118.6792     22.1502   3.2004371547e+01   5.2080724298e+01    0.4262539    0.2874507  75.48  0.001599388    1.919    0.479
       204  -9.9809    122.4807     19.0918   2.9977048072e+01   5.1532803203e+01    0.2227569    0.1685183  32.77 0.0004017152    1.258    0.205
       205 -10.7042     98.0974     21.9576   3.7347943606e+01   5.6674864566e+01    0.2749191    0.2088347   8.32 0.0009054425    1.317    0.241
       206  -9.1026    180.2253     20.9545   2.0011894264e+01   3.6672861999e+01    0.2924638    0.1887839 -55.10  0.001359125    1.700    0.412
       207 -10.4947    129.6982     19.7986   2.8623974060e+01   4.9720509411e+01    0.3693669    0.2056053  36.37  0.001126072    1.864    0.463
       208 -12.8075    119.7796    101.0118   5.7624010218e+01   3.8213281571e+01    0.5677606    0.3527911 -45.14  0.002113277    1.591    0.371
       209 -10.1111    201.6299     19.8155   1.6848301105e+01   3.1261617473e+01    0.2202464    0.1834116  65.67 0.0005524165    1.152    0.132
       210  -9.4170    204.0000     17.9519   1.6072993028e+01   3.0870886264e+01    0.1932524    0.1746956 -53.21 0.0005420453    1.148    0.129
       211  -9.4847    168.4903     18.4550   2.1032758025e+01   4.0013872522e+01    0.1431003    0.1282163  71.19 6.828867e-05    1.012    0.012
       212  -9.9502    111.7888     17.0188   3.1748771239e+01   5.4244757191e+01    0.2394576    0.1751008  47.34 0.0009093953    1.220    0.181
       213 -13.1507    131.6076     96.3091   5.3146164499e+01   3.6654949393e+01    0.7534738    0.6025091  47.31  0.003653381    1.251    0.201
       214 -12.5443    127.7283     90.4152   5.2495690612e+01   3.8737493378e+01    0.4691375    0.3622974  11.01 0.0005765874    1.641    0.391
       215 -11.6790    110.1918    102.6034   6.0712518381e+01   3.9811881500e+01    0.3024976    0.2507428 -26.64  0.001499363    1.312    0.238
       216 -11.5322     96.2367    101.0290   6.4306158572e+01   4.2786625672e+01    0.4617018    0.2439888 -32.99  0.001760782    2.489    0.598
       217 -11.5368    100.8461    101.2051   6.3011016320e+01   4.1907867639e+01    0.3525116    0.2070664 -48.78  0.000651456    1.638    0.389
       218  -9.4982    102.4721     14.5269   3.3162731124e+01   5.6587849365e+01    0.1348552    0.1180976  28.79 0.0001131367    1.024    0.024
       219 -12.4647     86.4333     98.6048   6.6591650718e+01   4.5020442627e+01    0.5925673    0.4552902  -7.65  0.002957542    1.694    0.410
       220  -9.7370    226.0000    100.0141   3.4055239759e+01   1.3315152705e+01    0.2592278   0.08075704 -35.29 0.0002564519    3.060    0.673
       221 -12.1635    151.8176     96.8296   4.8196865169e+01   3.1865517930e+01    0.6637811    0.4492885 -65.47  0.002705049    1.992    0.498
       222 -10.9895    169.8680     97.8466   4.4306044612e+01   2.7279365080e+01    0.3897043    0.3490254   2.93  0.001461757    1.239    0.193
       223  -9.7456    166.0292     95.4940   4.4513728611e+01   2.8678621204e+01    0.2448839    0.2202343 -81.25 0.0004401905    1.228    0.186
       224  -9.7342    194.4717     98.4714   3.9349653525e+01   2.1097412487e+01     0.154831    0.1503661  12.27 0.0008086392    1.058    0.055
       225 -11.3060    140.8994     97.8258   5.1173302385e+01   3.4229874521e+01    0.3605368    0.2165534  56.01  0.001019368    1.804    0.446
       226 -11.5216    131.1086     86.0442   5.0319081391e+01   3.8865892330e+01    0.4015703    0.3037624  84.29  0.001243957    1.857    0.462
       227 -11.5692     12.1832     97.4249   8.9156622737e+01   5.3727233362e+01    0.2396485    0.1875056 -58.89 0.0005740381    1.094    0.086
       228  -9.9835    170.5361     10.4860   1.8329145018e+01   4.0317434438e+01    0.2567346    0.1266631  82.72  0.001021642    2.369    0.578
       229 -10.8168    229.0614     96.2970   3.2639796422e+01   1.3240059581e+01    0.3495079    0.2305337  79.31  0.001433172    2.109    0.526
       230 -11.2448    200.4233     96.3230   3.7642895020e+01   2.0029471039e+01    0.3149861    0.2690041  89.91 0.0007206788    1.334    0.250
       231 -12.9390    106.4882     93.9812   5.9431499297e+01   4.2419145458e+01    0.6500052    0.5107281 -13.01  0.001389537    1.551    0.355
       232 -11.2392    109.3265     87.4478   5.6755810704e+01   4.3246599954e+01    0.4115843    0.2710773  -1.37  0.001500707    2.645    0.622
       233 -11.2658     73.8319     96.1644   6.9823407504e+01   4.7546609979e+01    0.2147887    0.1939941 -85.90  0.001245752    1.218    0.179
       234 -11.9154     48.4551     85.6707   7.5400883037e+01   5.3188301137e+01    0.3400492    0.2262757 -74.48 0.0008884311    1.754    0.430
       235 -13.7478     52.6152     89.8064   7.5011965198e+01   5.1790642869e+01    0.7771073    0.5291576  89.41  0.003872251    2.128    0.530
       236 -12.1645     53.4958     86.2810   7.3887209492e+01   5.2471813673e+01    0.4423632    0.2087727  26.75  0.001722963    2.535    0.606
       237 -12.1416     49.5259     95.5582   7.7290127212e+01   5.0849196121e+01    0.3272989    0.2513431  13.56   0.00103843    1.586    0.369
       238 -10.6578     27.7053     95.9710   8.4197691531e+01   5.2894581107e+01    0.1820868    0.1716177 -60.07 0.0004280385    1.150    0.130
       239 -10.9765    214.0272     94.4907   3.4705571096e+01   1.7062471519e+01    0.2776173    0.2017651 -51.03 0.0005774889    1.421    0.296
       240 -10.4042    207.5102     94.7748   3.5933249216e+01   1.8580255818e+01    0.2623244    0.2141259  56.16 0.0006557638    1.249    0.199
       241 -12.6335     62.0514     91.4913   7.2380830818e+01   5.0240692395e+01     0.534557    0.3102376 -68.44  0.002198073    2.027    0.507
       242 -10.1345    249.6454     94.1484   2.9000425499e+01   9.0430402516e+00    0.2211955    0.1896991  85.53 0.0002910596    1.339    0.253
       243 -11.9395    189.1198     93.1190   3.8977586042e+01   2.3395942876e+01    0.4208001    0.3042099 -75.28  0.001264779    1.867    0.464
       244  -9.4111    177.5323     94.5643   4.1746532301e+01   2.6010142238e+01    0.1560045    0.1535368  56.38 8.447516e-05    1.006    0.006
       245 -12.3002    117.3447     93.5156   5.6220477731e+01   4.0326333256e+01    0.4097582    0.3026401 -18.12  0.001861456    1.686    0.407
       246 -12.3035    114.0407     81.1416   5.3533693835e+01   4.3576148649e+01    0.6080282    0.3498946 -44.71  0.001427712    1.731    0.422
       247 -11.3875    116.0638     88.9671   5.5277311169e+01   4.1549089208e+01    0.3252134    0.2396371 -31.54 0.0004884941    1.425    0.298
