#   1 NUMBER                 Running object number                                     
#   2 MAG_AUTO               Kron-like elliptical aperture magnitude                    [mag]
#   3 X_IMAGE                Object position along x                                    [pixel]
#   4 Y_IMAGE                Object position along y                                    [pixel]
#   5 X_WORLD                Barycenter position along world x axis                     [deg]
#   6 Y_WORLD                Barycenter position along world y axis                     [deg]
#   7 A_WORLD                Profile RMS along major axis (world units)                 [deg]
#   8 B_WORLD                Profile RMS along minor axis (world units)                 [deg]
#   9 THETA_WORLD            Position angle (CCW/world-x)                               [deg]
#  10 FWHM_WORLD             FWHM assuming a gaussian core                              [deg]
#  11 ELONGATION             A_IMAGE/B_IMAGE                                           
#  12 ELLIPTICITY            1 - B_IMAGE/A_IMAGE                                       
         1 -14.3193     68.2362    144.4710   9.6729266807e+01   3.7535156273e+01     4.192241     1.998428  64.82   0.00622974    5.003    0.800
         2 -13.8869    227.4046     24.9842   3.3450366072e+01   2.6286496254e+01     1.299357     1.017671  47.06  0.004001287    1.785    0.440
         3 -13.9192    202.1318     45.6934   4.0520323185e+01   2.9084385946e+01     1.357265     1.108281 -39.77  0.003998103    1.313    0.238
         4 -13.6442    210.7718     40.0759   3.8256265777e+01   2.7927682289e+01    0.9579085    0.8077634 -54.85  0.003633442    1.158    0.136
         5 -12.5171    248.2085      4.5299   2.8051976592e+01   2.4477377983e+01    0.5211957    0.3061638 -56.10  0.003488593    1.335    0.251
         6  -9.1805     88.9892    210.6637   1.0152180235e+02   1.8369638893e+01    0.1914666    0.1623091  49.88 0.0004733078    1.075    0.070
         7 -13.5596      6.0448    186.6270   1.1874084875e+02   3.3977482556e+01     1.578385    0.8788958  81.19  0.008559847    1.653    0.395
         8 -12.8256     83.1647    216.4325   1.0361990805e+02   1.7956555168e+01     1.023584     0.617564  86.41 0.0009322812    2.193    0.544
         9 -16.1229     38.7559    190.5440   1.1127729532e+02   2.9808175815e+01     10.23447     4.149827  82.06   0.03181269    4.822    0.793
        10 -16.7127     20.4413    243.4360   1.1945520059e+02   2.0122517253e+01     8.739612     2.607326  25.82   0.03158125    5.230    0.809
        11 -10.5386     55.6563    192.4839   1.0732855576e+02   2.7293106332e+01    0.2812836    0.2044347  68.24 0.0008373536    1.348    0.258
        12  -9.6560    146.9906    187.2468   8.3874007001e+01   1.3810092144e+01     0.204793    0.1626839 -76.05 0.0008942047    1.609    0.378
        13  -8.8080     80.7564    183.6387   9.9764813139e+01   2.5918798553e+01    0.1415782    0.1065483 -36.99 0.0006933683    1.601    0.375
        14 -13.1640     30.6440    200.4656   1.1416286920e+02   2.8365033115e+01    0.4639843    0.3858274 -31.98  0.001196089    1.640    0.390
        15  -9.5622     99.4554    180.9487   9.4497297305e+01   2.3602722142e+01    0.2217358    0.1921155  39.43 0.0005456141    1.137    0.121
        16  -9.9478    187.3786    175.9694   7.2720422859e+01   8.7848850908e+00    0.2640719    0.2529824  57.66  0.001545719    1.215    0.177
        17 -12.1215     59.4958    174.4732   1.0402538108e+02   3.1189844433e+01    0.4390609    0.3108454 -28.22  0.001618204    1.945    0.486
        18 -12.0235     64.5990    169.5567   1.0194140462e+02   3.1725468493e+01    0.3609672    0.2829416 -32.62  0.001802284    1.554    0.356
        19 -10.3767     86.6014    173.4614   9.6622649316e+01   2.7498842787e+01    0.4626438    0.2790208  17.80  0.001917659    2.286    0.563
        20 -10.5821    118.9916    173.4870   8.8140815847e+01   2.1987411079e+01    0.2354694    0.1456099  38.09 0.0005615862    1.583    0.368
        21 -13.8972     69.6822    131.2379   9.3711199273e+01   4.0647095587e+01     4.419239     2.388328  79.16   0.01216984    5.537    0.819
        22 -13.5280     61.7868    156.1062   1.0062922865e+02   3.5492848950e+01    0.5454618    0.3737817 -37.33  0.001786129    1.718    0.418
        23 -12.6528     82.3426    153.9598   9.4377357305e+01   3.3014821374e+01     1.117823    0.5831265 -51.55  0.001514381    1.862    0.463
        24 -12.5292     74.9405    159.7989   9.7514188540e+01   3.2688073538e+01    0.6823003    0.6320179 -83.97 0.0008746892    1.032    0.031
        25 -10.2783    110.9556    203.3010   9.5221986957e+01   1.6543550044e+01    0.2035773    0.1729889  43.31 0.0003913379    1.096    0.088
        26 -10.3963    134.2255    147.1404   7.8817724404e+01   2.5242951347e+01    0.7418541    0.1903647 -54.09  0.001746611    5.483    0.818
        27  -9.7410    174.8579    149.1000   6.9698291261e+01   1.6604064556e+01    0.2322089    0.2051784 -79.68 0.0007586532    1.330    0.248
        28  -9.3400    147.7565    145.6132   7.5114449580e+01   2.2855526711e+01    0.4020377    0.2528464 -84.61  0.001317137    3.577    0.720
        29  -9.6147     47.6944    145.8885   1.0309554514e+02   3.9874629268e+01    0.2337837    0.1575492 -50.12 0.0006850915    1.446    0.308
        30 -10.3708     28.9640    143.1055   1.0824275477e+02   4.2587457743e+01    0.2985592     0.228068  -9.25  0.001656352    1.680    0.405
        31 -10.8132     98.2707    139.5144   8.6894809756e+01   3.3917742371e+01    0.6324872    0.4014674 -12.37  0.002285272    2.962    0.662
        32 -12.4332     84.9308    139.1379   9.0712788265e+01   3.6297984639e+01    0.3197561    0.2702187 -46.44 0.0004394738    1.174    0.148
        33 -11.4911     17.7097    130.7080   1.0994168586e+02   4.6674053253e+01    0.3985149     0.225776 -81.88 0.0009610343    1.753    0.430
        34 -10.9275    107.1378    130.5882   8.2339727515e+01   3.4439613131e+01    0.4818183    0.3312354  31.83  0.001920357    1.553    0.356
        35 -10.1417    135.7175    129.4909   7.4346072049e+01   2.8959187390e+01    0.4200004    0.1302117 -42.06  0.001210931    3.489    0.713
        36 -10.5255     48.3193    169.4619   1.0634076487e+02   3.3854473806e+01    0.3171702    0.2312877 -88.95 0.0009527188    1.356    0.262
        37  -9.0974     82.5451    129.4789   8.9365385429e+01   3.9076942328e+01    0.1493419    0.1438396 -65.58 7.324249e-05    1.021    0.021
        38  -9.2927     96.7491    125.2807   8.4117244648e+01   3.7638064406e+01    0.2001396    0.1723842 -14.73  0.000271694    1.314    0.239
        39  -9.1948    115.4799    124.5350   7.8539549012e+01   3.4236554637e+01    0.1556479    0.1495605 -12.80 4.282956e-05    1.078    0.072
        40  -9.7787    105.9514    118.9843   7.9880604824e+01   3.7395889221e+01    0.2178149    0.2128978 -16.43 -0.002661949    1.033    0.032
        41 -11.1914    193.6653    196.1257   7.5353806218e+01   3.8775152896e+00    0.9718892    0.5011582 -63.83  0.002726659    6.669    0.850
        42  -9.4713    135.0000    113.0093   7.0416607522e+01   3.2741775690e+01     0.263841   0.08785852 -44.90 0.0008096089    2.992    0.666
        43  -9.0469     77.1637    112.3938   8.7105296463e+01   4.4086926190e+01    0.1977978    0.1364445  46.72 0.0004830055    1.573    0.364
        44 -10.6429     34.8467    111.2675   1.0114159835e+02   4.9930013450e+01    0.4318084    0.2206666  50.70  0.001803866    2.611    0.617
        45 -10.1158    205.3064    110.4945   5.5052874303e+01   1.7930162231e+01    0.3104948    0.2487352  30.78  0.001060352    1.528    0.345
        46  -8.7921    156.2463    111.5863   6.4945175284e+01   2.8363728645e+01    0.1590291    0.1160284 -70.51 0.0005451529    1.719    0.418
        47 -11.7762    242.7223    100.7889   4.7413980015e+01   1.2297257462e+01    0.3107638    0.2061208 -13.20  0.001500235    2.503    0.601
        48 -11.3466     52.9651     92.6839   9.0491960623e+01   5.2226001900e+01    0.5739217    0.2200654 -56.57   0.00217149    2.566    0.610
        49 -10.5860    240.1876     98.2055   4.7208968903e+01   1.3186281286e+01    0.1853797    0.1371699 -64.10 0.0006782131    1.349    0.259
        50  -9.2076     48.2717     92.6533   9.2206261686e+01   5.2831290362e+01    0.1328109    0.1082418  83.26 0.0002956377    1.622    0.383
        51 -11.5861     32.8863    157.0049   1.0895658793e+02   3.8705182820e+01    0.5910665    0.3469585  68.56    0.0026982    1.982    0.496
        52  -9.5280    161.5042     83.4931   5.6512931401e+01   3.2561399148e+01    0.1470996    0.1400645 -86.00 0.0008106261    1.009    0.009
        53  -8.9601     45.9568     69.0385   8.6554728511e+01   5.8217513692e+01    0.1607534    0.1369844 -31.13 0.0004117038    1.066    0.061
        54  -9.7015     35.2625     62.9270   8.9103283318e+01   6.0723252323e+01    0.2024705    0.1682787  30.72 0.0005569714    1.358    0.264
        55 -11.8682     12.7074     59.1889   9.7939129838e+01   6.3554828003e+01    0.4795687    0.3328554 -82.86  0.001129154    2.163    0.538
        56 -15.1160      9.7106    207.8410   1.1940633994e+02   2.8785935089e+01     1.316558     1.130403 -71.30   0.00716626    1.295    0.228
        57 -12.7725    219.4423     32.2911   3.5682912748e+01   2.7058959778e+01    0.5695431    0.4420455  57.71  0.001097506    1.517    0.341
        58 -12.4051    160.1698    224.6906   8.7397533425e+01   4.0930590341e+00    0.5785922    0.2649101  31.46  0.002508094    2.092    0.522
        59  -9.5603    122.0082    198.4645   9.1794884286e+01   1.5763481110e+01    0.3039891    0.1876121 -77.36  0.001260363    2.452    0.592
        60  -8.4950     39.7029     58.2886   8.5741454025e+01   6.1111506219e+01    0.1139456    0.1039048  68.29 0.0002379667    1.554    0.356
        61  -9.8109     21.3072     56.5312   9.3279342161e+01   6.3391161235e+01    0.2334847    0.1663547  38.29  0.000709214    1.747    0.428
        62  -9.7299     17.4906     54.9783   9.4554778519e+01   6.4025696055e+01    0.1787609    0.1497143 -11.83  0.000446084    1.117    0.105
        63 -10.4738      4.9313     49.7737   9.8943635315e+01   6.5961771779e+01    0.1921018    0.1513028  29.57  0.000725114    1.563    0.360
        64  -9.4178    131.5235     38.6416   4.9794868404e+01   4.6605317079e+01     0.222927    0.1555789  83.73 0.0007112868    1.683    0.406
        65 -10.5645    198.1078     23.9449   3.5980676039e+01   3.2730955134e+01    0.2475863    0.2075672 -27.65  0.001099212    1.490    0.329
        66  -9.4504    189.4985     15.0468   3.4818381000e+01   3.5667036777e+01    0.1704699    0.1182848 -37.58 0.0006660047    1.552    0.356
