#   1 NUMBER                 Running object number                                     
#   2 MAG_AUTO               Kron-like elliptical aperture magnitude                    [mag]
#   3 X_IMAGE                Object position along x                                    [pixel]
#   4 Y_IMAGE                Object position along y                                    [pixel]
#   5 X_WORLD                Barycenter position along world x axis                     [deg]
#   6 Y_WORLD                Barycenter position along world y axis                     [deg]
#   7 A_WORLD                Profile RMS along major axis (world units)                 [deg]
#   8 B_WORLD                Profile RMS along minor axis (world units)                 [deg]
#   9 THETA_WORLD            Position angle (CCW/world-x)                               [deg]
#  10 FWHM_WORLD             FWHM assuming a gaussian core                              [deg]
#  11 ELONGATION             A_IMAGE/B_IMAGE                                           
#  12 ELLIPTICITY            1 - B_IMAGE/A_IMAGE                                       
         1 -11.4554     25.5920     56.2357   2.9180506184e+02   6.9851937036e+00   0.05936815   0.04410723  -1.76   0.00638982    1.566    0.361
         2 -12.2741     60.5497     45.9289   2.9133517974e+02   6.9031345927e+00   0.05832592   0.02717321 -60.04  0.005153235    2.067    0.516
         3 -11.8854    120.3116     57.6233   2.9070805646e+02   6.4216251245e+00   0.07964204   0.03676913  57.35  0.005696758    3.643    0.725
         4 -10.7762    105.9158     21.1050   2.9065673896e+02   6.9287324044e+00   0.02018765    0.0106228 -59.71  0.001595182    1.841    0.457
         5 -12.6238    112.7947     24.8793   2.9059914717e+02   6.8451004304e+00   0.04136392   0.02431491  18.97   0.00398322    1.848    0.459
         6 -11.5503    178.2513     21.0949   2.8981324949e+02   6.5090378994e+00   0.02637475   0.01506853 -35.48  0.002425923    2.071    0.517
         7 -10.0374     60.2684     24.4597   2.9120972387e+02   7.1538988433e+00   0.02383807    0.0114952 -59.37  0.002136876    1.992    0.498
         8 -11.4074     26.2005     27.7738   2.9162749591e+02   7.3120559056e+00   0.03231617   0.02590028  66.63  0.003012266    1.417    0.294
         9 -11.5429     22.7129     11.1653   2.9156869646e+02   7.5248469726e+00    0.0286849   0.01997257 -10.43  0.002628377    1.788    0.441
        10 -11.7362     19.9288     22.9315   2.9167175154e+02   7.4043904968e+00    0.0275021   0.01616029 -59.72  0.001640302    1.657    0.397
        11 -12.1511     15.0672     21.7165   2.9172127462e+02   7.4464973099e+00   0.04570452   0.03201803  73.15  0.003928248    1.824    0.452
        12 -11.4311     16.8509     13.7262   2.9165254886e+02   7.5289213062e+00    0.0167885   0.01268252 -57.96  0.000316298    1.298    0.229
        13 -11.2151     13.6445      9.4702   2.9166451047e+02   7.5967620331e+00   0.02543052   0.01259807  26.04  0.002289055    2.037    0.509
        14 -10.2132     87.1946      7.2541   2.9079205463e+02   7.1977633912e+00   0.03097316   0.01825572  29.12  0.002896059    1.679    0.404
        15 -11.5578     90.6815     20.1985   2.9082908609e+02   7.0274609976e+00   0.02854559   0.02073102 -57.09  0.002579328    1.346    0.257
        16 -11.5561     85.9264     14.4456   2.9085004867e+02   7.1217053055e+00   0.02974051   0.01491046 -51.44  0.001857443    1.922    0.480
        17  -9.5997     32.1124     12.1609   2.9146483643e+02   7.4591045122e+00   0.01217934  0.008084208  44.56 0.0004015377    1.571    0.364
        18 -12.5888     48.7296     13.9376   2.9128136493e+02   7.3426044836e+00   0.03877551   0.03230244 -16.41  0.004494364    1.307    0.235
        19 -11.3637     35.5698     18.7056   2.9146368788e+02   7.3632408296e+00   0.02247031   0.01177143 -56.94  0.001273216    1.824    0.452
        20 -12.0438     68.3659     17.4260   2.9107296647e+02   7.1887006094e+00   0.03590597   0.02824561  28.47  0.004086406    1.272    0.214
        21 -12.4934    239.7495     15.4826   2.8906356780e+02   6.2160666214e+00   0.04073812   0.02325833  22.43  0.002738613    1.837    0.456
        22 -10.8376    165.3180     17.3178   2.8994123665e+02   6.6279954323e+00    0.0193479   0.01278732 -23.00  0.001312549    1.893    0.472
        23 -11.7096    134.3710     15.2171   2.9028940748e+02   6.8320419541e+00   0.04536073   0.01721833  24.91   0.00353059    2.752    0.637
        24 -11.2752    125.2578     11.1390   2.9037119179e+02   6.9321908608e+00   0.03219458    0.0158193  38.79  0.002690107    2.019    0.505
        25  -9.9695    115.8537     17.1338   2.9051692861e+02   6.9172026707e+00   0.01429067   0.01200543 -73.44  0.001662578    1.237    0.191
        26 -11.3086    192.0777      7.8105   2.8957225970e+02   6.5825864663e+00   0.02574556   0.01347628 -48.43  0.001757177    1.894    0.472
        27 -12.2561    104.9839     13.0173   2.9061903184e+02   7.0279269783e+00    0.0258009   0.02041423 -55.78  0.002942489    1.239    0.193
        28 -10.2387    218.9318     12.5761   2.8928828060e+02   6.3710353650e+00   0.01531906     0.011155   6.23 0.0008692049    1.563    0.360
        29 -11.7803    211.5358      9.9309   2.8935844539e+02   6.4447548037e+00   0.02773287   0.01533344 -41.68  0.001786546    1.953    0.488
        30 -10.8054     71.6511      3.3148   2.9094989117e+02   7.3333619313e+00   0.02863096   0.01835092 -55.09   0.00295013    1.511    0.338
        31 -10.9700     66.0215     10.9026   2.9106118982e+02   7.2779145434e+00   0.01814522   0.01494119   8.91  0.001613468    1.288    0.224
        32 -10.6840     63.1418      6.2162   2.9106669137e+02   7.3489077665e+00   0.02133549   0.01081079 -52.94  0.001466271    1.887    0.470
        33 -10.3661     76.8413      6.6068   2.9090905052e+02   7.2651722095e+00   0.01583885   0.01230618  45.47  0.001256963    1.332    0.249
        34 -10.5643     77.0070      3.2365   2.9088687568e+02   7.3032955127e+00   0.01559788   0.01186447 -11.00  0.001190192    1.528    0.346
        35  -9.7592      4.0997     10.3444   2.9178130415e+02   7.6415849539e+00   0.02016694   0.01085007 -28.13  0.001673358    2.658    0.624
        36 -11.8500    239.5546      7.3671   2.8901696680e+02   6.3112039460e+00   0.02986385   0.01475003  53.39  0.002395866    2.692    0.628
        37 -11.6570    246.0831      7.4072   2.8894127723e+02   6.2726757203e+00   0.02671163   0.01417668 -56.20  0.002069079    1.803    0.445
        38 -11.7020    241.7173      4.4145   2.8897402885e+02   6.3327888022e+00   0.02314003   0.01216071  36.78  0.002161077    1.867    0.464
        39  -9.9020    168.9762      9.8532   2.8985370258e+02   6.6932607389e+00   0.01384487  0.009423262   1.51  0.001387109    1.797    0.444
        40  -9.8768    150.9064      7.6302   2.9005096769e+02   6.8240120952e+00    0.0172236   0.01093131  26.00  0.001142499    1.588    0.370
        41 -10.1949      1.3020      7.2497   2.9179546192e+02   7.6935840027e+00   0.01084621  0.005827234 -60.40 0.0002431696    1.812    0.448
        42  -9.6439    157.7258      2.4264   2.8994015933e+02   6.8447143383e+00   0.01989084  0.009868323   1.41  0.001383611    3.902    0.744
        43  -9.6729    162.6394      5.8389   2.8990341066e+02   6.7766143249e+00   0.01420275  0.008644135 -43.55 0.0008330451    1.701    0.412
        44  -9.6184    162.6824      1.3047   2.8987562937e+02   6.8289116878e+00   0.01665173  0.009718197  65.74  0.001149245    2.527    0.604
        45 -11.3894     40.9896     14.2545   2.9137368062e+02   7.3836067856e+00   0.03428603   0.01478862  21.55  0.002782436    2.578    0.612
        46 -10.7792     42.4493      3.7374   2.9129353490e+02   7.4971631913e+00   0.02457464    0.0127459 -37.66  0.001931244    2.290    0.563
        47 -10.5146    173.8232      4.4768   2.8976487049e+02   6.7273927615e+00   0.02447079  0.009458939  30.22  0.001981201    2.471    0.595
        48 -10.9355    218.5700      3.2873   2.8923656700e+02   6.4807476724e+00   0.01573307   0.01382925 -26.89 0.0009892833    1.183    0.155
        49 -11.4532    223.6380      2.0899   2.8917037297e+02   6.4650906346e+00   0.04006276   0.01239493  37.39  0.002941972    3.025    0.669
        50 -10.2300    141.8382      3.6169   2.9013257332e+02   6.9231855139e+00    0.0151707   0.01180685  33.58  0.001708681    1.281    0.220
        51 -12.0053    133.8127      2.6406   2.9022030703e+02   6.9810816039e+00    0.0183056   0.01406349  21.84 0.0007531364    1.329    0.248
        52 -11.1692     38.7008     20.2531   2.9143639141e+02   7.3272245142e+00   0.02645446   0.01108882 -62.49  0.001806539    2.359    0.576
        53 -10.2292     23.0678      2.5700   2.9151300971e+02   7.6224936401e+00    0.0160743  0.009053862 -40.88  0.001498726    1.926    0.481
        54 -10.4364    205.9032      2.3146   2.8937817023e+02   6.5657886365e+00   0.02161391   0.00918779  38.92  0.001812045    2.320    0.569
        55 -10.5865    113.1294      1.8593   2.9045692307e+02   7.1100959468e+00   0.02441494   0.00795982  34.17  0.001847488    2.812    0.644
        56 -10.8064    106.0997      1.7396   2.9053824298e+02   7.1522232529e+00   0.05495319  0.008283925  31.56  0.003184521    4.828    0.793
        57 -10.9084      2.8112      1.8287   2.9174533150e+02   7.7477715815e+00     0.022757   0.01228765  13.04     0.002006    2.285    0.562
        58  -9.7303    122.7181      1.3704   2.9034209820e+02   7.0601681928e+00   0.01663393  0.006610017  22.97  0.001289693    2.751    0.637
        59 -10.9771     15.0049    139.9886   2.9242905193e+02   6.0730964327e+00    0.0154945   0.01041624 -13.56  0.001406315    1.910    0.477
        60 -11.4129      3.2307    141.2651   2.9257396856e+02   6.1260226123e+00   0.02422619   0.01551022  35.12   0.00249009    1.545    0.353
        61  -9.2844     69.4917    140.4670   2.9179666026e+02   5.7533545334e+00  0.006650697  0.006337183 -28.95 5.333759e-05    1.052    0.049
        62 -12.1685     23.2756    136.2956   2.9231057315e+02   6.0683961460e+00   0.03354189   0.02595495  52.47  0.003744987    1.391    0.281
        63 -11.9066     29.9414    133.2130   2.9221444301e+02   6.0658233741e+00    0.0320993   0.01942473 -79.71 0.0005452469    2.045    0.511
        64 -10.8741     81.3112    135.4446   2.9162888073e+02   5.7434500387e+00   0.02743088   0.01679566 -14.56  0.002423315    2.329    0.571
        65 -10.6778     47.7373    134.4995   2.9201461620e+02   5.9482674659e+00   0.01472678  0.009971659 -51.23 0.0008382911    1.443    0.307
        66 -11.4496     92.8713    129.2681   2.9145721367e+02   5.7484068262e+00   0.03260273    0.0146388 -62.98  0.002790698    2.219    0.549
        67 -11.0407     72.1228    133.5070   2.9172439710e+02   5.8190487122e+00   0.02304839   0.01316602 -19.69   0.00174046    2.663    0.624
        68 -10.7795     14.1594    132.6055   2.9239486976e+02   6.1637889188e+00   0.01462256      0.01097  89.70  0.001565677    1.574    0.365
        69  -9.1749    106.9674    131.0391   2.9130354310e+02   5.6462988148e+00  0.007811175  0.007416549 -58.59  0.000374415    1.046    0.044
        70 -10.7853     10.6406    127.1637   2.9240344352e+02   6.2472996415e+00   0.02519571  0.009118058 -48.86  0.001516854    2.718    0.632
        71  -9.7907     62.5959    132.5247   2.9182958574e+02   5.8854764865e+00   0.01913139  0.006317469 -62.60  0.001400008    2.985    0.665
        72 -11.1168     55.2843    123.1026   2.9185852777e+02   6.0371792599e+00   0.03440198   0.01814915  22.30  0.002147583    2.003    0.501
        73 -10.4419     45.7518    120.6121   2.9195480879e+02   6.1211223498e+00    0.0159104   0.01293249  72.93  0.001191566    1.404    0.288
        74 -10.6303      2.8513    123.6062   2.9247308112e+02   6.3334764557e+00   0.02356285   0.01587926 -40.42  0.002446976    1.556    0.357
        75 -10.2868     82.2915    124.8378   2.9155402856e+02   5.8610431740e+00   0.01346404  0.008518041 -13.54  0.001243232    2.170    0.539
        76 -10.0513     18.8233    124.3100   2.9229096879e+02   6.2333537936e+00   0.01479484   0.00847024 -54.55  0.001145038    1.678    0.404
        77 -10.8882    239.8736    124.1274   2.8971527040e+02   4.9555467215e+00    0.0107422  0.009221281  62.30  0.001034085    1.261    0.207
        78 -11.8121    105.0236    120.9075   2.9126555982e+02   5.7752599771e+00    0.0241535   0.02381303  46.99  0.002394866    1.032    0.031
        79 -10.7399     34.2936    119.8692   2.9208400786e+02   6.1958280966e+00   0.01319548   0.01238643  34.36 0.0005990578    1.074    0.069
        80  -9.7358    221.4590    120.5314   2.8990775991e+02   5.1043289451e+00  0.006518887  0.006452946 -42.13 4.572418e-05    1.006    0.006
        81  -9.6448    148.7586    119.4295   2.9074719038e+02   5.5391352896e+00  0.009362333  0.006461617   7.85 0.0009483315    1.673    0.402
        82 -10.7583     44.6612     85.0385   2.9175483407e+02   6.5407321093e+00   0.01719218   0.01402326  -9.54  0.001822805    1.359    0.264
        83 -12.3395     36.2134     89.2448   2.9187857530e+02   6.5405966738e+00   0.09795432   0.04520623 -63.64  0.005946024    2.179    0.541
        84 -10.8706     25.1298     86.6474   2.9199239110e+02   6.6346606322e+00   0.02824233   0.01957326  47.07   0.00200716    1.528    0.346
        85 -12.0642      9.8782     97.9457   2.9223790973e+02   6.5912404557e+00   0.05528848   0.02665488  39.64  0.004934819    2.078    0.519
        86 -12.1312      7.3327     88.7840   2.9221288710e+02   6.7123382703e+00   0.02822426   0.02581409 -47.25 0.0009713782    1.080    0.074
        87 -11.3771     23.8090     98.6841   2.9207975283e+02   6.5024306504e+00    0.0279546   0.01657382 -57.34   0.00186828    1.627    0.385
        88 -11.4272     18.8469    106.0920   2.9218191254e+02   6.4449390800e+00   0.01260326   0.01226118  -0.67 0.0002858998    1.033    0.032
        89 -11.7754     20.5803     95.4911   2.9209834864e+02   6.5581300596e+00   0.02953346   0.01849935   6.36  0.002831654    1.979    0.495
        90 -11.9395     18.4505     90.5186   2.9209348801e+02   6.6281692329e+00   0.02234094    0.0171724 -61.30 0.0005955885    1.287    0.223
        91 -11.9696     25.7862    113.4526   2.9214491792e+02   6.3194283911e+00   0.05480543   0.02263183  15.88  0.003976541    3.368    0.703
        92 -12.6161     25.7128    107.2710   2.9210884743e+02   6.3916845815e+00   0.05243855   0.03029551 -15.43  0.004439305    2.677    0.626
        93 -10.1266    114.0040    116.0089   2.9113157846e+02   5.7801972631e+00  0.009930388  0.009486944 -27.29 0.0003579138    1.050    0.047
        94  -9.8563     87.6408    114.3266   2.9142878611e+02   5.9522539178e+00   0.01384113  0.008733857  48.62  0.001369972    1.731    0.422
        95 -11.1915     79.6541    108.6239   2.9148777771e+02   6.0646739317e+00   0.03340624   0.01838429  39.07  0.003180454    1.816    0.449
        96  -9.3714    126.7502    114.0131   2.9097110451e+02   5.7295762744e+00  0.009315374  0.008763145 -54.40  0.000788891    1.051    0.048
        97 -10.5228    107.7965    112.3699   2.9118213058e+02   5.8583991846e+00   0.02051685   0.01251098  67.14  0.001849027    2.324    0.570
        98 -11.0937    102.7760    109.4996   2.9122346125e+02   5.9207939329e+00   0.02700852   0.01992771 -10.23  0.002872311    1.613    0.380
        99 -11.7508      3.5361    104.8886   2.9235338272e+02   6.5470673315e+00   0.02454274    0.0186567  20.80  0.001427007    1.351    0.260
       100 -10.5122      5.6561    108.7038   2.9235142210e+02   6.4905335090e+00   0.01045535   0.01010131 -43.08 0.0005556166    1.022    0.022
       101 -10.1595     49.0491    112.4020   2.9186728605e+02   6.1975065345e+00   0.01300405   0.01071303 -42.94   0.00106156    1.218    0.179
       102 -11.0059    170.6898    110.2027   2.9043650769e+02   5.5190815458e+00   0.02083194   0.01781915  19.06  0.001986721    1.192    0.161
       103 -10.1079    175.2101    106.2019   2.9035988518e+02   5.5392976770e+00   0.01197094   0.01092618  18.37 0.0005851755    1.109    0.098
       104  -9.7677    119.7817    108.9985   2.9102226244e+02   5.8281800496e+00  0.009027667  0.005351152 -62.46 0.0005649595    1.674    0.403
       105  -9.6551    130.5071    108.0130   2.9089138362e+02   5.7775034938e+00   0.01052161  0.006486196 -62.68  0.001040588    1.613    0.380
       106 -11.7548      2.5185    112.1313   2.9240849196e+02   6.4687564614e+00   0.02595905   0.01881965  43.88  0.000851479    1.423    0.297
       107 -10.4476    143.4646    105.7143   2.9072665045e+02   5.7291077487e+00   0.01606137   0.01292005  59.91  0.001548275    1.372    0.271
       108 -11.3850    146.2706    100.3498   2.9066180148e+02   5.7751340955e+00   0.02350291   0.01646331 -35.49   0.00247208    1.550    0.355
       109 -10.5303    157.9055    105.5122   2.9055723887e+02   5.6477149331e+00   0.01255962   0.01072499 -52.76  0.000619104    1.152    0.132
       110 -11.3981     86.1298    105.4646   2.9139336421e+02   6.0639447652e+00   0.01868131   0.01459184  -2.22  0.001598317    1.446    0.309
       111 -10.7528     67.0305    112.2912   2.9165691759e+02   6.0949961218e+00    0.0220344   0.01560739 -76.36  0.002303441    1.561    0.359
       112 -10.4957     57.5209     97.3599   2.9167851427e+02   6.3233833028e+00   0.01887437   0.01196321 -72.27  0.001875217    1.727    0.421
       113 -10.3948     48.5265    102.8618   2.9181634380e+02   6.3113732548e+00   0.01631169   0.01067741   9.15 0.0004201789    1.790    0.441
       114 -10.1229     52.6960     96.6606   2.9173061594e+02   6.3593581893e+00   0.02059523  0.007692256 -55.69  0.001649356    2.457    0.593
       115 -11.3465     67.3739     97.4211   2.9156394969e+02   6.2657737558e+00   0.03208017   0.01732746 -49.31  0.002245016    1.818    0.450
       116 -10.0255    210.9869     97.9312   2.8989389491e+02   5.4274869607e+00   0.01358321   0.01021716  10.32  0.001302341    1.453    0.312
       117 -11.3718     89.6363     89.3228   2.9125582329e+02   6.2311671417e+00   0.03297388    0.0164035 -43.35  0.002756255    2.154    0.536
       118  -9.9506     78.0010     96.7051   2.9143572009e+02   6.2126902141e+00   0.01004307  0.009315409 -45.00 0.0003864561    1.067    0.063
       119 -11.2486     82.1466     93.3809   2.9136747091e+02   6.2273401614e+00   0.03510517   0.01661022  34.72  0.003133737    2.040    0.510
       120 -11.4384     80.5867     82.9097   2.9132295571e+02   6.3579763915e+00   0.03741899   0.02797478  80.00  0.003802961    1.627    0.385
       121 -11.3578     65.6957     81.8980   2.9149060863e+02   6.4557787355e+00   0.02148732   0.01592547  34.88  0.001301767    1.345    0.256
       122 -11.9195     71.6755     79.5684   2.9140689490e+02   6.4482866692e+00    0.0377584   0.02198271 -32.51   0.00312471    2.107    0.525
       123  -9.2272    190.5147     96.5167   2.9012361961e+02   5.5628616625e+00  0.006519829  0.006479844 -43.91 0.0002349906    1.010    0.010
       124  -9.3987    140.4749     96.4774   2.9070610260e+02   5.8537000042e+00   0.01154239  0.006391529 -60.74  0.001088117    1.766    0.434
       125 -10.1465    138.9007     93.0282   2.9070376131e+02   5.9028762418e+00   0.01355256   0.01009652 -17.00 0.0009407878    1.573    0.364
       126 -11.2321    120.1729     85.2440   2.9087534554e+02   6.1017846585e+00   0.02018161   0.01198521  27.33  0.001513895    1.683    0.406
       127 -11.0041    124.7144     93.5343   2.9087211061e+02   5.9792103039e+00   0.02814548   0.01657194  18.28  0.002112869    1.862    0.463
       128 -10.8701    118.1454     92.2610   2.9094104210e+02   6.0320458778e+00   0.03992574   0.02094447 -14.62  0.002881136    3.730    0.732
       129  -9.6569    104.3674     93.6684   2.9111008899e+02   6.0954697977e+00   0.01432109  0.007741182  50.93  0.001162803    2.197    0.545
       130 -10.4407    100.1487     91.0851   2.9114379851e+02   6.1498858371e+00   0.02273646   0.01120518  23.32   0.00201061    2.130    0.531
       131 -10.0925    104.3366     87.9919   2.9107643666e+02   6.1615718859e+00   0.01420822   0.01033659  24.39  0.001540191    1.393    0.282
       132  -9.6367    160.5133     93.4856   2.9045473482e+02   5.7722210673e+00   0.01260722  0.005239731  38.55   0.00103401    2.361    0.576
       133 -10.5709    153.2661     91.7233   2.9052857623e+02   5.8347246358e+00   0.01919425   0.01348118   0.55  0.001975746    1.710    0.415
       134 -10.2738     47.6199     89.7932   2.9174875666e+02   6.4684295197e+00   0.01245782  0.009972828 -76.70  0.001404258    1.332    0.250
       135 -10.2310    183.8537     86.0783   2.9013849652e+02   5.7227037923e+00   0.02648496    0.0118843 -73.08  0.002052186    2.905    0.656
       136 -11.1809    113.3320     83.1473   2.9094252369e+02   6.1657508818e+00   0.03714434    0.0141815 -57.58   0.00301062    2.427    0.588
       137 -10.7877    108.6679     81.0151   2.9098412111e+02   6.2175163592e+00   0.01603217   0.01412964 -46.72  0.001215649    1.123    0.109
       138  -9.3734     67.5959     88.1395   2.9150580772e+02   6.3723077740e+00   0.01003838  0.005562474 -49.23 0.0009404007    1.774    0.436
       139  -9.8273    212.1949     87.0923   2.8981475071e+02   5.5462353944e+00   0.01022632  0.008582604 -31.46 0.0005316072    1.245    0.197
       140 -10.7478    164.5317     83.2784   2.9034668526e+02   5.8673898403e+00   0.01999953   0.01616153  55.48  0.002001207    1.337    0.252
       141 -11.5215    143.4242     83.4861   2.9059382411e+02   5.9874351755e+00   0.02062642   0.01502267 -43.36  0.001549656    1.393    0.282
       142  -9.6248     51.4241     83.4724   2.9166654873e+02   6.5198977296e+00    0.0065994  0.006313736 -36.46 0.0001245458    1.038    0.037
       143 -11.4723     52.9045     76.4340   2.9160714626e+02   6.5931004859e+00   0.02443641   0.01914825 -75.30  0.002149073    1.359    0.264
       144 -11.0015     58.1089     78.0825   2.9155628433e+02   6.5439089985e+00   0.02024202   0.01553564  66.68   0.00155851    1.517    0.341
       145 -10.1660    104.3820     75.8324   2.9100302774e+02   6.3025052100e+00   0.01894359   0.01110858 -43.59  0.001474582    1.772    0.436
       146 -12.2364     74.3720     50.4225   2.9120078306e+02   6.7711015716e+00   0.05255041   0.03945573 -83.04  0.005712717    1.514    0.340
       147 -10.5095     93.5090     76.3144   2.9113271853e+02   6.3598322180e+00   0.02331046   0.01681734  -4.00   0.00209999    1.661    0.398
       148 -11.9601     85.5248     73.5117   2.9120905067e+02   6.4385592702e+00   0.03548029   0.03049289  60.18   0.00387131    1.252    0.201
       149 -11.4903     78.6391     67.1673   2.9125136025e+02   6.5520412132e+00    0.0290624   0.02093679  74.38  0.002506798    1.735    0.424
       150 -11.7825     13.9010     74.6114   2.9205149973e+02   6.8391546023e+00   0.02871079   0.02465326 -64.21  0.003407106    1.165    0.141
       151 -12.3099      6.8941     61.8822   2.9205719062e+02   7.0273303509e+00   0.04830525   0.01760717 -49.44  0.003766575    2.665    0.625
       152 -11.6944     13.4170     66.0004   2.9200565259e+02   6.9419498603e+00   0.01692176    0.0127986  41.45 0.0004263968    1.345    0.257
       153 -11.6478     12.9622     62.0918   2.9198758403e+02   6.9899581642e+00   0.01627386   0.01158946  10.11 0.0003414997    1.566    0.361
       154  -9.6297      4.9846     77.7013   2.9217406832e+02   6.8545973182e+00  0.009237563  0.008719702  26.89 0.0005457825    1.066    0.062
       155  -9.1326    134.6445     77.2953   2.9065899919e+02   6.1102102988e+00  0.007056179  0.004892633  58.70 0.0007032803    1.693    0.409
       156 -10.1777    184.1823     75.3735   2.9007039407e+02   5.8450212792e+00   0.01642204  0.009210771  25.01  0.001392698    1.818    0.450
       157 -11.9991    187.0596     69.8457   2.9000369413e+02   5.8924442677e+00   0.03909299   0.02893322 -86.57   0.00408395    1.583    0.368
       158 -11.5977     40.2076     71.8817   2.9172808087e+02   6.7192361830e+00   0.02883022   0.01623206 -44.45  0.002738583    1.834    0.455
       159 -11.0597     32.8782     71.8249   2.9181329359e+02   6.7621655590e+00   0.02804796   0.01281866  26.04  0.002422625    2.212    0.548
       160  -9.6089     46.5377     73.0630   2.9166126895e+02   6.6689962455e+00   0.01462634  0.006853392 -71.76  0.001096198    2.580    0.612
       161 -10.4931    127.4660     83.7556   2.9078141264e+02   6.0768138253e+00   0.01262517  0.009305785  27.47  0.001024963    1.359    0.264
       162  -9.2584     66.2761     73.6366   2.9143436427e+02   6.5483700182e+00  0.006890355  0.005025116  68.92 0.0004966074    1.668    0.400
       163 -12.0915      2.1850     70.7545   2.9216523198e+02   6.9513958267e+00   0.04244407   0.01342734 -57.49  0.003182464    2.837    0.647
       164  -9.2865     61.0591     72.7830   2.9149012774e+02   6.5884165033e+00  0.008795402  0.005327377  27.83  0.000475716    1.646    0.392
       165 -10.2211    162.0518     70.5544   2.9029919206e+02   6.0294621267e+00   0.01739964  0.009840946  44.03  0.001648613    1.857    0.461
       166 -11.8599    122.4666     68.1316   2.9074597999e+02   6.2871673334e+00   0.02847651   0.01994947  13.69  0.002270872    1.561    0.360
       167 -10.2490    207.6214     68.3614   2.8975543628e+02   5.7901340677e+00   0.01849734    0.0104026   9.42  0.001633914    2.306    0.566
       168 -10.4530    172.1423     67.4833   2.9016321601e+02   6.0065130762e+00   0.01749902   0.01416775  79.13  0.001800707    1.419    0.295
       169 -11.1713     27.5345     47.1572   2.9172802472e+02   7.0793957365e+00   0.02385979    0.0138982  -3.59  0.002052389    2.563    0.610
       170 -10.2962     20.7587     47.5867   2.9180972955e+02   7.1134602639e+00   0.01576655   0.01405456 -45.26  0.001900775    1.111    0.100
       171 -10.2475    142.7099    249.4378   2.9159485703e+02   4.0635659727e+00   0.01294067  0.006070202  31.50  0.001006037    2.058    0.514
       172 -10.6875     51.4826     46.5942   2.9144501871e+02   6.9477735175e+00   0.02309135   0.01527854 -79.22  0.002007927    1.771    0.435
       173 -11.3718     32.4717     42.2139   2.9164076059e+02   7.1083115861e+00   0.03431698   0.02371536  46.24  0.002108313    1.524    0.344
       174 -11.1804     58.1340     61.8587   2.9145883334e+02   6.7321599769e+00   0.03611048    0.0201893 -85.14  0.003050058    2.635    0.620
       175 -11.5017     40.4992     55.8575   2.9162874336e+02   6.9036246410e+00   0.03007653   0.02287086  66.18   0.00327557    1.537    0.350
       176 -11.5680     51.7418     61.6425   2.9153214689e+02   6.7715773920e+00   0.02742415   0.01843777  88.82  0.001421235    1.926    0.481
       177 -11.2725     46.2415     58.1058   2.9157516975e+02   6.8443877894e+00   0.02587758   0.01888723 -66.32  0.002820443    1.391    0.281
       178 -10.2204    199.0390    244.5009   2.9091070604e+02   3.7948503276e+00   0.01038321  0.006480796  27.60  0.001035451    1.601    0.375
       179 -10.5859     60.8037     36.8537   2.9127780669e+02   7.0069941662e+00   0.01656283  0.009717139 -66.24 0.0009636441    1.757    0.431
       180 -11.6926     46.1117     48.9776   2.9152200620e+02   6.9511101319e+00   0.02387192   0.01735177  -5.03  0.001075316    1.642    0.391
       181 -12.4827     41.8256     45.4649   2.9155100505e+02   7.0166188046e+00   0.02006692   0.01584803  36.33 0.0003300983    1.269    0.212
       182 -10.6009     21.1135     65.2083   2.9191105041e+02   6.9068147333e+00   0.01108013     0.010147  29.12 0.0006211781    1.097    0.089
       183  -9.9693    204.8937     63.7372   2.8975939143e+02   5.8596353392e+00   0.01331422  0.009675195 -15.06 0.0008796288    1.654    0.395
       184 -10.1890    105.9423     62.6985   2.9090607579e+02   6.4459503316e+00   0.02007389   0.01096704  61.20  0.001666252    2.701    0.630
       185  -9.6382    198.0834     62.8338   2.8983323074e+02   5.9097154660e+00   0.01064116  0.008814311  63.40 0.0007194882    1.332    0.249
       186 -11.4866    219.5099     66.2804   2.8960460110e+02   5.7451183142e+00   0.02781593   0.01699604  27.75  0.002165375    1.634    0.388
       187 -10.3267    114.2768     61.5783   2.9080215805e+02   6.4106853753e+00    0.0237426   0.01567013  81.96  0.002277562    2.067    0.516
       188 -11.0434    128.2667    242.4711   2.9172125354e+02   4.2280480673e+00   0.02120264    0.0159995 -39.33  0.002338775    1.371    0.271
       189 -11.0623    113.1266     50.1000   2.9074669868e+02   6.5505673443e+00   0.03281374   0.01903202 -17.43  0.002796619    2.624    0.619
       190 -12.7267    117.6152     42.7718   2.9065035981e+02   6.6095962634e+00   0.05165302    0.0239212  42.18  0.004286659    2.240    0.554
       191 -13.0357    120.3486     38.9824   2.9059572876e+02   6.6377200711e+00   0.04072528   0.02891606  51.03  0.001138126    1.533    0.348
       192 -10.1834     98.5133     62.3564   2.9099067220e+02   6.4929276052e+00   0.01283074   0.01149323  -7.80  0.001540105    1.171    0.146
       193  -9.9407     84.5272     62.4612   2.9115445620e+02   6.5726314406e+00   0.01603072   0.00776587 -57.54  0.001436225    1.963    0.491
       194 -11.2080     91.9116     62.1915   2.9106669247e+02   6.5330453892e+00   0.01869899   0.01462773  44.78  0.001176905    1.318    0.241
       195 -11.1239     91.1387     57.8304   2.9104955894e+02   6.5881433265e+00   0.02004226   0.01566096  48.55  0.001555869    1.345    0.257
       196 -10.8879     87.5000     56.9553   2.9108676300e+02   6.6193522623e+00   0.02170409   0.01130076 -60.67  0.001208233    1.871    0.466
       197 -10.6550    159.5349     61.6378   2.9027497418e+02   6.1475439862e+00   0.01976134   0.01295356   5.48  0.001948923    1.856    0.461
       198  -9.8512    147.5570     60.5871   2.9040823727e+02   6.2292500142e+00   0.01663902  0.006070053  29.19  0.001298012    2.632    0.620
       199  -9.1300    228.6432     59.3339   2.8945659628e+02   5.7725239041e+00  0.007225038  0.004895818  61.38 -8.070211e-05    1.798    0.444
       200 -11.1447    136.4912     55.7321   2.9050806856e+02   6.3497793010e+00   0.02762755   0.02094869 -50.45   0.00232322    1.296    0.228
       201 -11.7154    145.6925     47.5244   2.9035152631e+02   6.3916376221e+00   0.04713492    0.0154243 -57.89  0.003575836    2.775    0.640
       202 -11.3651    156.8905     54.2522   2.9026143046e+02   6.2485902407e+00   0.03160754   0.02153675  86.79  0.003142996    1.902    0.474
       203  -9.6945      2.2144     56.0676   2.9207706496e+02   7.1217824461e+00   0.01011522  0.008682201 -31.25 0.0006377212    1.206    0.171
       204  -9.8995     67.0892     54.9602   2.9131297910e+02   6.7605191151e+00  0.009859345  0.009781606 -17.95 0.0006277332    1.008    0.008
       205  -9.4729     13.5356     54.0580   2.9193282062e+02   7.0799407783e+00  0.009908373  0.006464591 -62.81 0.0004795016    1.525    0.344
       206 -11.6843    241.0275     50.3890   2.8925877371e+02   5.8041214219e+00   0.02870433   0.01580266  29.25  0.001576496    1.793    0.442
       207 -11.0219    201.8543     46.8090   2.8969301197e+02   6.0736420535e+00   0.02639002   0.01897524 -72.91  0.002827821    1.489    0.328
       208  -9.3167      3.5891     49.0125   2.9201880330e+02   7.1957848769e+00   0.01334265  0.008225713  40.24  0.001330279    1.640    0.390
       209 -10.1277     90.4677     47.9922   2.9099838219e+02   6.7062176128e+00   0.01197148  0.008741716  46.11 0.0004128855    1.431    0.301
       210  -9.8157     14.2198     46.5677   2.9188000039e+02   7.1629596512e+00    0.0150028  0.006670028 -48.13  0.001267094    2.239    0.553
       211 -10.9920    173.8219     48.2314   2.9002799715e+02   6.2201079049e+00   0.02203695   0.01379231  35.63  0.001441815    1.579    0.367
       212  -9.4782    132.1985     45.1652   2.9049466884e+02   6.4972859144e+00   0.01023785  0.008531096 -27.42 0.0005274516    1.274    0.215
       213 -11.7880    156.2830     41.7682   2.9019351292e+02   6.3969420809e+00   0.02870649   0.01612417  37.73 0.0006830909    1.764    0.433
       214 -11.0107    153.5296     36.3614   2.9019311426e+02   6.4756425333e+00   0.01511871   0.01324233 -82.51 0.0007246481    1.211    0.174
       215  -9.8657    139.2447     43.7199   2.9040383817e+02   6.4731846224e+00   0.01320909  0.008879538  14.62  0.001348847    1.636    0.389
       216 -10.1851    100.6666     43.6666   2.9085343562e+02   6.6973861612e+00   0.02050375   0.01177593  69.29   0.00170748    2.763    0.638
       217 -11.2527     93.9476     41.2747   2.9091747639e+02   6.7640369698e+00   0.02542884   0.01558795  20.81   0.00161851    1.721    0.419
       218  -9.7596     18.3181     41.8191   2.9180370262e+02   7.1944750627e+00   0.01560664  0.008854946   3.53  0.001293311    2.489    0.598
       219 -11.1414     82.4511     31.7185   2.9099430045e+02   6.9414428605e+00   0.02196825   0.01731243  47.13  0.002406791    1.323    0.244
       220 -11.3543     81.7488     39.5291   2.9104935931e+02   6.8548749006e+00   0.02338102   0.01409168  36.92  0.001428546    1.644    0.392
       221 -10.9977     77.9570     34.4031   2.9106286362e+02   6.9362858924e+00   0.01935425   0.01381269  32.60  0.001101432    1.391    0.281
       222 -10.5918    231.3494     39.1207   2.8930354467e+02   5.9911039952e+00   0.01724949   0.01171987  82.29  0.001695085    1.947    0.486
       223 -10.8806    176.8686     37.3034   2.8992682309e+02   6.3291456775e+00   0.01882989   0.01125109 -57.23  0.001868144    1.618    0.382
       224 -10.9237     22.7180     36.4186   2.9171996700e+02   7.2318042279e+00   0.02296293   0.01449164  57.37  0.002222726    1.933    0.483
       225  -9.1071     17.9941     34.4800   2.9176353701e+02   7.2815248339e+00   0.01474031  0.009166857  57.77  0.001127898    1.989    0.497
       226 -10.0495    206.7405     37.1504   2.8957805125e+02   6.1572032592e+00   0.01248341   0.01084374  54.19 0.0007349558    1.211    0.175
       227  -9.9173    189.4513     37.9921   2.8978440934e+02   6.2480129095e+00  0.009950782  0.006406342 -61.03 0.0003600975    1.530    0.347
       228  -9.8989    133.6288     37.4432   2.9043161446e+02   6.5785772914e+00   0.01856876   0.01050446  59.72  0.001614622    2.432    0.589
       229 -10.5845      5.7015     36.1629   2.9191722188e+02   7.3327845632e+00   0.02460798   0.01654794  38.39  0.002587185    1.491    0.329
       230  99.0000      6.2052     30.8625   2.9187960202e+02   7.3914013760e+00   0.02055905    0.0130569  12.40  0.002028542    1.805    0.446
       231  -9.7819      3.5305     44.5278   2.9199265162e+02   7.2481854467e+00   0.01683252  0.006351102  27.60 0.0008068666    2.607    0.616
       232 -10.4711    150.4858    237.7534   2.9143473331e+02   4.1543572913e+00   0.01374373  0.009177521 -35.86  0.001395294    1.647    0.393
       233 -11.5011    105.6131     33.0478   2.9073198785e+02   6.7919502374e+00   0.02826607   0.01319688 -37.79  0.001225827    2.704    0.630
       234  -9.2528     15.3880    233.7671   2.9298288212e+02   4.9804508618e+00  0.009872251  0.005689342 -50.99 0.0009460152    1.688    0.408
       235 -10.1534    190.1151     32.8808   2.8974594288e+02   6.3034173352e+00   0.01444577   0.01208335  80.93  0.001082889    1.344    0.256
       236 -10.4733    189.3472     27.7005   2.8972373117e+02   6.3679418953e+00   0.02062975   0.01132242 -47.36  0.001442696    1.825    0.452
       237 -11.8359     70.1805     32.5425   2.9114248054e+02   7.0028363754e+00   0.02339709   0.01491431  16.65  0.002342999    1.715    0.417
       238 -10.0919    172.2748     33.5848   2.8995798472e+02   6.3989638206e+00   0.01285412  0.008884356  28.02  0.001059483    1.445    0.308
       239 -10.4842    175.7295     29.6253   2.8989392953e+02   6.4247992361e+00   0.01834277   0.01189892 -39.36  0.001015334    1.650    0.394
       240 -11.6236    182.5273     25.2653   2.8978851958e+02   6.4358306348e+00   0.02553903   0.01617879   9.31  0.001361014    1.888    0.470
       241 -10.2651    241.9834    231.4785   2.9033408732e+02   3.6971329007e+00    0.0142867  0.007604752  69.76  0.001044492    3.545    0.718
       242  -9.9992    160.7729     33.2668   2.9009009719e+02   6.4694722726e+00   0.01370997   0.01092014  73.01  0.001359317    1.453    0.312
       243 -11.3842    163.8673     27.8405   2.9002141648e+02   6.5144220418e+00   0.02283641    0.0166542  -2.70  0.001841859    1.627    0.385
       244 -10.9493    241.1343     30.7160   2.8913916233e+02   6.0315070346e+00   0.02498615   0.01364915 -42.29  0.002309811    1.963    0.491
       245  -8.9959    182.6716     32.2658   2.8982893877e+02   6.3538290116e+00  0.006784018  0.004903335  57.21 0.0003272886    1.573    0.364
       246  -9.3179     23.4713    231.5482   2.9287560181e+02   4.9597279157e+00  0.006484082  0.006472931  83.70 0.0006198431    1.018    0.018
       247 -11.8314     47.7524     30.5639   2.9139249019e+02   7.1553523133e+00   0.03591742   0.01704634  19.47  0.002450665    2.400    0.583
       248 -10.8197     57.1970     30.7194   2.9128313379e+02   7.0990123868e+00   0.02858956   0.01769334   5.34   0.00270331    2.048    0.512
       249 -10.7044    198.0959     28.7811   2.8962835147e+02   6.3045243006e+00   0.01823722   0.01491825 -18.72    0.0013533    1.344    0.256
       250 -10.2340    199.8106     24.8774   2.8958490227e+02   6.3397986429e+00     0.012957   0.01198578 -41.60 0.0006891976    1.075    0.070
       251 -10.0545    143.2854     24.5961   2.9024182868e+02   6.6715568728e+00   0.02230817   0.01102028  42.63   0.00198261    2.107    0.525
       252 -10.8071    140.7496     20.3861   2.9024609211e+02   6.7350935494e+00   0.02672365   0.01437552   8.46  0.002261384    2.554    0.609
       253  -9.7889    100.0243     30.2373   2.9078032321e+02   6.8569212567e+00   0.01174536  0.009718683 -57.33  0.000869647    1.189    0.159
       254  -9.2324    189.9958    229.9860   2.9092905436e+02   4.0158375188e+00  0.007902225   0.00780953  -6.35 0.0005461558    1.012    0.012
       255  -9.5419    247.4764    227.4919   2.9024646100e+02   3.7115510117e+00   0.00651516  0.006481647 -57.67 0.0001656617    1.015    0.015
       256  -9.6199      9.0538    227.4626   2.9301915809e+02   5.0902128060e+00  0.009845114  0.006528045  24.95  0.000353275    1.528    0.346
       257  -9.7542    247.2959    231.3511   2.9027164943e+02   3.6677981862e+00  0.007119047  0.004827635 -31.35 0.0007033579    1.684    0.406
       258  -9.7619      9.9644    217.6924   2.9295048747e+02   5.1985931465e+00  0.009313885  0.008728945  25.65 0.0005352244    1.074    0.069
       259  -9.2450    165.6937    212.3477   2.9110616362e+02   4.3615237252e+00  0.007013642  0.004997987  65.13   0.00070426    1.700    0.412
       260  -8.8424    230.7212     30.6891   2.8926011938e+02   6.0924833934e+00  0.006814986  0.004885634 -30.67 0.0002176425    1.562    0.360
       261  -9.5798    131.4881     28.3753   2.9040210312e+02   6.6961763750e+00   0.01071531  0.008881533 -29.29 0.0001235678    1.276    0.216
       262 -11.6118    125.2611     27.1082   2.9046711445e+02   6.7469844686e+00   0.02556127   0.01827797  59.29  0.001734175    1.624    0.384
       263 -10.6964    121.9901     30.0000   2.9052263734e+02   6.7324070189e+00   0.02297782  0.008418205  32.69  0.001476042    2.551    0.608
       264  -8.7512    168.2923     29.2997   2.8997862529e+02   6.4717950351e+00  0.006810265  0.004918644 -28.67 0.0002077706    1.565    0.361
       265  -9.0187    158.4859     20.4329   2.9003959822e+02   6.6315718456e+00  0.009757315  0.006584657   6.47 0.0007521256    1.754    0.430
       266  -9.8847    154.9988     21.4798   2.9008653917e+02   6.6396875974e+00   0.01749379   0.00979123 -30.34  0.001419486    2.355    0.575
       267 -10.4990    152.9921     26.2673   2.9013871220e+02   6.5958276289e+00   0.02059166    0.0139184 -32.22  0.001516979    1.679    0.404
       268 -10.0514    156.7602     25.3404   2.9008921762e+02   6.5846942304e+00    0.0126682  0.009930549  20.33 0.0005644926    1.309    0.236
       269 -10.0958    133.7012     24.5704   2.9035343170e+02   6.7274672415e+00   0.01893391   0.01141621  62.91   0.00171773    2.259    0.557
       270 -10.3085    250.4866     24.8261   2.8899495784e+02   6.0452402669e+00   0.01193822  0.006670151 -68.24 0.0006272384    1.911    0.477
       271 -11.0238    214.7381     23.6566   2.8940378042e+02   6.2670626805e+00   0.02179072   0.01583615 -53.42  0.001752714    1.344    0.256
       272 -10.3647    206.4284     21.7071   2.8948877799e+02   6.3380296297e+00   0.01788204  0.009751339 -43.79 0.0008139656    1.922    0.480
       273  -9.2031    152.5164    207.5410   2.9123069821e+02   4.4936789805e+00  0.006525004  0.006457843  64.36 0.0001954111    1.031    0.030
       274 -10.5571    238.8154    204.7064   2.9021063707e+02   4.0263308906e+00   0.01375594  0.009507113 -77.35  0.001416645    1.631    0.387
       275 -10.2453     81.4149     19.1776   2.9093112667e+02   7.0929238222e+00   0.01727741    0.0100716  18.65 0.0008850669    1.874    0.466
       276 -10.1969      4.3777    204.6315   2.9293789378e+02   5.3826224693e+00   0.01351398  0.007798846 -58.34    0.0013112    1.673    0.402
       277 -11.1617    245.4892    200.8557   2.9011007301e+02   4.0323000881e+00    0.0109271  0.009196306 -18.95 0.0006478764    1.284    0.221
       278 -10.4624    234.1501    197.1497   2.9021957648e+02   4.1411416390e+00   0.01876013   0.01078194 -51.69  0.001340787    1.686    0.407
       279 -10.5173     17.0548    192.6010   2.9271864870e+02   5.4495758075e+00   0.01287951   0.01128305  26.29 0.0005477454    1.148    0.129
       280  -9.5966    223.4700     22.4796   2.8929507999e+02   6.2298536655e+00   0.01285463  0.008341053  30.41 0.0008295099    1.526    0.345
       281 -10.3224    220.8071     19.0846   2.8930563352e+02   6.2847021048e+00   0.01147523   0.01038024  20.70 0.0004062121    1.117    0.104
       282 -10.3103     74.3325     19.6958   2.9101692241e+02   7.1278747359e+00   0.01128331  0.009011555  42.87 0.0007151976    1.279    0.218
       283 -12.2548      5.2471    185.4640   2.9281373793e+02   5.6005190312e+00   0.03987608   0.03165442  77.67  0.004444051    1.464    0.317
       284  -9.7033    170.1246    191.1766   2.9092805788e+02   4.5818309118e+00   0.01717787  0.009144873   1.95  0.001348719    3.021    0.669
       285 -10.1956    123.1904     19.3109   2.9044441945e+02   6.8494214290e+00   0.01470718   0.01186315 -83.62   0.00166191    1.367    0.269
       286  -9.8728    119.7444     17.0123   2.9047080794e+02   6.8960576531e+00   0.01457844  0.009944078 -47.58  0.001154896    1.456    0.313
       287  -9.3223      1.7515     20.4534   2.9186930882e+02   7.5378244027e+00  0.009380706  0.006462902   6.68 0.0009493621    1.687    0.407
       288  -9.9648    213.1546    181.9402   2.9037245228e+02   4.4395943257e+00   0.01647215  0.009220763 -52.64  0.001578965    1.722    0.419
       289  -8.6250    149.3202     19.2974   2.9013961779e+02   6.6979658244e+00  0.006915858  0.004940188 -26.35 0.0004826335    1.617    0.382
       290 -10.0463    250.0989    180.1636   2.8993256959e+02   4.2457377431e+00   0.01541158  0.009659247 -68.62  0.001531743    1.679    0.404
       291  -9.0782     57.4593    175.4141   2.9214551533e+02   5.4165653940e+00   0.00649959  0.006386032 -15.87 0.0001798536    1.016    0.015
       292  -9.8652     51.8395    174.3360   2.9220455963e+02   5.4615169145e+00     0.013097  0.008976691  80.89  0.001291184    1.910    0.476
       293 -10.4522    186.4457     15.1111   2.8968179236e+02   6.5307456917e+00   0.01247412   0.01080697   8.13 0.0005631023    1.207    0.171
       294  -9.9655    248.1315    173.3689   2.8991469322e+02   4.3360356483e+00   0.01339542   0.00658445  14.80  0.001095193    2.581    0.613
       295  -9.6728    149.5013     14.9942   2.9011163392e+02   6.7468053109e+00   0.01142363   0.00911791 -21.03 0.0009504324    1.389    0.280
       296 -10.0414     39.5982    173.2292   2.9234059207e+02   5.5449665802e+00  0.009894683  0.005748901 -51.08 0.0007955398    1.673    0.402
       297 -10.1864     34.9519    170.5086   2.9237851600e+02   5.6033776095e+00   0.01073931  0.009049311 -61.56  0.001249224    1.177    0.151
       298 -11.7061      9.1342    166.6852   2.9265662568e+02   5.7965119211e+00   0.03618526   0.02138825 -41.35  0.003497985    1.805    0.446
       299  -8.7554     94.6524     12.2906   2.9073524701e+02   7.0961891014e+00  0.006989336  0.004902089  58.58 0.0007026954    1.663    0.399
       300 -10.6365     14.2828    159.6733   2.9255483299e+02   5.8484049831e+00   0.01372246   0.01144122 -54.69 0.0005562744    1.177    0.151
       301 -10.9001     13.6741    156.6959   2.9254418348e+02   5.8865264368e+00   0.01365551   0.01092356 -35.02 0.0004572487    1.305    0.234
       302  -9.5266    198.0525    167.7050   2.9046276838e+02   4.6925421071e+00  0.009200577  0.008688359  12.14  0.000645079    1.071    0.066
       303  -9.9464     18.4375    165.1660   2.9253913802e+02   5.7606228271e+00   0.01339411   0.01031421 -22.95  0.001466864    1.459    0.315
       304  -9.9496    205.2166    163.2928   2.9035303323e+02   4.7022094055e+00   0.01129193  0.009777375 -25.13 0.0006525983    1.213    0.176
       305  -9.3488    188.6187    164.1881   2.9055141758e+02   4.7881177437e+00   0.00984025  0.005697833 -50.99 0.0006662913    1.680    0.405
       306  -9.7336     28.2085    163.5903   2.9241586078e+02   5.7226679494e+00   0.00924109  0.006447447   9.40 0.0008171382    1.623    0.384
       307 -10.3861     80.9818    159.9072   2.9177890127e+02   5.4610351346e+00   0.02040594   0.01393503  18.99  0.002133591    1.544    0.352
       308 -10.4910    246.6146    158.7972   2.8984494686e+02   4.5139879021e+00  0.009651152  0.006398477 -78.48 0.0009535546    1.753    0.429
       309 -10.9372    104.3230    153.1615   2.9146666945e+02   5.4045249335e+00   0.02542073   0.01462075 -73.58  0.002366196    2.001    0.500
       310 -10.8453     33.1519    144.4005   2.9224377759e+02   5.9172773612e+00   0.01416848   0.01310914  62.41 0.0007649676    1.133    0.118
       311 -10.1596     31.0238    154.1391   2.9232668590e+02   5.8163279433e+00   0.02021555   0.01447676  52.13  0.002152654    1.530    0.346
       312 -10.7739     30.5400    148.8743   2.9230092114e+02   5.8803206782e+00   0.01561627   0.01358712  89.37 0.0008538538    1.246    0.197
       313  -9.6635     22.8422    154.9385   2.9242682871e+02   5.8541680213e+00   0.01406061  0.008229549  -9.27  0.001190569    2.615    0.618
       314 -10.3568     71.7568    151.5426   2.9183642885e+02   5.6115426228e+00   0.02619021   0.01181515  50.31  0.002056784    2.848    0.649
       315 -11.3376     62.9958    150.6102   2.9193296160e+02   5.6729614636e+00   0.02742273   0.01661551  -3.22  0.002466963    2.331    0.571
       316  -9.9537     60.8114    147.3999   2.9193924909e+02   5.7228849806e+00   0.01288419   0.01108178  12.09  0.001248828    1.206    0.171
       317 -11.7135     22.5894    149.5247   2.9239749187e+02   5.9185632193e+00   0.02496052   0.01566517 -19.13  0.002327548    2.148    0.534
       318 -10.9566     16.6451    148.1671   2.9245870105e+02   5.9685777987e+00   0.02110393   0.01384019  49.90  0.001715059    1.675    0.403
       319 -12.2844      5.5108    147.0708   2.9258198920e+02   6.0454104510e+00   0.03608032   0.02402905 -40.58  0.003729291    1.576    0.366
       320 -11.8166      3.8798    136.4798   2.9253786726e+02   6.1779177825e+00   0.01309129   0.01230591   6.24 0.0003864304    1.082    0.076
       321 -11.2669     46.2812    147.0264   2.9210638794e+02   5.8110574948e+00   0.02759923   0.02370917 -39.67  0.003270646    1.174    0.148
       322  -9.6287      8.9939    155.9902   2.9259453952e+02   5.9216696475e+00   0.01035978   0.01002622 -25.01 0.0008956067    1.033    0.032
       323  -9.5729     86.3166    149.9954   2.9165752507e+02   5.5454182470e+00   0.01187173  0.007503432  26.19  0.001194412    1.593    0.372
       324 -10.3056     56.4119    149.2353   2.9200148876e+02   5.7269398575e+00   0.01149337  0.008489361 -74.76 0.0008468797    1.457    0.314
       325 -10.1487    239.9919    146.7207   2.8984946352e+02   4.6926449926e+00  0.009445736  0.008707462  22.32 0.0007797763    1.093    0.085
       326 -10.9037    249.8082    142.8696   2.8971230691e+02   4.6802849535e+00   0.03115701   0.01161063 -64.08  0.002398324    2.759    0.638
       327 -10.2447    133.8393    139.9419   2.9104379644e+02   5.3873072618e+00   0.01771387   0.01119765 -39.01   0.00175926    1.710    0.415
       328  -9.5797    145.4574     16.0831   2.9016533060e+02   6.7576596893e+00   0.01114829  0.008821255  41.53 0.0002780637    1.284    0.221
