#   1 NUMBER                 Running object number                                     
#   2 MAG_AUTO               Kron-like elliptical aperture magnitude                    [mag]
#   3 X_IMAGE                Object position along x                                    [pixel]
#   4 Y_IMAGE                Object position along y                                    [pixel]
#   5 X_WORLD                Barycenter position along world x axis                     [deg]
#   6 Y_WORLD                Barycenter position along world y axis                     [deg]
#   7 A_WORLD                Profile RMS along major axis (world units)                 [deg]
#   8 B_WORLD                Profile RMS along minor axis (world units)                 [deg]
#   9 THETA_WORLD            Position angle (CCW/world-x)                               [deg]
#  10 FWHM_WORLD             FWHM assuming a gaussian core                              [deg]
#  11 ELONGATION             A_IMAGE/B_IMAGE                                           
#  12 ELLIPTICITY            1 - B_IMAGE/A_IMAGE                                       
         1 -10.8273     36.7052     10.0865   1.0683308924e+02   6.9552923315e+01    0.9744198    0.5322999 -39.42  0.002570116    1.463    0.316
         2 -10.2879     10.1159     18.8696   1.2379277075e+02   7.0226724262e+01      1.31047    0.3843791 -32.05  0.003999952    7.013    0.857
         3 -10.7172     19.0136      6.5993   1.1418766577e+02   7.1972746512e+01      1.05014    0.7654861  83.89  0.005770848    3.006    0.667
         4 -10.9901     23.7036     32.6893   1.2195631419e+02   6.6404407587e+01     1.476743     0.411606 -47.48  0.003470432    2.671    0.626
         5  -9.4533      2.0925     14.3188   1.2637502009e+02   7.1606521747e+01    0.4572209    0.1943869 -71.78  0.002128741    2.615    0.618
         6 -10.3500      5.0087      4.6615   1.2115487105e+02   7.3364903608e+01     0.441508    0.3657106 -40.31  0.001466185    1.149    0.129
         7 -10.3742      4.7022     41.6456   1.3233792784e+02   6.5701620001e+01    0.9098001    0.2908128 -72.16  0.004004235    2.724    0.633
         8 -10.0556     60.6141     31.6867   1.0619781086e+02   6.2520527786e+01    0.9766889    0.3706581 -37.30  0.003906113    2.517    0.603
         9  -9.5113     63.0743     21.3220   1.0075671859e+02   6.4030880047e+01    0.4491704    0.3284257 -62.63  0.001132155    2.044    0.511
        10 -10.1145     64.3052     13.5384   9.6537219120e+01   6.5118751431e+01    0.5175516     0.324344 -27.76  0.002585574    1.388    0.279
        11 -10.0270     79.4096     23.8906   9.5891902184e+01   6.0878409152e+01    0.7061319    0.3779284  20.98  0.001685414    2.938    0.660
        12  -9.5825    103.0374     20.3731   8.6812555701e+01   5.6740007061e+01     1.076457    0.3706161 -21.12  0.002737999    3.953    0.747
        13 -10.1897     46.2259     29.6827   1.1119686422e+02   6.4786335582e+01    0.5605453    0.2717007 -58.06 0.0009995174    2.372    0.578
        14  -8.8969     46.5941     20.1806   1.0705977732e+02   6.6543828853e+01    0.4364709    0.2004154 -30.94  0.001944587    2.323    0.569
        15 -10.1018     51.9625     13.6484   1.0165504656e+02   6.6975622783e+01    0.6321362    0.3902033   3.85  0.003161006    2.213    0.548
        16  -9.1256     96.2149     14.9922   8.6322785839e+01   5.8932862354e+01    0.6540015    0.2830831 -16.70  0.002362492    2.893    0.654
        17  -8.9860    115.2099      4.2203   7.6234583582e+01   5.5928501810e+01    0.3814836    0.2502381 -51.26  0.001618546    1.998    0.500
        18  -9.2215    110.7395     23.9704   8.6252030941e+01   5.4544467669e+01    0.7562155    0.3966407 -19.95  0.003148974    1.987    0.497
        19  -8.6750    112.3984     15.7708   8.2200432709e+01   5.5267931967e+01    0.2942778    0.2064026 -44.25 0.0007311824    1.631    0.387
        20  -9.2795    113.7847     10.1123   7.9288443289e+01   5.5626969612e+01    0.5158965    0.2489528  35.96  0.000265888    2.223    0.550
        21  -7.8654    110.2913      7.6697   7.9024039479e+01   5.6717686423e+01     0.235616    0.1343935 -26.60 0.0004441109    1.663    0.399
        22  -8.6411    110.7114      4.6494   7.7501785843e+01   5.6947515240e+01    0.2903718    0.1883149   9.45    0.0011104    1.624    0.384
        23  -8.6646    128.4996     24.9094   8.2154538361e+01   5.0288903237e+01    0.6507211    0.3326254  -9.49   0.00167588    2.516    0.603
        24  -9.6524    118.8275     20.4710   8.2634510264e+01   5.3173385005e+01    0.6616308    0.2575895 -27.77  0.001636598    2.405    0.584
        25  -9.8842     73.3973     17.5888   9.5096146667e+01   6.2950967644e+01    0.8238617    0.2406713 -34.01  0.002887033    3.118    0.679
        26  -8.4410     77.0048      6.6817   8.8331882198e+01   6.3878877823e+01    0.2984618    0.2005195 -19.25 0.0005892199    1.326    0.246
        27  -8.3918     78.8108      3.1455   8.5847009133e+01   6.3985061287e+01    0.2921143    0.2219412 -44.24 0.0008953972    1.608    0.378
        28  -9.4886     85.2019     13.0404   8.8810264000e+01   6.1437822505e+01    0.4511106    0.2544411 -49.59  0.001436697    2.499    0.600
        29  -8.6350     84.9880      6.1189   8.5397977336e+01   6.2394627024e+01    0.4900702    0.2352935 -13.44  0.002007007    2.381    0.580
        30  -8.6462     89.0607      2.3885   8.2213774192e+01   6.2004113307e+01    0.2794352    0.2462854  10.58  0.001346517    1.060    0.057
        31 -10.0839    132.3933     10.2266   7.5147525453e+01   5.1086597217e+01    0.5511771    0.2736288 -40.81  0.002209477    2.246    0.555
        32  -8.7909    131.8875      5.6541   7.3295221916e+01   5.1681114040e+01    0.4417425    0.2248196  36.99  0.001563552    2.004    0.501
        33  -8.7406    125.1616     13.1479   7.7962435967e+01   5.2556634420e+01    0.3273083    0.2473615 -36.74  0.000507489    1.399    0.285
        34  -8.8005    126.7903      9.3771   7.5964343119e+01   5.2573900870e+01    0.3277868    0.2016037  29.37 0.0009741974    1.692    0.409
        35  -8.7906    125.3879      5.4657   7.4546925312e+01   5.3325934148e+01     0.490499    0.2564546  18.92  0.001921042    2.380    0.580
        36  -8.4432    120.7405      6.2236   7.5894426119e+01   5.4389263451e+01    0.3315245    0.1813058  57.18  0.001465544    1.800    0.445
        37  -7.8985     80.4537     12.4125   9.0079253096e+01   6.2441158239e+01    0.2784843    0.1692627 -43.15  0.001097524    1.837    0.455
        38  -7.9797    141.5495     12.0322   7.4074034643e+01   4.8566872198e+01    0.2286505    0.1408419 -21.00  0.001023364    1.585    0.369
        39  -8.9234    101.9217      7.9789   8.1349969797e+01   5.8582996877e+01    0.4777113    0.3041071 -46.33   0.00124522    1.951    0.488
        40  -8.5149    104.4929      1.9889   7.7766059308e+01   5.8663541519e+01    0.3100522    0.2154973  20.97  0.001279647    1.407    0.289
        41  -8.4663     71.9935      8.3858   9.0996469933e+01   6.4569824700e+01    0.2563381    0.1686978 -18.34 0.0005613936    1.376    0.273
        42  -8.2396     67.9739      8.9597   9.2784058461e+01   6.5195956249e+01    0.2031717    0.1720206 -14.82 0.0003726698    1.055    0.052
        43  -8.2478     97.4964      6.0206   8.1614845626e+01   5.9784659764e+01    0.3130998    0.1998938  14.76  0.001093806    1.691    0.409
        44  -8.3936     95.6298      3.1426   8.0700889841e+01   6.0517432277e+01    0.3995173    0.2519204  15.43 0.0006845181    1.691    0.409
        45 -10.6924    143.1599     26.8860   7.9676358318e+01   4.6411034259e+01    0.3143258    0.2647918   3.60            0    1.162    0.139
        46  -7.4212    142.7385      5.3414   7.1114450480e+01   4.8928925714e+01    0.1480007    0.1075029 -48.18 0.0002173247    1.592    0.372
        47  -9.6772     63.7829      2.9919   9.1172061190e+01   6.6755045972e+01    0.3777279    0.2582816 -49.22  0.001770279    1.990    0.498
        48  -7.7485    236.9978      1.2053   5.8399916781e+01   2.4607596966e+01    0.1743121    0.1074339  75.02 0.0003885748    1.708    0.415
        49  -7.9585    135.8806      1.5424   7.0771715043e+01   5.1049504392e+01    0.2804517    0.1311736  59.85  0.001138687    2.002    0.501
        50  -9.6479    138.5627     92.3208   1.0260709280e+02   3.6585920088e+01    0.7127164    0.3340272 -36.46   0.00196044    2.213    0.548
        51  -8.9865    204.6053    249.9343   1.1815669553e+02   2.2415663219e+00    0.2086798    0.1058834  49.66  0.001331402    1.984    0.496
        52  -9.5786    198.8618    248.1450   1.1880677434e+02   3.2045350182e+00    0.3558781    0.1794446  24.14  0.002197589    2.158    0.537
        53 -10.2076    191.0281    248.1859   1.1999428204e+02   4.3011168258e+00    0.4112034     0.211583  27.82   0.00265926    1.858    0.462
        54 -10.2298    185.2585    246.6049   1.2069131672e+02   5.2654640672e+00    0.3607676    0.2176928  19.74  0.002471897    1.906    0.475
        55  -9.9475    155.3439    250.1032   1.2563631451e+02   9.0834730812e+00    0.3891564   0.08750173  39.67  0.001688547    3.564    0.719
        56  -9.6970    159.2721    245.8425   1.2460375317e+02   8.9986077531e+00     0.367958    0.1872767  18.73  0.001522468    5.782    0.827
        57 -10.2507     78.0889    112.4914   1.2268072260e+02   4.2986195424e+01    0.6725686    0.3271208 -70.46  0.001796998    2.406    0.584
        58  -7.6072    167.7162    114.7560   1.0179706500e+02   2.6362969347e+01     0.227086    0.1700627 -84.07  0.001039131    2.155    0.536
        59 -10.0228     91.8797    112.8941   1.1920822415e+02   4.0893845871e+01    0.5586198    0.3686253  85.98  0.001692605    2.113    0.527
        60  -8.8234     92.1054    104.0145   1.1732658460e+02   4.2741678879e+01    0.6626382     0.433787  12.23  0.003011759    2.632    0.620
        61 -10.4935     62.9241     95.8436   1.2366644651e+02   4.8597304066e+01    0.6742989    0.3649913 -82.07  0.001515157    2.558    0.609
        62  -9.1419     63.8054     86.6186   1.2152192287e+02   5.0525779665e+01     0.718345    0.4112056 -40.36  0.003564538    1.960    0.490
        63  -9.4202     67.3853    103.4873   1.2387288676e+02   4.6358997340e+01     1.189583    0.6295248 -26.80  0.004047778    5.317    0.812
        64 -10.1627     65.7993    110.9756   1.2562252283e+02   4.4927076736e+01    0.7941715    0.4091397  74.89  0.001141554    3.589    0.721
        65  -9.5173     59.9397    109.9675   1.2699906994e+02   4.5857543500e+01    0.4245741    0.3199631  75.85  0.002251736    1.365    0.267
        66  -8.7885     36.2881    111.5229   1.3342842939e+02   4.8012648379e+01    0.3088652     0.159004  73.66  0.001552944    2.370    0.578
        67 -10.2155     28.5951    109.3874   1.3516393633e+02   4.9161066117e+01    0.7606822    0.4339658 -11.63  0.003585637    4.068    0.754
        68  -9.8410     14.1960    111.4410   1.3906785540e+02   4.9849527291e+01    0.4033167     0.207637  71.99  0.001499353    1.963    0.490
        69  -8.8744     14.1573    105.0850   1.3845395967e+02   5.1214379601e+01    0.3137431    0.1210604 -60.00  0.001026722    2.173    0.540
        70 -10.7145     20.4362    100.5592   1.3628802452e+02   5.1737116203e+01     1.012235    0.4053054  77.38  0.003978696    4.098    0.756
        71 -10.1228     20.3198     84.1681   1.3419692252e+02   5.5355269296e+01    0.9239337    0.1996238 -64.79  0.003723082    3.056    0.673
        72 -10.5293     25.4960     77.8565   1.3162913982e+02   5.6370006689e+01    0.7776713    0.3658487 -85.74  0.003640677    2.529    0.605
        73 -10.3888     32.1043     64.2355   1.2686349756e+02   5.8866202149e+01    0.9164864    0.3758062 -43.33  0.003060409    2.542    0.607
        74 -10.8059     44.7658    102.6314   1.2992237585e+02   4.9132844159e+01    0.7848511    0.3679283  69.57  0.003193509    3.621    0.724
        75  -8.4724     39.9449    107.1501   1.3188594427e+02   4.8618196618e+01    0.1819574    0.1371211  80.94 0.0005316944    1.258    0.205
        76  -9.5674      6.2833    103.9504   1.4039203862e+02   5.1984273464e+01    0.3623401    0.1902263  73.62  0.001603736    1.853    0.460
        77  -9.7881    243.6486    103.3744   8.5246671212e+01   1.1736486565e+01    0.3894707    0.2451328  -0.64  0.001346868    1.672    0.402
        78  -8.4402    166.0256    104.2385   9.9537381013e+01   2.8535418447e+01    0.2772669    0.2032092 -44.37 0.0005864704    1.446    0.308
        79  -9.8887    149.3946    103.2666   1.0295223472e+02   3.2269544105e+01    0.4319482    0.2651649 -50.91  0.001025478    1.825    0.452
        80  -7.9869      1.4385    115.9644   1.4257113858e+02   4.9753321008e+01     0.166202   0.08095837 -79.55 0.0006775542    1.568    0.362
        81  -8.8049    159.1641    101.4870   1.0031115120e+02   3.0507099319e+01    0.2851654    0.2247989 -57.63 0.0007295346    1.502    0.334
        82  -9.4888     81.4238    100.1716   1.1938382975e+02   4.5172943230e+01    0.3673226    0.2311033 -74.98  0.000773958    1.860    0.462
        83  -7.9046     82.2571     93.8563   1.1778276913e+02   4.6419212398e+01     0.282994    0.1879701 -23.50   0.00133878    2.293    0.564
        84  -9.3244     94.2445     97.2855   1.1525938709e+02   4.3834801796e+01    0.3009051    0.2243374 -70.57  0.000642092    1.438    0.305
        85  -8.6737     96.1650     90.9058   1.1321345004e+02   4.4875132664e+01    0.4477524    0.2935738 -10.24   0.00186357    2.918    0.657
        86  -8.7907    130.6921     96.6469   1.0566661887e+02   3.7363204481e+01    0.4420305    0.2401748  24.63  0.001586194    3.173    0.685
        87  -7.4621    239.6401     96.7008   8.4193353037e+01   1.3401240997e+01    0.1513346   0.09593891  19.49 0.0007035416    1.713    0.416
        88  -7.8478    190.0856    104.1240   9.4619373500e+01   2.3242879042e+01    0.2221547     0.181733  13.39 0.0003530694    1.228    0.186
        89 -10.5936      4.7011     87.0339   1.3915295238e+02   5.5736240041e+01     1.232796    0.3689403 -75.46  0.004301314    2.562    0.610
        90  -8.2244    216.6678    249.6897   1.1633651118e+02   5.8902747705e-01    0.1053415   0.05747056  23.27 0.0002995752    1.673    0.402
        91 -10.0485     15.6825     71.1677   1.3369391225e+02   5.8563933905e+01    0.5520114    0.2257936 -55.09  0.001357726    1.957    0.489
        92  -9.7933    178.6644    246.8531   1.2172681536e+02   6.1712394923e+00     0.317849    0.1939264   4.89  0.001967844    2.863    0.651
        93 -10.1998    172.4122    246.3784   1.2263396800e+02   7.0998356529e+00    0.3813886    0.2635372 -11.53  0.002809546    2.205    0.546
        94  -9.2167     63.0192    247.6064   1.3943622297e+02   2.0991917841e+01    0.1498154    0.1159717  65.19 0.0003573927    1.168    0.144
        95 -10.8745     21.7280     53.5873   1.2827416677e+02   6.2045762419e+01     0.808584    0.4042687  89.60  0.002918517    3.310    0.698
        96  -9.7576    188.3102    233.8955   1.1871969240e+02   6.0960364757e+00    0.2309784    0.1799283 -79.65  0.001294495    2.515    0.602
        97  -7.5312     55.5594    232.4328   1.3972251733e+02   2.3905241769e+01   0.09671081   0.06505963  60.93 0.0001003759    1.056    0.053
        98  -8.9786     10.1651     47.4725   1.3137433382e+02   6.4138692702e+01    0.2826264    0.2451969 -10.85  0.001891647    1.451    0.311
        99  -9.8262     14.7717     44.4350   1.2888932403e+02   6.4523953441e+01    0.4903975    0.2381155 -49.11  0.001058756    1.662    0.398
       100  -7.5620    135.0000    229.0360   1.2674281480e+02   1.4385642569e+01    0.1309508   0.06098381 -53.38 0.0004000094    2.827    0.646
       101  -9.3871      6.7130     32.5729   1.2940905137e+02   6.7553808339e+01    0.1909048    0.1698069   7.63 0.0005693458    1.453    0.312
       102 -10.1964      7.1766     28.4304   1.2811572306e+02   6.8409273467e+01    0.3451497    0.2883806  83.15  0.001112864    1.468    0.319
       103  -9.0724    164.4969     93.9605   9.7145492680e+01   3.0651169406e+01     0.400836    0.2428714 -38.67  0.001399016    1.651    0.394
       104 -10.1547     34.3393     90.6312   1.3100872321e+02   5.2784596953e+01    0.5782195    0.2465573 -83.63  0.001697947    3.081    0.675
       105 -10.2466     36.6280     81.1227   1.2871097081e+02   5.4698094976e+01    0.6563492    0.3577933 -22.69  0.002954973    3.501    0.714
       106  -8.7967    242.3530     93.5081   8.2981653348e+01   1.3224394034e+01    0.2518404    0.1205225 -24.78   0.00108362    1.910    0.476
       107  -8.6568    157.7766     91.7163   9.7999924607e+01   3.2543732663e+01    0.2620714    0.1853707 -61.29 0.0007369125    1.885    0.469
       108  -9.2877    110.8867     89.7284   1.0892170011e+02   4.2549973013e+01    0.6951919    0.3588096  29.68  0.002650041    2.727    0.633
       109  -8.0348    174.3230     89.4356   9.3825998481e+01   2.9182978395e+01    0.2713409    0.1361057 -33.09 0.0007627015    1.973    0.493
       110  -8.9905    150.4421     89.1742   9.8949270798e+01   3.4620539276e+01    0.3299895    0.1907644 -47.37  0.001347321    1.865    0.464
       111 -10.4814     48.4078     82.5393   1.2533651234e+02   5.3217344048e+01     1.101968    0.4047355 -58.26  0.002489288    2.188    0.543
       112 -10.5941     55.3152     71.0801   1.2061291294e+02   5.4990800942e+01    0.6812267     0.384783  61.36  0.001372463    2.759    0.638
       113  -9.2730     55.3538     62.9081   1.1851424903e+02   5.6777322806e+01    0.7162647    0.3489171  39.32  0.003461603    2.373    0.579
       114 -10.0648     62.6466     60.7018   1.1541337354e+02   5.6341993418e+01    0.5904492    0.2925884  27.49  0.002681097    2.620    0.618
       115 -10.1846     85.2486     86.5518   1.1521851173e+02   4.7547172130e+01    0.4937153    0.3646717  75.58 0.0009323555    1.761    0.432
       116  -9.4153     87.9927     78.4945   1.1234914730e+02   4.8840236765e+01    0.5519108    0.3409093  20.30  0.002010231    2.399    0.583
       117  -8.2399    163.3502     87.0611   9.5474614298e+01   3.2100378054e+01    0.2164704    0.1824996 -31.46 0.0005150996    1.172    0.147
       118 -10.2144    103.8756     82.7192   1.0895103895e+02   4.5261271117e+01    0.4928836    0.2769855 -56.35 0.0007562232    1.912    0.477
       119  -8.5479    157.5748     83.3560   9.5679334884e+01   3.4059106364e+01    0.3488118    0.2378865 -30.29 0.0009219374    1.463    0.316
       120  -9.1658    157.0599     64.2879   8.9958523391e+01   3.7417358175e+01    0.5669897    0.3059281 -21.00  0.001940686    2.139    0.533
       121  -8.6924    156.9926     76.3407   9.3732875186e+01   3.5407904510e+01    0.4373842    0.2271466 -49.99  0.001435041    2.397    0.583
       122  -8.2953    156.7042     70.6954   9.2065791010e+01   3.6436236788e+01    0.4352565    0.2189343 -39.25  0.001193705    1.959    0.490
       123  -9.2696    140.6861     81.5456   9.9059925799e+01   3.8151754961e+01    0.6061124     0.303233 -29.95  0.001463485    2.257    0.557
       124  -8.7707    139.8508     74.6742   9.7205480812e+01   3.9595509096e+01     0.496737    0.2378362 -35.35  0.001543168    2.063    0.515
       125  -7.5517    210.5393     82.8137   8.5190398965e+01   2.1735815766e+01    0.1913043    0.1331568 -36.67 0.0009075558    1.457    0.314
       126  -7.8265    170.0732     83.3307   9.2975654583e+01   3.1180004027e+01    0.2099438    0.1981442  43.19 0.0009559498    1.107    0.096
       127  -9.0913     74.1277     80.1667   1.1692684366e+02   5.0567849758e+01    0.4330853    0.2221879 -67.33  0.001127046    2.396    0.583
       128  -8.0228     75.4010     74.3809   1.1505617209e+02   5.1640518711e+01    0.2663107    0.1844971  -9.20  0.001056394    2.248    0.555
       129  -8.4927    150.0255     80.3546   9.6509699464e+01   3.6299098431e+01     0.441175    0.2351099 -36.59  0.001438782    1.837    0.456
       130  -8.6963    119.0723     80.5602   1.0422783977e+02   4.2837215904e+01    0.3135654    0.2194782 -52.32 0.0007290923    1.477    0.323
       131  -8.0264    119.8025     76.1968   1.0275557989e+02   4.3548677862e+01    0.2274806    0.1922705 -10.45 0.0005307433    1.299    0.230
       132  -8.1519     68.5228     79.5556   1.1848452429e+02   5.1470270217e+01    0.2830677    0.1169058 -56.27  0.001202007    2.139    0.532
       133  -8.4121    184.4130     78.2967   8.8630923586e+01   2.8595663952e+01    0.2949043    0.2412646   6.83 0.0007619219    1.261    0.207
       134  -8.3271    166.2263     78.5309   9.2382150614e+01   3.2879727684e+01    0.2705683     0.204254 -29.06 0.0005744317    1.298    0.230
       135  -7.8438    173.8484     78.6174   9.0820930057e+01   3.1064689947e+01    0.2151109    0.1480903  66.24 0.0009457517    1.785    0.440
       136  -9.4389    127.3833     75.3520   1.0052292492e+02   4.2156255124e+01    0.4067521      0.26036 -56.60 0.0007868829    1.895    0.472
       137  -8.5656    129.2172     68.9034   9.8052903028e+01   4.2976899886e+01    0.4623484    0.2811326  20.07  0.001790697    2.558    0.609
       138  -8.5566    130.5783     64.7908   9.6381581468e+01   4.3434093568e+01    0.3614086    0.2264628 -42.78 0.0009794276    1.578    0.366
       139  -9.9459     16.7236     60.6256   1.3152555341e+02   6.0836244649e+01    0.6972521     0.257361 -67.14  0.003315629    2.067    0.516
       140  -9.3271    105.8328     71.5650   1.0519260228e+02   4.7176396291e+01    0.7508061     0.558557 -11.35  0.003682657    1.718    0.418
       141  -9.3130    109.7536     63.9650   1.0169767776e+02   4.7922810873e+01    0.3884078    0.3668076 -60.27  0.000574672    1.149    0.130
       142  -9.1521    110.5223     58.2828   9.9590374865e+01   4.8853479786e+01    0.4335724    0.3109374   6.35  0.001320496    1.860    0.462
       143  -9.8123     81.6221     72.4973   1.1262590569e+02   5.1115738383e+01    0.4232349    0.2803908 -74.64 0.0009898818    2.066    0.516
       144  -9.0897     83.7211     64.3397   1.0959592185e+02   5.2501009436e+01    0.5535951    0.3607635 -18.74   0.00253755    2.190    0.543
       145  -8.8192    169.1891     72.0237   8.9801047922e+01   3.3243639767e+01    0.4388335    0.1797933 -23.78  0.001412142    3.032    0.670
       146  -9.1766    115.2971     72.2339   1.0276820547e+02   4.5221585348e+01    0.5661725    0.2671987 -38.22   0.00198186    2.078    0.519
       147  -9.2895    147.0197     69.3617   9.3848127645e+01   3.8921897181e+01    0.3979767    0.2674203 -57.23  0.001013041    1.917    0.478
       148  -9.2983     96.8415     59.1112   1.0387548625e+02   5.1312376080e+01    0.7605816    0.4164648 -15.69  0.002434309    4.267    0.766
       149  -9.1221    121.2432     66.0900   9.9233753431e+01   4.5191412323e+01    0.4027258    0.2771303 -58.43  0.001137682    1.786    0.440
       150  -8.0167    122.3232     61.3302   9.7382469272e+01   4.5847658790e+01    0.2931868    0.2242047  12.70 0.0008189246    1.558    0.358
       151  -8.0851    249.3927     67.2825   7.5213561027e+01   1.4865518619e+01    0.2093469    0.1132239 -31.90  0.000955747    1.671    0.402
       152  -8.9675    138.0313     66.4626   9.5067449283e+01   4.1478702342e+01    0.3302209     0.221729 -50.58 0.0007041926    1.670    0.401
       153  -8.6049    138.3491     62.3291   9.3639170720e+01   4.2133806796e+01    0.3075166    0.2341609  12.99  0.001075247    1.533    0.348
       154  -7.4316     75.6128     66.7688   1.1288746017e+02   5.3240231803e+01    0.1913683    0.1189179 -59.67  0.000360248    1.622    0.383
       155  -8.3684    162.7216     73.1426   9.1508087900e+01   3.4604198456e+01    0.3448586    0.2151171 -51.28 0.0008485184    1.943    0.485
       156  -9.7047     94.6796     68.1347   1.0739533734e+02   4.9885133521e+01    0.4244931    0.2468075 -52.51 0.0009710185    1.706    0.414
       157  -8.6329    193.2857     61.2407   8.1894801527e+01   2.8948619524e+01    0.2546989    0.2233708 -15.53 0.0003683867    1.085    0.079
       158  -8.5998     10.1556     61.0762   1.3391434226e+02   6.1143456135e+01     0.305426    0.1690304  83.53  0.001679488    2.101    0.524
       159 -10.2273     74.4509     55.3904   1.0979179058e+02   5.5795523471e+01      1.46877    0.5190313 -36.92  0.004727002    3.672    0.728
       160 -10.3918     89.8362     37.9913   9.8376898017e+01   5.6570446848e+01    0.9802269    0.4328656  30.13  0.003418084    3.579    0.721
       161  -7.5366    164.5085     60.5141   8.7149665980e+01   3.6212626567e+01    0.1539004    0.1466719  -6.36 2.611797e-05    1.031    0.030
       162  -7.4103    152.5293     60.4998   8.9726082838e+01   3.9124103559e+01    0.1527875    0.1460688 -36.26 3.140818e-05    1.104    0.094
       163 -10.0838    152.5482     41.3724   8.3116950158e+01   4.2070298267e+01    0.7496492    0.4541532  46.97   0.00222993    1.631    0.387
       164  -8.8302    146.7509     59.1376   9.0585130384e+01   4.0724627103e+01     0.334397    0.2438602 -50.47 0.0008316606    1.550    0.355
       165  -8.9882    147.5926     53.6445   8.8528481690e+01   4.1420310930e+01    0.5431287    0.2287316 -27.58  0.001531008    2.476    0.596
       166  -8.4749    149.6804     48.0051   8.6098027955e+01   4.1796884751e+01     0.324787     0.216647 -25.13 0.0007106237    1.468    0.319
       167  -8.9786    129.9978     57.5260   9.4098369924e+01   4.4856662711e+01    0.4718893    0.2406435 -45.41  0.001295681    2.081    0.519
       168  -8.7807     87.3807     58.4185   1.0657044108e+02   5.3109904196e+01    0.3543683    0.2338992 -53.93  0.001144048    1.537    0.349
       169  -8.2401     89.3574     52.9466   1.0410031722e+02   5.3856875302e+01    0.3538279    0.2507457  13.70  0.001736062    1.845    0.458
       170  -9.2404    138.9687     56.8992   9.1662893016e+01   4.2922664091e+01     0.355714    0.2246439 -44.93 0.0005607344    1.668    0.401
       171  -8.2420    158.8838    111.9468   1.0300376308e+02   2.8710486557e+01    0.2114452    0.2090657  44.33 0.0005220818    1.083    0.076
       172  -9.3729    118.1952     54.7952   9.6255251965e+01   4.7911357721e+01    0.5486999    0.3119318 -42.58  0.001027447    1.718    0.418
       173  -9.2169    121.1406     46.8335   9.2596452362e+01   4.8663638228e+01    0.3620252    0.2351932 -35.41 0.0004760395    1.459    0.314
       174  -8.2245    122.2149     41.2314   9.0207337678e+01   4.9349271535e+01    0.3488427    0.2190547   2.84  0.001404358    2.281    0.562
       175  -9.8974     43.9117     53.0908   1.1988642865e+02   6.0191147833e+01     0.355023    0.3195973 -62.74  0.001264143    1.128    0.113
       176  -8.9414     53.0395     39.6401   1.1216516337e+02   6.1971467335e+01    0.6481144    0.1947391 -40.57  0.002271498    3.408    0.707
       177  -8.5811     40.9001    226.1457   1.4165319048e+02   2.6364195066e+01    0.1390527    0.1085319  73.36 0.0004221345    1.184    0.155
       178 -10.1058     69.4513     40.5770   1.0636271648e+02   5.9518875856e+01    0.8768533    0.3954104 -42.47  0.002528763    1.924    0.480
       179  -8.9968     70.6153     25.7876   9.9898940020e+01   6.2063290345e+01    0.3987227     0.262038  37.49  0.001453307    1.689    0.408
       180  -9.9535     49.8698     54.0641   1.1798390356e+02   5.9329929927e+01    0.5786799    0.3072375 -66.69  0.002320124    2.115    0.527
       181  -9.6151     56.0058     43.3133   1.1231481943e+02   6.0848958974e+01      0.80698    0.4313474 -14.87    0.0028433    4.524    0.779
       182 -10.1404     76.1413     31.7635   1.0046743802e+02   6.0096827202e+01    0.4344465    0.3627473 -83.23  0.001336538    1.818    0.450
       183  -7.0390    130.4018    234.5067   1.2802736125e+02   1.4334984667e+01    0.1024153   0.07705434  48.39 9.663212e-05    1.020    0.020
       184  -7.0149     37.7202    213.3275   1.4149724588e+02   2.8642146701e+01    0.1010887    0.0509182  65.23 0.0001617599    1.597    0.374
       185  -8.6615      2.8543    212.7195   1.4696105933e+02   3.1926803463e+01    0.1580612   0.08198657 -70.60  0.001222699    2.091    0.522
       186  -8.9031     84.8899     21.9485   9.3140979112e+01   6.0181374368e+01    0.2374723    0.2200046 -24.95 0.0009349586    1.166    0.142
       187  -7.7084    153.1862     54.4600   8.7558538922e+01   3.9936211610e+01    0.3693135    0.2063336 -58.91  0.001280011    3.025    0.669
       188  -8.3031     94.8593     53.6266   1.0261580728e+02   5.2742389376e+01    0.3157033    0.1814796 -42.21  0.001450057    1.592    0.372
       189  -9.4027    162.9475     53.2201   8.5066814679e+01   3.7720025300e+01    0.4684217    0.2137387 -28.39  0.001646929    2.146    0.534
       190  -8.9138    105.4116     51.9801   9.8864150459e+01   5.1046799596e+01     0.575616    0.2761993 -34.50  0.001836292    2.029    0.507
       191 -10.0556    248.6360     47.4698   7.0013236711e+01   1.7286719661e+01    0.3858736    0.2621712  -7.60  0.001954478    1.450    0.310
       192  -9.0692    157.7139     49.4823   8.4883664900e+01   3.9586824746e+01    0.3648294    0.2217175 -51.50  0.001481319    2.051    0.513
       193 -10.1506     85.1242     48.1257   1.0375956479e+02   5.5526444354e+01    0.4009117    0.2891206 -61.96 0.0009227472    1.725    0.420
       194  -9.0510    141.9406     47.4502   8.7651592441e+01   4.3761646645e+01    0.5879245    0.2560077 -29.02  0.001524122    2.270    0.559
       195  -8.8348    135.8643     27.1295   8.1359483998e+01   4.8197924928e+01    0.4202887    0.2163377 -18.56  0.001376586    2.045    0.511
       196  -9.6602    130.4287     47.0008   9.0262830281e+01   4.6542143165e+01    0.9558107     0.377884 -24.51   0.00269964    3.182    0.686
       197  -8.9163    132.7117     36.0149   8.5574378247e+01   4.7717017125e+01    0.4044374    0.2938274 -32.75  0.001256357    1.337    0.252
       198  -9.7378    133.9595     31.1457   8.3383090033e+01   4.8116494392e+01    0.2972736    0.2567467   7.46            0    1.121    0.108
       199 -10.0986     37.7158     42.0835   1.1902748558e+02   6.3176766015e+01    0.5228615     0.323841 -81.17  0.001491722    2.476    0.596
       200 -10.4874     35.4344     37.9305   1.1864061296e+02   6.4273122029e+01    0.4836052    0.2629285 -27.40  0.000307421    2.309    0.567
       201  -8.8816    118.9480     34.4646   8.8418655724e+01   5.1151310759e+01    0.4296006    0.2246505 -22.96   0.00118576    1.995    0.499
       202  -8.3053    111.8120     46.9156   9.5180215411e+01   5.0655113451e+01    0.3225172    0.1834571 -44.84 0.0003981884    1.800    0.444
       203  -8.6294    113.4879     41.3969   9.2622092587e+01   5.1243401341e+01    0.5344278    0.2959096   0.71  0.001676907    4.060    0.754
       204  -9.1276    110.2336     32.9628   9.0176897412e+01   5.3311547389e+01    0.3929103    0.2292345 -39.84 0.0008876918    1.699    0.412
       205  -9.5154      7.3865    208.1933   1.4610594142e+02   3.2259404912e+01    0.2087245    0.1133587  35.39  0.001603663    1.965    0.491
       206  -9.1929    104.7710     41.0055   9.4960141672e+01   5.3136452755e+01    0.3998138    0.2570956 -51.18  0.001059828    1.826    0.452
       207  -8.2448    106.0657     36.4337   9.2773831636e+01   5.3639339471e+01    0.3316243    0.2135971  23.03 0.0008138871    1.906    0.475
       208  -8.1456    100.4770     36.4859   9.4447974617e+01   5.4776286642e+01    0.2432267    0.2156751 -22.82 0.0005866878    1.040    0.039
       209  -9.1124    101.0529     32.0741   9.2465592227e+01   5.5387727483e+01    0.4177087    0.2221382 -38.42 0.0009382107    1.782    0.439
       210  -8.7997    139.6248     39.9409   8.5442094348e+01   4.5470068908e+01    0.4513175    0.2292896 -35.62  0.001340722    1.897    0.473
       211  -8.6024    160.4630     38.6827   8.0540023462e+01   4.0441396784e+01    0.3277668    0.1481678 -25.58  0.001208599    2.169    0.539
       212  -8.1132    248.7341     36.8029   6.7114812803e+01   1.8414511599e+01    0.2797598    0.1558023  38.68  0.001110833    2.034    0.508
       213  -6.9643    242.3104     37.3491   6.7956698376e+01   1.9849051884e+01    0.1492796   0.09980397  21.75 0.0007045038    1.714    0.416
       214  -8.7876    144.0517     36.5568   8.3179785644e+01   4.4877155593e+01    0.2658022    0.1985721 -41.23 0.0004562317    1.404    0.288
       215  -7.7819    189.6518     35.4941   7.4317473221e+01   3.3263932146e+01    0.2704017    0.1368502 -24.65 0.0009449816    1.891    0.471
       216  -9.9124    153.0859     33.2671   8.0047063794e+01   4.3057151493e+01    0.6736717    0.1917829 -29.81  0.002082376    3.154    0.683
       217  -8.3865     49.8618     35.1429   1.1178722591e+02   6.3268344912e+01    0.2036561    0.1632698 -37.04 0.0004283846    1.045    0.043
       218  -9.6160     11.7108    206.9775   1.4537796703e+02   3.2083078862e+01     0.303248    0.1371683  55.72  0.002225328    1.591    0.371
       219  -8.7902     42.0231     28.2672   1.1242313684e+02   6.5550676692e+01    0.3014606     0.150412 -47.24  0.000184233    1.616    0.381
       220  -8.5615    124.0141    206.0008   1.2615247961e+02   1.9104642905e+01    0.1591598    0.1253703  51.91            0    1.026    0.025
       221  -7.4239     60.0001    203.0701   1.3713036005e+02   2.7901868520e+01    0.1200207   0.09167944  72.55 0.0009580996    1.079    0.074
       222  -9.0314    192.0451    194.3650   1.1262359576e+02   9.9445177856e+00    0.6479847    0.3469521 -60.76  0.002269765    7.073    0.859
       223  -9.1638     91.2572     25.9389   9.2859216588e+01   5.8330614253e+01    0.4404539    0.2475642 -46.55  0.001219716    2.034    0.508
       224  -8.6335     92.0616     20.9594   9.0367802247e+01   5.8937327149e+01    0.3592561    0.2237059  22.03  0.001378008    1.920    0.479
       225 -10.0737    184.1657    195.2109   1.1411577492e+02   1.1143645307e+01    0.1895456    0.1589261  36.17 0.0002153801    1.084    0.077
       226  -6.9498     14.3194    170.6973   1.4327245286e+02   3.8063702193e+01    0.1074257   0.05391765  65.11 0.0004754326    1.627    0.385
       227  -7.8327    230.2218    167.4375   1.0146291611e+02   6.5897502149e+00    0.2413833   0.07719565 -39.99 0.0008834653    4.430    0.774
       228  -7.1689     59.3436    162.2263   1.3380101524e+02   3.5186404595e+01   0.09244754   0.08737358  -3.35 0.0005783318    1.542    0.352
       229  -7.8472     11.9690    153.1565   1.4272757919e+02   4.1539989291e+01    0.1581121    0.1061307  67.75 0.0009274647    1.203    0.169
       230  -8.6152    133.5109    145.9207   1.1571564370e+02   2.7455394960e+01    0.4099664    0.1303775 -51.73  0.001492296    3.593    0.722
       231  -9.2180     68.4826    145.4774   1.2998185439e+02   3.7367406669e+01    0.2985252    0.2205409  54.14  0.001422644    1.269    0.212
       232  -9.1317    132.3849     17.6122   7.8256076416e+01   5.0257348977e+01    0.3288462     0.260331 -15.21 0.0007976185    1.214    0.176
       233  -9.1363    154.1596     22.1694   7.5671166224e+01   4.4170590571e+01    0.2666119     0.212365 -33.03 0.0006747938    1.275    0.215
       234  -9.8579     65.6524    143.3091   1.3034571791e+02   3.8151227251e+01    0.2867649    0.2338789 -86.99  0.001173797    1.086    0.079
       235  -8.3124    112.3219    134.0948   1.1826881862e+02   3.3304386740e+01     0.299691    0.1987782  84.59  0.001247779    2.197    0.545
       236  -8.6267    135.7803    131.6199   1.1249383128e+02   2.9672658855e+01    0.4654047    0.1656035 -48.75   0.00149504    2.994    0.666
       237  -8.6834    193.9950    131.5296   1.0045321410e+02   1.8196862427e+01    0.2342646    0.1942181 -19.38  0.000424428    1.218    0.179
       238  -8.7682     40.9007     20.4799   1.0970950938e+02   6.7176795318e+01    0.2304978    0.1461969 -40.07 0.0003183776    1.266    0.210
       239  -8.7743    139.6791     17.5581   7.6693063173e+01   4.8432587355e+01     0.270758     0.133669 -22.08  0.001077559    1.979    0.495
       240  -7.9879    231.5031     30.3325   6.7178200684e+01   2.3184587310e+01    0.2528729    0.1334198  66.35  0.001101175    2.027    0.507
       241  -7.1951    189.3107     15.3587   6.7662848010e+01   3.5576843698e+01    0.1632995    0.1037079  29.06 0.0007042379    1.739    0.425
       242 -10.4984     70.0687    126.4023   1.2700271474e+02   4.1089722823e+01    0.5756144    0.5410475 -41.09  0.001789469    1.302    0.232
       243 -10.0092     58.3639    124.7669   1.2962659483e+02   4.2858849080e+01    0.6282869    0.3117272  74.15   0.00244784    3.091    0.677
       244  -9.6263     98.8787    128.9845   1.2048798737e+02   3.6479558839e+01     0.600638    0.3229372  68.27   0.00244366    3.115    0.679
       245  -8.8701    126.2824    127.2511   1.1375400839e+02   3.2228749894e+01    0.4305059    0.2902708 -23.31  0.001115651    2.159    0.537
       246 -10.7246    133.3824    109.4688   1.0819743088e+02   3.4340804180e+01    0.8997487    0.4070864 -41.72  0.003639398    2.264    0.558
       247 -10.1804    139.2730    103.9355   1.0546124944e+02   3.4232478433e+01    0.6568379    0.3258405 -48.46  0.001332512    2.131    0.531
       248  -9.1510    135.3744    122.0671   1.1058801645e+02   3.1544124346e+01    0.3810647    0.2475454 -36.58   0.00187506    1.689    0.408
       249  -9.6971    130.3804    118.7579   1.1101861173e+02   3.3117269273e+01    0.4056245    0.2892265 -58.13 0.0009257405    1.530    0.346
       250  -7.4645    160.6582    128.2899   1.0640010299e+02   2.5483678217e+01    0.1365508     0.110856  82.06 0.0002542636    1.649    0.394
       251  -9.6370    117.1343    125.4454   1.1551315152e+02   3.4194109947e+01     0.613913    0.4097853 -87.75  0.002231296    2.294    0.564
       252 -10.1203    108.6978    114.7032   1.1535190480e+02   3.7801921597e+01    0.6173652    0.4077617 -88.57   0.00161449    2.342    0.573
       253  -9.9381    123.2805     91.2624   1.0610218471e+02   3.9888816074e+01    0.5311865    0.4642676  -3.25  0.001096177    1.287    0.223
       254  -8.8802    126.3315     83.7519   1.0325670641e+02   4.0756518996e+01    0.5892678     0.363178  10.94  0.002134366    3.246    0.692
       255  -9.4446    127.8029    102.5059   1.0785676585e+02   3.6783559392e+01     0.366904    0.3296562 -61.33 0.0008851759    1.157    0.136
       256 -10.6629    121.6602    111.2337   1.1141803915e+02   3.6212306415e+01    0.9612671    0.5118971 -37.93   0.00291879    2.126    0.530
       257 -10.6904    107.8576    100.5092   1.1240315277e+02   4.0871148121e+01    0.9653007    0.6827943 -74.03  0.002923478    1.772    0.436
       258  -9.9312    120.6997    102.7398   1.0966809557e+02   3.8090079871e+01    0.9849603    0.5354138 -27.85  0.003796276    2.867    0.651
       259  -9.1799     41.2293    121.9061   1.3346573785e+02   4.5306366620e+01    0.4363849    0.1774889 -81.54  0.001587792    2.771    0.639
       260  -9.5139     27.4520    122.9371   1.3693459302e+02   4.6361527899e+01    0.4864114    0.2122231  69.52   0.00217485    2.806    0.644
       261 -10.4205    239.8990    123.1874   9.0546972699e+01   1.0054550425e+01    0.2699441    0.2186896  29.90 0.0004710699    1.170    0.145
       262  -9.7087    140.6154    118.4768   1.0860165679e+02   3.1215441995e+01    0.4430937    0.3134939 -85.57  0.001312132    2.279    0.561
