#   1 NUMBER                 Running object number                                     
#   2 MAG_AUTO               Kron-like elliptical aperture magnitude                    [mag]
#   3 X_IMAGE                Object position along x                                    [pixel]
#   4 Y_IMAGE                Object position along y                                    [pixel]
#   5 X_WORLD                Barycenter position along world x axis                     [deg]
#   6 Y_WORLD                Barycenter position along world y axis                     [deg]
#   7 A_WORLD                Profile RMS along major axis (world units)                 [deg]
#   8 B_WORLD                Profile RMS along minor axis (world units)                 [deg]
#   9 THETA_WORLD            Position angle (CCW/world-x)                               [deg]
#  10 FWHM_WORLD             FWHM assuming a gaussian core                              [deg]
#  11 ELONGATION             A_IMAGE/B_IMAGE                                           
#  12 ELLIPTICITY            1 - B_IMAGE/A_IMAGE                                       
         1 -12.9465     67.3635    144.6055   1.2772961623e+02   3.8080262740e+01     2.220548     1.098729  88.88  0.002280649    4.974    0.799
         2 -13.1251    192.0822     25.5465   6.7140399440e+01   3.4445135454e+01       1.6311     1.257962 -21.10  0.007786736    1.628    0.386
         3 -12.9852    199.7292     19.8311   6.4752848623e+01   3.3252722283e+01     1.123039    0.7657652  86.91  0.004396022    1.352    0.261
         4 -13.1395    205.3036     12.0170   6.2248185627e+01   3.2790369487e+01     1.436683    0.7855858  49.27  0.001483375    2.111    0.526
         5  -8.8666     32.5514      1.5182   9.7608707425e+01   6.9495082757e+01    0.1091996   0.08124426   1.03 0.0001591578    1.010    0.010
         6 -12.6020     44.4277    225.9808   1.4279212223e+02   2.2582953318e+01    0.5727332    0.4134307  69.51 0.0008310589    1.093    0.085
         7 -10.5956    139.9863    250.1211   1.2735689969e+02   3.2915369276e+00    0.3224874    0.1570778  43.28  0.001606694    1.699    0.411
         8 -11.6699    126.3789    247.8352   1.2965620639e+02   5.9871405629e+00     0.506539    0.3755512 -71.80  0.003121027    1.543    0.352
         9 -12.2761    100.6443    246.4927   1.3435027195e+02   1.0443694348e+01    0.6711886     0.509802  51.72  0.004311918    1.158    0.136
        10 -11.9952     90.1746    246.0537   1.3624531702e+02   1.2162682730e+01    0.6236064    0.3226209  72.31  0.002326438    2.292    0.564
        11 -10.6117     84.0074    238.4855   1.3661829082e+02   1.4551782492e+01    0.2586541    0.1813532  75.61 0.0006553045    1.264    0.209
        12 -10.5469     82.3332    249.5360   1.3801644465e+02   1.2700322414e+01    0.2513613    0.1811286  52.53  0.001537941    1.207    0.172
        13 -14.2625      3.5119     17.5042   1.1767656936e+02   7.0163509873e+01     15.59454     1.191607 -49.97   0.03343482   15.770    0.937
        14 -14.6084     53.7717    214.7867   1.4002404409e+02   2.3716200861e+01       4.1993     2.443991  65.71   0.02369858    1.545    0.353
        15 -11.5051     79.1365    232.9051   1.3696375569e+02   1.6385582064e+01    0.3942203    0.3072049  45.46 0.0004145744    1.363    0.266
        16 -14.2312      2.7996    232.3706   1.5039010112e+02   2.5980230148e+01     7.612167          nan -69.71   0.02088409    9.683    0.897
        17  -9.6734    227.7527    204.1099   1.0276468349e+02  -4.5391286221e+00    0.2656942     0.217979 -60.70  0.000748638    1.671    0.401
        18  -9.5498    192.0458    192.9188   1.0760097884e+02   4.0485446102e+00     0.505554    0.2654122 -67.85  0.001343956    6.521    0.847
        19 -10.9450     69.0645    192.6291   1.3443647642e+02   2.6499325489e+01    0.4180357    0.2677274 -44.34  0.001973266    2.137    0.532
        20 -10.9534     73.8693    185.6653   1.3247158876e+02   2.7398428220e+01    0.3268463    0.2374427 -53.19 0.0008245751    1.526    0.345
        21 -10.4318    117.9138    174.9994   1.2060843404e+02   2.2516491115e+01    0.4539487    0.1662644  44.04  0.001607586    2.632    0.620
        22 -10.3774     82.6238    174.1322   1.2879306347e+02   2.8770185099e+01    0.2600229    0.2249504 -59.71 0.0004132125    1.229    0.186
        23 -12.5478     70.1805    171.3818   1.3130929962e+02   3.1276919513e+01    0.5159839    0.2833175 -44.99  0.001534076    2.290    0.563
        24  -8.5784     45.3222    173.3003   1.3730174702e+02   3.4073946788e+01     0.121382   0.09261892 -46.12 0.0003716484    1.628    0.386
        25 -11.7535     89.1084    166.0105   1.2593168494e+02   2.9668533120e+01     1.245276    0.5832464  54.00  0.002695962    2.411    0.585
        26 -10.3044     74.7360    228.0102   1.3729916149e+02   1.8025287215e+01    0.2763397     0.164812  49.99  0.000976102    1.460    0.315
        27  -8.6180    104.1772    145.2207   1.1825879801e+02   3.2071139599e+01    0.3266234    0.1934352 -36.60  0.001333898    2.188    0.543
        28 -11.3207     90.1012    148.8118   1.2260159280e+02   3.3631259085e+01    0.2899082    0.2566485 -42.01 0.0004647455    1.260    0.207
        29  -8.7698    134.0000    145.0731   1.1068339077e+02   2.6312007570e+01    0.2586072   0.08735444 -49.62 0.0008011193    2.933    0.659
        30  -8.8233    163.6920    156.3474   1.0615631093e+02   1.7435742881e+01    0.1610191    0.1225975 -88.95 6.462972e-05    1.704    0.413
        31  -9.1165    111.6367    135.6596   1.1426645107e+02   3.2964593502e+01    0.3111084    0.2465348 -11.70  0.001232868    1.760    0.432
        32 -10.1256     69.3092    134.8462   1.2543677870e+02   4.0150671434e+01    0.2512394    0.2097117  29.01 0.0008400307    1.408    0.290
        33 -11.7277     32.6205    128.6612   1.3429929451e+02   4.5910064532e+01     1.087473    0.1113715 -65.01  0.002540201    7.688    0.870
        34  -8.8252    108.0776    122.9055   1.1227009265e+02   3.6620984636e+01    0.2170612    0.2066482 -61.12 0.0003198881    1.015    0.015
        35  -9.4590    101.2275    149.5004   1.1988090986e+02   3.1572662567e+01    0.3339396    0.2720979 -49.56  0.001178321    1.250    0.200
        36  -9.8209     99.2212    132.4404   1.1684663498e+02   3.5997665346e+01    0.3031812    0.2227671 -35.21 0.0006517461    1.565    0.361
        37 -10.1472    168.0770    113.1182   9.4817369460e+01   2.5785186254e+01    0.3693891     0.290374 -80.08  0.000853455    1.523    0.343
        38 -11.3680     44.3856    129.2005   1.3120147266e+02   4.4585087277e+01    0.6304241    0.1692087 -67.06  0.001998769    4.031    0.752
        39 -13.5569     10.1473    206.8043   1.4756372637e+02   3.0417124706e+01     1.166238    0.9641934 -81.61  0.006654202    1.313    0.238
        40  -8.8571    205.1623    110.7000   8.6630737917e+01   1.7489453672e+01    0.3754392    0.1706916  37.37  0.001209329    3.374    0.704
        41 -14.3522     32.9451    247.3970   1.4638200822e+02   1.9778565837e+01     8.671027      2.63594  32.99   0.03102903    6.306    0.841
        42  -9.6452    128.2345     54.5448   8.7399392821e+01   4.5998548413e+01     0.251398    0.2225536 -60.76 0.0005526051    1.284    0.221
        43 -10.3049    120.0247     49.4532   8.7805693508e+01   4.8587055020e+01    0.3976479    0.2757488  75.22   0.00136236    2.013    0.503
        44 -10.7782    109.2304    246.5604   1.3274948939e+02   9.0517590461e+00    0.2846591    0.2196746  89.31  0.001281283    1.320    0.242
        45 -14.5210     14.6864    163.7243   1.4307205724e+02   3.9435417121e+01     4.106931     1.624922  84.63  0.004246241    3.563    0.719
        46 -11.0582    149.8510    228.8606   1.2248167032e+02   5.3138802150e+00    0.4323084    0.2280516  36.76  0.002019781    1.840    0.456
        47  -8.7030     33.3508     24.7874   1.0730127118e+02   6.6501959230e+01    0.1606272   0.08508592 -30.06 0.0005912585    1.632    0.387
