#   1 NUMBER                 Running object number                                     
#   2 MAG_AUTO               Kron-like elliptical aperture magnitude                    [mag]
#   3 X_IMAGE                Object position along x                                    [pixel]
#   4 Y_IMAGE                Object position along y                                    [pixel]
#   5 X_WORLD                Barycenter position along world x axis                     [deg]
#   6 Y_WORLD                Barycenter position along world y axis                     [deg]
#   7 A_WORLD                Profile RMS along major axis (world units)                 [deg]
#   8 B_WORLD                Profile RMS along minor axis (world units)                 [deg]
#   9 THETA_WORLD            Position angle (CCW/world-x)                               [deg]
#  10 FWHM_WORLD             FWHM assuming a gaussian core                              [deg]
#  11 ELONGATION             A_IMAGE/B_IMAGE                                           
#  12 ELLIPTICITY            1 - B_IMAGE/A_IMAGE                                       
         1 -11.7655    172.0715     30.9110   2.9006861003e+02   6.3677783558e+00   0.05943714   0.03837727 -43.81  0.004699736    1.593    0.372
         2 -10.5167    176.1049     23.7957   2.8997831975e+02   6.4245493960e+00    0.0245212   0.01935278 -48.88  0.001160163    1.254    0.202
         3  -7.1578    242.3120      8.6607   2.8912733753e+02   6.1968611648e+00  0.006939695  0.004987679  65.73 0.0002454186    1.694    0.410
         4  -8.8907    159.7566    235.9690   2.9147678876e+02   4.1009970965e+00   0.01037451  0.008707847 -33.58 0.0005941699    1.242    0.195
         5 -13.6621     93.5781    247.9565   2.9230650693e+02   4.3613673025e+00    0.2561928    0.0907619  33.16   0.01020696    2.640    0.621
         6 -12.0212     14.0944    243.0997   2.9318513086e+02   4.8927622597e+00   0.04935331   0.03098525 -24.82  0.003109059    2.092    0.522
         7 -13.5883     61.0299    222.8860   2.9252450164e+02   4.8429895847e+00    0.1192371   0.06787499  43.51  0.001505798    1.825    0.452
         8 -14.6809     29.7205    248.0119   2.9303662362e+02   4.7431820732e+00    0.1611229    0.1316285 -80.11   0.01862273    1.325    0.245
         9 -14.6658     55.2963    246.3061   2.9273384243e+02   4.6096271800e+00    0.3396127   0.06834584 -49.10  0.006088404    4.793    0.791
        10  -8.5086    180.9268    234.8242   2.9122800913e+02   3.9867858968e+00   0.01042707  0.008636189 -32.56 0.0006618904    1.269    0.212
        11  -8.2394    169.4777    234.0991   2.9135426313e+02   4.0639156112e+00    0.0102342  0.006424111 -61.15   0.00102824    1.579    0.367
        12  -6.9377      4.7483    234.1902   2.9323738278e+02   5.0504657163e+00  0.008555436  0.007225614 -18.55 0.0003237745    1.290    0.225
        13  -9.5987    136.2299    230.4906   2.9171178281e+02   4.3049489281e+00   0.01900792   0.01027973  32.52   0.00133319    1.809    0.447
        14  -9.2199    124.0524    231.2726   2.9185572382e+02   4.3691497175e+00   0.01375223  0.009526086  25.64  0.001461444    1.467    0.318
        15  -7.4531    150.3664    230.2603   2.9154887950e+02   4.2226446185e+00  0.006800714  0.004976848 -18.64 0.0004397671    1.642    0.391
        16  -7.4269    141.4903    224.5346   2.9161501515e+02   4.3413922237e+00  0.006587707  0.006318592 -28.03  9.06569e-05    1.048    0.046
        17  -7.6642    172.3053    219.2946   2.9123074551e+02   4.2160036323e+00  0.006767396  0.004946272 -26.13 0.0002483077    1.581    0.367
        18  -8.5338     12.4173    216.7317   2.9304264067e+02   5.2042375334e+00   0.01547393   0.01015352 -16.39  0.001257766    2.045    0.511
        19  -8.6076     99.9254    215.4053   2.9203382925e+02   4.6952890116e+00   0.01539075  0.009776725  55.81  0.001422669    1.877    0.467
        20  -7.1502    238.3492    235.3348   2.9057591052e+02   3.6353801217e+00  0.007173029  0.004883047 -26.18 0.0007047458    1.779    0.438
        21  -8.1239     94.7987    214.2201   2.9208514514e+02   4.7395933868e+00   0.01173761   0.00634388  61.03 0.0009508964    2.799    0.643
        22  -8.3113    167.2759    211.0326   2.9123725839e+02   4.3406209301e+00    0.0174707   0.01074697  78.11  0.001539499    2.513    0.602
        23  -9.7154     22.8797    206.3617   2.9285932721e+02   5.2602394368e+00   0.02390829   0.01494443  34.54  0.001397421    1.578    0.366
        24  -9.0447     94.0698    208.3260   2.9205721419e+02   4.8113265980e+00   0.01614982   0.01244381  86.29  0.001038751    1.539    0.350
        25  -7.5618    130.4383    207.4216   2.9163590685e+02   4.6033130755e+00  0.006564989   0.00622766 -26.47 0.0001527692    1.066    0.062
        26  -9.9085    124.0026    206.0078   2.9170075559e+02   4.6581274489e+00  0.009154094  0.009067973 -29.39  0.001159189    1.004    0.004
        27  -8.5910     88.4596    204.3099   2.9209665033e+02   4.8908812487e+00    0.0118967  0.005960096  28.29  0.001071355    1.996    0.499
        28  -9.4324    198.5532    200.5623   2.9081547644e+02   4.2719779139e+00   0.02536634   0.01498584  25.75   0.00249791    1.732    0.423
        29 -11.5430     12.3049    206.9080   2.9298365169e+02   5.3172201988e+00   0.03581413   0.02055465  28.32  0.002673934    1.745    0.427
        30  -8.1694     37.8908    200.7975   2.9265343362e+02   5.2340393528e+00   0.01255005  0.008369964  46.61  0.001062382    1.584    0.369
        31  -7.9631     30.2412    200.7130   2.9274042583e+02   5.2807807459e+00   0.01124517  0.008065643  30.74 0.0008916623    1.390    0.280
        32  -9.6337    190.4000    191.0938   2.9085014204e+02   4.4291883258e+00   0.02881378   0.01600777 -87.52  0.001417145    2.973    0.664
        33  -7.6536     25.1532    193.2964   2.9275308079e+02   5.3960029191e+00   0.01259632  0.006207973  18.35  0.001059474    2.432    0.589
        34  -9.3024     33.8887    188.7756   2.9262534824e+02   5.3954179139e+00   0.02306273   0.01767248  24.75  0.002596013    1.326    0.246
        35  -8.2463    209.4835    189.0176   2.9061940880e+02   4.3379692988e+00   0.01005279  0.004670805 -40.57 0.0008101999    2.537    0.606
        36  -8.6843     44.4776    187.2808   2.9249499730e+02   5.3491182400e+00   0.01152633   0.01096577  13.75 0.0002470256    1.064    0.060
        37  -8.0418    219.4038    186.9038   2.9049310242e+02   4.3023350403e+00   0.01322774   0.01002108  16.04  0.001458994    1.409    0.290
        38  -9.2511     60.7184    183.4734   2.9228575351e+02   5.2953541161e+00   0.01874664   0.01661995  61.45  0.002260169    1.200    0.166
        39  -9.0252     27.9727    181.8356   2.9265039253e+02   5.5101510836e+00   0.01643448   0.01334137   6.43  0.001343018    1.343    0.256
        40  -8.3391    201.6202    183.3674   2.9067430267e+02   4.4498467179e+00   0.01218653   0.01152476 -12.79  0.001014994    1.082    0.076
        41 -10.1064     96.2257    176.9453   2.9183934587e+02   5.1570085220e+00    0.0382659   0.01201419 -45.02  0.002163922    3.691    0.729
        42  -8.1903      1.5531    178.2041   2.9293046732e+02   5.7096255622e+00  0.009171012  0.007607038 -51.53  0.001061584    1.187    0.157
        43  -7.5345    190.1336    175.3776   2.9075615394e+02   4.6102576317e+00   0.00944799  0.005711452  40.34 0.0004040066    1.666    0.400
        44  -7.7706    105.3336    174.3096   2.9171892386e+02   5.1324459446e+00  0.006972868  0.004934472 -25.47 0.0007042753    1.674    0.403
        45  -8.1965     19.3931    174.2642   2.9270205320e+02   5.6480222887e+00  0.009138537  0.006375797 -76.02 0.0007511874    1.606    0.377
        46  -9.2042    227.7208    171.1437   2.9030078452e+02   4.4321108396e+00   0.02348086   0.01341272  75.94  0.001869183    3.132    0.681
        47  -8.1199    113.6043    170.2858   2.9159952162e+02   5.1287506861e+00   0.01046542  0.009483845  72.65 0.0004034306    1.180    0.153
        48  -8.3592     46.9587    171.1200   2.9236720183e+02   5.5189841678e+00   0.01374066  0.009088314  21.10 0.0007965603    1.596    0.373
        49  -8.1892     34.0163    170.5077   2.9251157201e+02   5.6034722006e+00   0.01322878  0.008428195 -43.60  0.001170957    1.619    0.383
        50  -8.6779     18.3027    168.8680   2.9268136398e+02   5.7162272920e+00   0.01367774  0.006662084  41.80  0.001210684    2.104    0.525
        51  -7.2321     61.4210    167.4550   2.9217912506e+02   5.4742235372e+00  0.006484943  0.006328307 -42.03 9.441818e-05    1.015    0.015
        52  -7.7506     24.9977    167.2136   2.9259454905e+02   5.6950923193e+00  0.008938135  0.005311513  27.52 0.0008435192    1.695    0.410
        53  -8.6641    101.9697    165.4326   2.9170268891e+02   5.2540782816e+00   0.01183059  0.009354581 -57.39 0.0001681543    1.244    0.196
        54 -10.1527     90.9318    160.8111   2.9180048909e+02   5.3731494954e+00   0.01425939   0.01201449 -26.32 0.0004126573    1.268    0.211
        55  -8.1618     16.6148    160.4858   2.9264915106e+02   5.8221348288e+00   0.02306589  0.009620734  16.12  0.001638196    3.561    0.719
        56  -8.5071     25.9818    158.5064   2.9252972793e+02   5.7887291482e+00   0.01486165  0.009628743 -32.02  0.001471953    1.813    0.448
        57  -8.7506     22.2916    157.9997   2.9256886268e+02   5.8165980128e+00   0.01569075   0.01377096   4.88   0.00188026    1.203    0.168
        58  -8.6109    105.0875    159.6865   2.9163159311e+02   5.3010097670e+00   0.01536854   0.01164183 -26.76 0.0004005488    1.488    0.328
        59  -8.7704    107.0270    155.4150   2.9158306188e+02   5.3381657479e+00    0.0249114  0.008158339  34.84  0.001894249    2.820    0.645
        60  -7.1091     64.9683    159.0459   2.9208674281e+02   5.5490644123e+00  0.007799499  0.007292177 -59.83 0.0003727815    1.063    0.059
        61  -7.8192      9.6574    155.3085   2.9269697976e+02   5.9229117475e+00  0.006983334  0.004920574  61.41 0.0007043987    1.693    0.409
        62  -7.6803     17.2002    152.1295   2.9259105288e+02   5.9141463019e+00   0.01019167  0.008764604 -20.36 0.0006194388    1.248    0.199
        63 -10.9722     68.1922    144.3245   2.9195913549e+02   5.6979627685e+00    0.0358151   0.02145003  57.40  0.003349924    2.114    0.527
        64 -11.0020     67.4861    135.3712   2.9191202951e+02   5.8044992608e+00   0.03245657     0.019013  57.93  0.002970567    2.218    0.549
        65 -14.2325     45.9317    249.3059   2.9285927367e+02   4.6313979341e+00    0.3354384    0.1220475  15.60   0.01593062    5.613    0.822
        66  -8.9134    133.6739    137.9855   2.9117064586e+02   5.3771118063e+00   0.01769375   0.01052769 -45.03  0.001736481    1.721    0.419
        67  -6.8306     88.6642    147.7048   2.9174564017e+02   5.5365167674e+00  0.006896697  0.004954606 -24.15 0.0003397471    1.647    0.393
        68  -7.8840     79.5597    136.0378   2.9177790854e+02   5.7244583390e+00   0.01035882  0.008586808  29.65 0.0004944811    1.209    0.173
        69  -8.7600     59.0006    132.9869   2.9199449457e+02   5.8826199744e+00  0.009977762  0.009912611 -79.58 0.0004919265    1.018    0.018
        70  -8.1360    119.0410    131.9835   2.9130100089e+02   5.5336507879e+00   0.01110129   0.00756195 -29.75 0.0009368248    1.719    0.418
        71  -8.8170     72.8089    128.2003   2.9180686250e+02   5.8545040579e+00  0.009597065   0.00771152 -27.92  0.001080473    1.352    0.260
        72  -7.0099    198.7770    125.9958   2.9035217279e+02   5.1219537399e+00  0.008339396  0.005357111 -61.18            0    1.544    0.352
        73  -7.5478    123.6318    125.6825   2.9120955602e+02   5.5780191032e+00  0.007151782  0.004904198 -24.33   0.00070371    1.784    0.439
        74  -7.9472    133.7807    145.4005   2.9121520979e+02   5.2917746184e+00   0.01220746  0.008110303 -76.45 0.0007892722    1.734    0.423
        75  -7.5730     38.6687    125.3258   2.9218014133e+02   6.0919765174e+00  0.006996667  0.004950797  63.27 0.0007050949    1.708    0.414
        76  -9.4156     84.4750    144.9460   2.9177657615e+02   5.5931806359e+00    0.0140871   0.01099988 -38.86  0.001395215    1.326    0.246
        77 -10.3954    244.4671    117.1891   2.8977581362e+02   4.9467600772e+00   0.01396302   0.01197524  35.48 0.0002730248    1.169    0.145
        78  -7.8222    196.3952    107.5643   2.9026534007e+02   5.3466768078e+00   0.01192254  0.006064326  33.40  0.001087431    1.913    0.477
        79  -7.3398    134.4911    106.4941   2.9096671521e+02   5.7318217345e+00  0.006579327  0.006342089 -29.80 -8.001014e-05    1.039    0.038
        80  -8.0487    114.0604    142.4103   2.9142235581e+02   5.4444807330e+00     0.016597  0.008205215 -44.55  0.001464532    2.133    0.531
        81  -8.6848    247.3650     98.1842   2.8962500814e+02   5.1460299167e+00   0.01218876   0.01047969 -87.07 0.0007591114    1.264    0.209
        82  -7.5682    214.3899     76.8623   2.8986952950e+02   5.5883622734e+00  0.009030418   0.00569509 -47.39 7.973186e-05    1.584    0.369
        83  -8.7253    196.7937     55.8105   2.8994019259e+02   5.9346780291e+00   0.01023163  0.009733943 -16.43 0.0003526763    1.071    0.066
        84 -10.3574    161.8047     51.2022   2.9031189456e+02   6.1983143846e+00    0.0213275   0.01658035  14.33  0.002398002    1.376    0.273
        85 -10.4946    160.0677     45.9754   2.9029938365e+02   6.2683992905e+00   0.02437744   0.01728895  43.92  0.001526401    1.450    0.310
        86  -7.1840    136.5445     46.5211   2.9057206741e+02   6.4039187015e+00  0.006591435  0.006293829 -30.69 0.0001400615    1.052    0.049
        87  -9.0339    250.6263     41.1979   2.8923438600e+02   5.7759361857e+00   0.01099555  0.006232176 -61.48  0.000246169    1.754    0.430
        88 -13.1415     29.2445    224.4122   2.9289732119e+02   5.0158143696e+00     0.106244   0.06907761  11.65  0.005928846    1.806    0.446
        89  -7.5689    150.3442    238.3378   2.9159886788e+02   4.1305046668e+00   0.00717057  0.004878147 -26.66 0.0007049034    1.773    0.436
        90  -7.8639    245.3951     31.1688   2.8923187957e+02   5.9218436952e+00  0.008871607  0.006360498 -77.09 0.0004081118    1.568    0.362
        91  -7.2309    192.0472     29.4570   2.8983104308e+02   6.2637837906e+00  0.009183867  0.006509536  24.00 0.0003345021    1.447    0.309
        92  -7.7003    163.9422     22.8778   2.9011183273e+02   6.5083954076e+00   0.01598981  0.007136904 -38.17  0.001230071    2.939    0.660
        93 -10.3454    145.5166     22.4255   2.9031998937e+02   6.6246469506e+00   0.01211763   0.01115605 -44.74 0.0006479397    1.079    0.073
