#   1 NUMBER                 Running object number                                     
#   2 MAG_AUTO               Kron-like elliptical aperture magnitude                    [mag]
#   3 X_IMAGE                Object position along x                                    [pixel]
#   4 Y_IMAGE                Object position along y                                    [pixel]
#   5 X_WORLD                Barycenter position along world x axis                     [deg]
#   6 Y_WORLD                Barycenter position along world y axis                     [deg]
#   7 A_WORLD                Profile RMS along major axis (world units)                 [deg]
#   8 B_WORLD                Profile RMS along minor axis (world units)                 [deg]
#   9 THETA_WORLD            Position angle (CCW/world-x)                               [deg]
#  10 FWHM_WORLD             FWHM assuming a gaussian core                              [deg]
#  11 ELONGATION             A_IMAGE/B_IMAGE                                           
#  12 ELLIPTICITY            1 - B_IMAGE/A_IMAGE                                       
         1 -16.3080      7.6181     27.7578   6.7900298513e+01   7.3962164980e+01     9.069481     1.518035 -63.75   0.02651291    4.963    0.799
         2 -14.4834    113.9682    175.5974   5.8527373528e+01   2.3043537683e+01     3.054661     1.372739 -66.83   0.01070031    3.903    0.744
         3 -15.3341    190.9960     64.4641   1.6194128376e+01   2.8865831667e+01     2.722194     1.726504 -54.48   0.01057098    1.605    0.377
         4 -15.1229    220.5439     53.2096   9.9614210814e+00   2.4225237026e+01      2.67002     1.489738 -24.92   0.01381725    1.738    0.425
         5 -15.0485    203.6650     23.0785   3.8661290345e+00   3.1306241922e+01     3.541589      1.20884 -50.68   0.01455111    2.654    0.623
         6 -13.6471    105.5147     31.0805   2.0310511953e+01   5.4750179346e+01     1.460007    0.7867776 -55.73  0.005266196    2.381    0.580
         7 -13.3082     98.9786     10.2180   1.2413830092e+01   5.8910062770e+01     1.117182    0.7579975  -9.19  0.005531918    1.720    0.419
         8 -12.5625     91.8247      3.0034   1.0366377851e+01   6.1436680325e+01    0.6825303    0.4182009  71.07  0.003331315    1.511    0.338
         9 -13.5507    130.6759      4.4332   4.9558477060e+00   5.1041257390e+01     1.720622    0.5618671  84.80  0.005482225    3.786    0.736
        10 -12.0266    144.1688    220.3477   5.8199785551e+01   1.0610271915e+01    0.3819419    0.3101869  30.77  0.002032352    1.189    0.159
        11 -14.2036     30.7772    233.9954   8.4392906790e+01   2.1611456402e+01     2.967191     1.560526 -42.45   0.01547571    3.194    0.687
        12 -15.1309     13.0755    242.0829   8.8429960063e+01   2.1753245420e+01      1.37782    0.6652236  42.71  0.008639771    1.447    0.309
        13 -13.8979      8.3797    229.8628   8.9069791263e+01   2.4386605527e+01    0.8489972    0.4122317  14.80   0.00456896    2.455    0.593
        14 -15.3647      6.7940    220.2637   8.9146456075e+01   2.6360116810e+01     1.650197     1.114656  27.40  0.008758935    1.395    0.283
        15 -14.5528      9.6360    206.6128   8.8071227060e+01   2.8882001053e+01     1.096939    0.6474837  44.18  0.003616841    1.318    0.242
        16 -11.5278     93.5970    219.6247   6.9191849729e+01   1.7286999317e+01    0.3274163    0.1860138  30.89  0.001456879    1.441    0.306
        17 -12.0964    126.5322    213.7927   6.1102562597e+01   1.4019833119e+01    0.3571792    0.2316657 -57.63  0.001753231    1.970    0.492
        18 -13.3570    121.9088    206.1449   6.1121118804e+01   1.5985818159e+01    0.7763676    0.5795644  11.01  0.003813766    1.334    0.250
        19 -13.8241    138.0360    192.9155   5.5560010492e+01   1.6060209808e+01    0.8556432    0.6634504 -26.78  0.003124496    1.367    0.268
        20 -14.6302    131.7628    179.4606   5.4834695456e+01   1.9508575555e+01     4.495599     1.045583  32.33   0.01301126    4.582    0.782
        21 -14.8177    149.1348    163.9939   4.8058668494e+01   1.9662564406e+01     2.861153     1.553652  40.99   0.01326117    1.822    0.451
        22 -13.2262     80.1141    160.7354   6.5305922560e+01   3.1461589608e+01     1.056736     0.618567  68.41  0.003966817    2.410    0.585
        23 -12.1017     72.6257    151.5331   6.6115956120e+01   3.4754620909e+01    0.4769765    0.3710666  64.91 0.0005550169    1.346    0.257
        24 -13.3026     60.0723    146.4087   6.9229648298e+01   3.7753438062e+01     0.685038    0.5957993 -59.63  0.001278492    1.195    0.163
        25 -14.0703     68.9544    144.4915   6.6146265550e+01   3.7024434000e+01     2.177575     1.007293  63.99  0.006742188    4.018    0.751
        26 -13.4305    237.7021    205.7380   3.8987627162e+01   1.0758791365e+00     1.057297    0.5540352  32.42  0.006748796    1.970    0.492
        27 -11.1156     23.4968    202.2854   8.4563903826e+01   2.8583423922e+01    0.3510846    0.2142967  30.04  0.001204657    1.458    0.314
        28  -9.7774     34.7291    201.9545   8.1783776591e+01   2.7577341853e+01    0.1664056    0.1395095  67.61 0.0002991143    1.121    0.108
        29 -13.4961    152.0511    193.3092   5.2551591594e+01   1.3939242492e+01     0.918039    0.5738537 -10.11  0.004597831    2.062    0.515
        30  -9.9505     20.8994    195.1912   8.4851774549e+01   3.0349197152e+01    0.2024809    0.1344322  54.21  0.001208537    1.250    0.200
        31 -12.8173    247.7724    189.3442   3.4783468339e+01   1.8780840823e+00    0.6603228    0.3314965 -34.01   0.00407284    1.806    0.446
        32 -14.2189     40.0559    175.6598   7.8474962743e+01   3.2927318120e+01      1.33181     1.011106   9.70  0.007521961    1.545    0.353
        33 -13.0189     27.8325    184.3551   8.2445574161e+01   3.2132906604e+01    0.6038896    0.4796418  37.28  0.001357263    1.164    0.141
        34 -12.9921     28.7286    177.4863   8.1748653711e+01   3.3637109892e+01    0.7268746     0.329427  57.78  0.002755121    2.119    0.528
        35 -12.7691     72.8464    179.7324   6.9877938314e+01   2.8078803461e+01    0.4167683    0.3883534 -70.60  0.002579616    1.174    0.148
        36 -13.1755      3.3046    111.0333   8.5149016522e+01   5.2561057303e+01    0.9821703    0.6198235 -80.06  0.003305597    1.399    0.285
        37 -10.3618    109.7601    246.5684   6.8392114031e+01   1.0825128574e+01    0.2294052   0.09252625  26.35  0.001134782    2.065    0.516
        38 -12.3987     37.7520    164.1025   7.8117819744e+01   3.5947476122e+01    0.5435675    0.3592999   7.47  0.002725201    1.886    0.470
        39 -11.1741    248.1503    147.2564   2.7145670577e+01   7.0518324157e+00    0.2161125     0.128704 -46.04  0.001245979    2.085    0.520
        40 -10.3720     47.4901    239.0109   8.1034961958e+01   1.9049175075e+01     0.234547    0.1657681 -31.13  0.001481349    2.122    0.529
        41 -11.6972     81.2831    146.1700   6.2629826465e+01   3.4790416554e+01    0.6170737    0.4319098 -16.59  0.002763902    2.034    0.508
        42 -14.8123     93.6702    200.9430   6.7092987120e+01   2.0820544767e+01     2.376486      1.18348  38.64  0.009294492    1.703    0.413
        43 -11.5254     83.8040    132.9200   5.9422773670e+01   3.7657471597e+01    0.2811187    0.2642441 -50.47 0.0003993548    1.098    0.089
        44 -12.9481    222.7050    124.4911   2.6087195354e+01   1.3904719913e+01     1.024071    0.4127519 -30.39  0.004559637    2.217    0.549
        45 -12.1783    108.4845    127.5706   5.0840850845e+01   3.4616816898e+01    0.7500615    0.4431468  23.17  0.002484035    2.164    0.538
        46 -14.9362      5.9680    167.2165   8.7487858946e+01   3.7999278829e+01     3.480775     1.071296 -78.07   0.01394063    2.988    0.665
        47 -12.8326    244.7818    117.1906   2.1611536029e+01   1.1484750769e+01    0.8388056    0.5125791 -28.38  0.004204086    1.299    0.230
        48 -11.6282    115.0478    121.4862   4.7559642536e+01   3.4760535853e+01    0.4155261    0.3416861 -10.47  0.001484391    1.443    0.307
        49 -10.3643     94.6012    122.2742   5.3792904632e+01   3.8420585381e+01    0.2908068    0.2219689  -3.08  0.001316968    1.743    0.426
        50 -15.1598     94.0988    173.4347   6.3331999597e+01   2.6514501677e+01     2.691802     1.210099  51.94   0.01018757    2.787    0.641
        51 -11.3653    205.6255    110.0985   2.5441824264e+01   1.9000017276e+01    0.2422397    0.1970366  30.82 0.0009538772    1.370    0.270
        52 -13.7670    179.8887     87.6397   2.4052440624e+01   2.7696218892e+01     2.098759     1.188649 -20.25  0.008839987    2.221    0.550
        53 -12.2594    126.2246    233.6739   6.3605411140e+01   1.0820455249e+01     0.394303    0.2912145 -22.06   0.00258935    1.567    0.362
        54 -12.0550    248.7709    230.7287   4.1175453260e+01  -2.7771769558e+00    0.3356304    0.2230109 -11.83  0.002640237    1.154    0.133
        55 -11.4014     66.9365    177.3081   7.1197681423e+01   2.9394872598e+01    0.1990568    0.1698143  36.18  0.001091184    1.087    0.080
        56 -12.1275     88.8418     70.8055   4.1133798216e+01   5.1638839941e+01      1.06257    0.4147156  44.92  0.003617618    2.572    0.611
        57 -12.1872     65.6844     66.8877   4.8710023848e+01   5.7155909091e+01    0.8498144    0.5466028  18.83  0.003546407    2.061    0.515
        58 -13.5511     60.7416    159.9830   7.0860365433e+01   3.4288547614e+01     1.454523    0.7239549 -36.64  0.005478532    3.139    0.681
        59 -12.5687    120.0655     57.2816   2.6951479411e+01   4.6961833558e+01    0.5938373    0.5177096 -18.34  0.003056879    1.257    0.205
        60 -10.0057     57.6367    231.4496   7.8342807281e+01   1.9340857436e+01    0.2393171     0.100695 -64.28  0.001225932    2.761    0.638
        61 -11.3106     22.1855    154.9485   8.2018879765e+01   3.9717516131e+01    0.3569856    0.1640444  68.07  0.001506958    2.311    0.567
        62 -12.7075    197.9280     95.3876   2.3125289512e+01   2.2750430443e+01    0.4627565    0.3651664 -64.33  0.002591411    1.501    0.334
        63 -11.6830     84.7768    224.1070   7.1642153503e+01   1.7561384815e+01    0.7134967    0.2094819  37.10   0.00302129    2.502    0.600
        64  -9.4651     62.6790    225.7213   7.6798787016e+01   1.9841715520e+01    0.1425664    0.1060884  83.61 0.0005656691    1.539    0.350
        65 -12.8584      1.9384    247.7069   9.0814029897e+01   2.1698054177e+01    0.2974494    0.1819254  86.33 0.0004324118    1.714    0.417
        66 -13.7680     94.2788    190.8865   6.5695088363e+01   2.2768428319e+01     1.425713    0.4064864  45.25  0.004647504    3.825    0.739
