#   1 NUMBER                 Running object number                                     
#   2 MAG_AUTO               Kron-like elliptical aperture magnitude                    [mag]
#   3 X_IMAGE                Object position along x                                    [pixel]
#   4 Y_IMAGE                Object position along y                                    [pixel]
#   5 X_WORLD                Barycenter position along world x axis                     [deg]
#   6 Y_WORLD                Barycenter position along world y axis                     [deg]
#   7 A_WORLD                Profile RMS along major axis (world units)                 [deg]
#   8 B_WORLD                Profile RMS along minor axis (world units)                 [deg]
#   9 THETA_WORLD            Position angle (CCW/world-x)                               [deg]
#  10 FWHM_WORLD             FWHM assuming a gaussian core                              [deg]
#  11 ELONGATION             A_IMAGE/B_IMAGE                                           
#  12 ELLIPTICITY            1 - B_IMAGE/A_IMAGE                                       
         1 -10.1080    172.8534      3.2446   3.3941594634e+01   4.0920371522e+01    0.2292213      0.15261  28.69  0.001242528    2.128    0.530
         2  -9.7086    181.9227    248.9386   8.9409711023e+01  -3.3656999683e+00    0.1261366    0.1060131   2.11 0.0008210208    1.113    0.102
         3 -14.7060    243.3595    233.0551   7.5058885397e+01  -9.4615248723e+00     2.725252     1.103507 -33.33   0.01364558    2.271    0.560
         4 -12.1245    166.0503    248.2752   9.2539431062e+01  -9.2370310252e-01    0.3130758    0.1725839  44.83  0.001337177    1.867    0.464
         5 -21.1020    101.1781    194.1503   9.9056949774e+01   2.0103012382e+01     10.01061     8.290981  41.43   0.05067578    1.151    0.131
         6  -9.8587    208.6152    221.1516   7.9477854045e+01  -2.9683566382e+00    0.3717521    0.1517659  37.47  0.001637157    2.367    0.577
         7 -10.4325      4.0964    220.2425   1.2363598019e+02   2.6248343761e+01    0.1207334   0.08981603  84.64 0.0002112525    1.101    0.092
         8 -10.3978      5.9277    217.2038   1.2311532235e+02   2.6728608043e+01    0.1588499    0.1114903 -76.82 0.0003630492    1.344    0.256
         9  -9.7597     39.8160    240.0991   1.1785787936e+02   1.8452849124e+01    0.1473318    0.1156958  63.50 0.0002611123    1.016    0.016
        10 -11.0291     41.3821    250.7743   1.1828475666e+02   1.6174341779e+01    0.1574919   0.08195801  35.66 0.0008892427    1.785    0.440
        11 -11.4713      9.6928    213.2513   1.2213710099e+02   2.7236823401e+01    0.1658909    0.1295412  77.43 0.0004785013    1.017    0.017
        12 -11.2705    216.1868    205.4930   7.5130205776e+01  -1.5706211995e+00    0.4190489    0.2725217 -37.31  0.002275253    1.518    0.341
        13 -13.9158     37.0310    246.9139   1.1885870477e+02   1.7423225220e+01    0.4164073    0.2802578 -66.06  0.002724701    1.663    0.399
        14 -10.1941      6.3008    194.7448   1.2170428126e+02   3.1660441624e+01    0.2368791    0.1141175 -61.54   0.00124656    2.015    0.504
        15 -11.7503     24.4506    246.1156   1.2118036155e+02   1.8968144004e+01    0.2475781    0.1374882  81.48  0.001505113    1.640    0.390
        16 -10.0049     10.6230    191.1336   1.2051057112e+02   3.2120653407e+01     0.121507   0.09741016 -79.09 0.0001343225    1.163    0.140
        17  -9.8948     12.1165    245.0738   1.2338839469e+02   2.0443517320e+01    0.2309462    0.1031768 -51.56  0.001119621    3.692    0.729
        18 -10.3152      9.0348    187.3926   1.2060152983e+02   3.3125316694e+01    0.2417408    0.1147486  33.18  0.001264639    2.169    0.539
        19  -9.3267     12.5044    174.8499   1.1883340731e+02   3.5805838019e+01    0.1644933    0.1043976 -77.85 0.0006090538    1.316    0.240
        20 -11.0688      6.1914    172.1765   1.2013512999e+02   3.6951681926e+01    0.4039853    0.2425041 -15.02   0.00129471    2.864    0.651
        21  -8.9543    177.2222    245.1946   8.9792637256e+01  -2.0992974329e+00    0.1110275   0.08005074  10.76 0.0002179583    1.315    0.239
        22 -10.7063    170.8028    244.9764   9.1074356871e+01  -1.1079853744e+00    0.2174961    0.1502585   8.46  0.001225289    1.513    0.339
        23  -9.7908      6.9730    151.5872   1.1819302099e+02   4.1902628220e+01    0.1498537    0.1363132  56.78 0.0004938691    1.239    0.193
        24 -10.7506     13.9014    149.0687   1.1608168112e+02   4.2022413050e+01    0.2911184    0.1835011 -67.26  0.001617582    1.321    0.243
        25 -10.5184     18.5297    146.8720   1.1456465969e+02   4.2211531165e+01    0.2928098    0.1714529  84.62  0.001463154    1.764    0.433
        26  -9.4147    218.7185    146.0539   6.2435042916e+01   8.5601520747e+00    0.2005785    0.1651961 -30.93 0.0003180642    1.079    0.073
        27 -10.7938    210.0682    143.9272   6.3563727493e+01   1.0588379695e+01    0.2232963    0.1997939 -25.19 0.0004112106    1.009    0.009
        28 -10.4267     13.6167    140.5682   1.1523886733e+02   4.4167725638e+01    0.3165571     0.189281  87.83  0.001157144    1.650    0.394
        29 -11.8116      6.4923    140.3059   1.1722216765e+02   4.4724643958e+01    0.2170456    0.1798834  75.02 0.0002197465    1.204    0.169
        30 -11.5972     30.3598    130.1080   1.0887405750e+02   4.5457462149e+01    0.3254127    0.2228457  11.23  0.001724628    1.809    0.447
        31 -10.0183     34.1064    127.3615   1.0726972674e+02   4.5812115235e+01    0.1703751    0.1455644  77.15 0.0003925245    1.249    0.199
        32 -10.7905     15.2035    127.9671   1.1324918850e+02   4.7213706850e+01    0.2052354      0.15917 -68.86 0.0004911417    1.063    0.059
        33 -11.9778     24.2950    124.1165   1.0987926532e+02   4.7493917834e+01    0.2790284    0.2178398  89.81 0.0002501037    1.293    0.226
        34 -10.3020     47.9426    120.9404   1.0165320806e+02   4.6017536087e+01    0.2140887    0.1731887 -39.78 0.0004846228    1.214    0.176
        35 -10.7982     33.2381    117.1896   1.0584202296e+02   4.8470490213e+01    0.3141934    0.2482213 -43.42 0.0006820839    1.205    0.170
        36 -11.8033     45.9582    110.5370   1.0023554632e+02   4.8856846302e+01    0.3887831    0.2565901  39.67 0.0004396633    1.709    0.415
        37  -9.5711     41.5346    107.5612   1.0115814658e+02   5.0069660345e+01    0.1397201    0.1237082 -53.29 3.464786e-05    1.022    0.022
        38 -10.0964     42.8615    115.2944   1.0225647928e+02   4.7998991241e+01    0.3015269    0.2191399  -1.95  0.001508221    1.681    0.405
        39 -10.9641     36.7269    112.3148   1.0377143432e+02   4.9366397700e+01    0.2374514    0.2059182 -61.14 0.0001891794    1.041    0.040
        40 -11.3319     40.2252    111.2126   1.0235471634e+02   4.9295397521e+01    0.2437015    0.2391496 -40.82 0.0003560334    1.122    0.109
        41  -9.7729     15.9197    116.5880   1.1145768023e+02   5.0009761361e+01     0.165856    0.1477818 -27.35 0.0007061862    1.253    0.202
        42 -10.0987     28.5348    110.0961   1.0617389939e+02   5.0662343358e+01    0.2328779    0.1879735   5.16 0.0003045832    1.442    0.307
        43 -10.9883     30.9370    243.3941   1.1979638795e+02   1.8798657677e+01    0.1133998    0.1006155  46.78 0.0002183444    1.318    0.241
        44  -9.2367    219.4349    242.2460   8.1006901754e+01  -7.6369270521e+00    0.1469658    0.1112547 -38.01 0.0009317719    1.630    0.386
        45 -10.1061    164.4483    242.3281   9.1993494691e+01   2.8225773906e-01    0.2432789    0.1555372  43.11   0.00132468    1.540    0.351
        46  -9.3771     44.1076    101.8763   9.9017081578e+01   5.1196278913e+01    0.1864823    0.1702107 -35.58  0.001102468    1.065    0.061
        47 -11.2817     41.2177     98.7311   9.9361119760e+01   5.2267651475e+01    0.4263955    0.2276061 -34.54 0.0002129564    2.012    0.503
        48 -10.2018     36.8653     98.7280   1.0095587002e+02   5.2705637831e+01    0.2658586    0.1972108  79.59  0.001377001    1.798    0.444
        49  -9.6572    187.5167    240.6120   8.6987329754e+01  -2.9061202910e+00    0.2057959    0.1261987  33.83 0.0006021726    1.446    0.308
        50 -10.0595     31.0986     99.7753   1.0328478309e+02   5.2984608905e+01    0.2238788     0.169743 -60.38 0.0003496418    1.160    0.138
        51 -11.4515     67.4428     94.7432   8.8815988496e+01   4.9928533618e+01    0.3587884    0.2217853 -41.99  0.001546631    1.510    0.338
        52 -11.6774     28.9475    239.2543   1.1991848888e+02   1.9842093308e+01    0.2292255     0.148419 -60.96  0.001440382    1.805    0.446
        53 -11.0447    142.0027     95.7860   6.6183449596e+01   3.5082798876e+01    0.2795101    0.2287501 -29.29 0.0003165994    1.266    0.210
        54  -9.8774    174.3249    238.5354   8.9360472852e+01  -5.9912604818e-01    0.1774967    0.1422205 -46.39 0.0001823361    1.529    0.346
        55 -12.0584    138.0832     91.1441   6.5837499913e+01   3.6917588276e+01    0.4927873    0.3389078  -6.70  0.001526349    2.191    0.544
        56 -12.6147     18.8528     90.2151   1.0590514377e+02   5.6252049997e+01     0.401385    0.3511791 -46.25 0.0009868863    1.069    0.065
        57  -9.5584     35.6791    238.8190   1.1858186014e+02   1.9183103441e+01    0.2086063    0.1207084  78.06  0.000721966    1.626    0.385
        58 -11.1727     34.4539    233.8931   1.1848658775e+02   2.0324354763e+01    0.2769951    0.1569154 -63.45  0.001070136    1.891    0.471
        59 -11.6160     72.0507     87.7072   8.5174984484e+01   5.0835144428e+01    0.2975571    0.2019912 -39.05 0.0006104482    1.388    0.279
        60 -11.7632    123.3290     81.9600   6.6995187395e+01   4.2082610884e+01    0.3024525    0.2250517  36.84  0.000580584    1.359    0.264
        61 -10.0719    216.4376    237.2616   8.0744182161e+01  -6.5247970608e+00    0.1944694    0.1511746  16.68 0.0002614354    1.133    0.117
        62 -13.1611     18.5618     73.4808   1.0234469565e+02   6.0147291789e+01    0.4746323    0.2786033 -51.60  0.002588617    1.365    0.267
        63 -10.7949     23.2855    237.2737   1.2088515582e+02   2.0847345789e+01    0.1364965    0.1218098  61.76 0.0008680981    1.253    0.202
        64 -12.0899     40.3108    233.4849   1.1728340000e+02   1.9742289034e+01    0.3420789    0.1661785 -85.55  0.001760443    2.140    0.533
        65 -11.4355     18.3871    231.4362   1.2148373046e+02   2.2544004639e+01    0.1465837    0.1340806 -25.81  0.001014634    1.668    0.400
        66  -9.6256    141.8115    250.8214   9.7909655621e+01   2.2988166245e+00     0.101729   0.08021948  15.91 0.0002518734    1.258    0.205
        67 -11.1160     23.4805    223.8712   1.2001040369e+02   2.3603750817e+01    0.2097855    0.1469153  33.70  0.001339708    1.553    0.356
