#   1 NUMBER                 Running object number                                     
#   2 MAG_AUTO               Kron-like elliptical aperture magnitude                    [mag]
#   3 X_IMAGE                Object position along x                                    [pixel]
#   4 Y_IMAGE                Object position along y                                    [pixel]
#   5 X_WORLD                Barycenter position along world x axis                     [deg]
#   6 Y_WORLD                Barycenter position along world y axis                     [deg]
#   7 A_WORLD                Profile RMS along major axis (world units)                 [deg]
#   8 B_WORLD                Profile RMS along minor axis (world units)                 [deg]
#   9 THETA_WORLD            Position angle (CCW/world-x)                               [deg]
#  10 FWHM_WORLD             FWHM assuming a gaussian core                              [deg]
#  11 ELONGATION             A_IMAGE/B_IMAGE                                           
#  12 ELLIPTICITY            1 - B_IMAGE/A_IMAGE                                       
         1 -11.4412    204.6137     29.6991   5.1345131390e+01   2.9642483027e+01    0.8462211    0.7532576  49.24  0.004908164    1.205    0.170
         2 -11.7467      9.4941     21.6943   1.0861321640e+02   7.2463993278e+01    0.6312092    0.2558351 -41.61  0.002973866    2.253    0.556
         3 -11.5361    220.6015     11.1597   4.4568930654e+01   2.7673564048e+01    0.7279257    0.6131875 -49.65  0.002863553    1.080    0.074
         4 -10.0145     32.7855      4.7223   8.5004034860e+01   7.3360156436e+01    0.8286057    0.1073746 -42.72  0.002093042    7.007    0.857
         5 -11.2300    141.4574    239.0089   1.0692185771e+02   1.1274320405e+01    0.2611232    0.1838841  35.06  0.001952494    1.069    0.064
         6 -11.5576    134.8356    239.3354   1.0810937495e+02   1.2120110448e+01    0.4962819    0.1688233 -49.59  0.002613044    3.915    0.745
         7 -12.6041    133.8043    248.9669   1.0921994179e+02   1.1068900595e+01     1.290925    0.2292672  36.92  0.004897679    4.344    0.770
         8 -13.9783     48.1388    202.1228   1.2133676353e+02   2.8789646401e+01     2.302518    0.9623982  56.30   0.01269605    2.053    0.513
         9 -15.4708      8.3684    240.8064   1.3029859071e+02   2.6344475038e+01     11.02027     2.502792 -83.98   0.05544931    4.640    0.784
        10 -12.1010     98.5600    227.7247   1.1354949179e+02   1.8495196105e+01    0.8120584     0.198557  42.85  0.003655642    2.853    0.650
        11 -11.5259     70.1314    217.2356   1.1806410865e+02   2.3676791416e+01    0.6443644    0.2182063  53.37  0.003123064    2.722    0.633
        12 -10.2158    141.6368    229.1763   1.0584113733e+02   1.2493698200e+01    0.2547656    0.1051725 -48.28  0.001245636    3.173    0.685
        13  -9.8603    163.8383    225.7831   1.0151710497e+02   9.8099661080e+00    0.2217815   0.08267303 -47.56  0.001118503    3.697    0.730
        14  -9.3720    196.3551    196.9301   9.1799391647e+01   8.5289128572e+00    0.2398153    0.1843609  12.86  0.001653815    1.150    0.130
        15 -10.6107     97.4217    239.5574   1.1473870482e+02   1.6945502097e+01    0.2682894    0.1447985  70.21  0.001592724    2.594    0.614
        16  -9.8793     65.1191    183.6188   1.1633341310e+02   3.0199122873e+01    0.3318719     0.231969 -34.25   0.00172556    2.346    0.574
        17  -9.9819     70.0232    177.7792   1.1468922248e+02   3.0696390689e+01    0.2678506    0.2286553   5.72 0.0006150149    1.630    0.387
        18 -12.9841     10.5461    206.6823   1.2892696360e+02   3.1703502605e+01     1.036278    0.6728993  30.38  0.004489992    1.649    0.394
        19  -9.4004     79.3361    167.5519   1.1144540633e+02   3.1458628264e+01    0.2083607    0.1942033  53.33 0.0005919469    1.154    0.134
        20 -11.2769     66.6352    164.0360   1.1403134448e+02   3.3855277295e+01    0.3924235    0.2603693 -44.43  0.001119882    2.025    0.506
        21  -9.7107     32.7246    155.7990   1.2144685162e+02   3.9457070411e+01    0.5514079    0.0820739 -72.92  0.001738463    5.722    0.825
        22 -10.5963     85.1455    160.9034   1.0924954532e+02   3.1968846259e+01    0.4729155     0.371292 -24.89   0.00182297    1.862    0.463
        23 -10.2216     72.8136    154.2233   1.1138072569e+02   3.5065205794e+01    0.4289842    0.2187586  85.17   0.00179436    3.064    0.674
        24 -11.7500     82.4954    246.7962   1.1789200855e+02   1.7755365453e+01    0.4595758    0.4170022 -81.27  0.004152588    1.457    0.314
        25 -10.4239     70.5123    145.4678   1.1082320450e+02   3.7236428907e+01    0.4448934    0.3194232  29.72  0.001533126    1.531    0.347
        26 -10.9510     67.1168    142.4291   1.1129684314e+02   3.8351452087e+01    0.5330183    0.2903412  42.54  0.002223557    1.688    0.407
        27  -8.7490     33.0000    144.9760   1.2048042506e+02   4.1759109459e+01    0.2765352    0.1098275 -79.43  0.001276341    2.439    0.590
        28  -9.5226     33.0000    140.0023   1.2003378505e+02   4.2854703492e+01    0.2886489    0.1031581 -70.87  0.001300109    2.503    0.600
        29  -8.8898     99.7995    145.4050   1.0340839614e+02   3.2892100784e+01    0.1917625    0.1237114  30.20 0.0009616051    1.692    0.409
        30 -10.0434     87.9134    144.0789   1.0617397361e+02   3.5028942315e+01    0.2524235    0.2262019 -26.12 0.0004705101    1.407    0.289
        31  -8.1850    102.2886    141.3536   1.0210984930e+02   3.3320664673e+01    0.1308986    0.1064312 -17.25 0.0007025286    1.673    0.402
        32  -8.3555    110.1491    132.8613   9.8596259895e+01   3.3738420690e+01    0.1845476    0.1666754  -6.07 0.0006627686    1.328    0.247
        33  -9.4877     32.7578    119.6276   1.1801216969e+02   4.7512307777e+01    0.5445439   0.09360307 -71.33  0.001647049    5.001    0.800
        34  -9.7759     58.5280    130.8892   1.1204123227e+02   4.2030412950e+01    0.2870637    0.1760912  71.82  0.001455953    1.797    0.443
        35  -9.7963     33.0000    128.9827   1.1895862969e+02   4.5333759549e+01    0.6826596   0.06299834 -72.47  0.001501701    9.896    0.899
        36  -9.3126     97.5001    129.4414   1.0120678691e+02   3.6621367566e+01    0.2661412    0.2317256 -10.39  0.001265432    1.469    0.319
        37 -11.6658     84.1252    223.2543   1.1586855189e+02   2.1005584578e+01    0.4882649    0.3126487  65.01  0.003355521    1.538    0.350
        38 -10.4014     84.7059    236.1743   1.1675386642e+02   1.8996828567e+01    0.2407684    0.1735616  85.86  0.001442826    1.611    0.379
        39  -8.0504    167.6629    112.3322   8.0678810786e+01   2.6307553427e+01    0.1444344    0.1160613 -80.61  0.000705205    1.739    0.425
        40  -9.6573     33.0000    106.8920   1.1636888862e+02   5.0483179426e+01    0.4519433   0.06465169 -70.63  0.001184486    6.219    0.839
        41 -10.4301     83.7255    230.1702   1.1648273510e+02   2.0002398172e+01    0.2381713    0.1810712 -71.55   0.00185243    1.628    0.386
        42 -12.2898     28.0505    236.4350   1.2682102019e+02   2.5189671746e+01    0.5678994    0.4691918 -85.42 0.0009843858    1.483    0.326
        43 -12.1168    126.8302    230.0213   1.0859235832e+02   1.4414589944e+01    0.4181134    0.3674285  69.63   0.00338023    1.349    0.259
        44  -8.0860     52.3552     89.3030   1.0692920578e+02   5.2542536644e+01    0.1370328    0.1001747 -31.52 0.0007039406    1.711    0.416
        45 -11.2091    109.2311    228.6838   1.1166944720e+02   1.6961626955e+01    0.2952071    0.2583533  12.09  0.002338854    1.435    0.303
        46 -10.6786     13.3698     60.4932   1.1650359565e+02   6.3244171888e+01    0.3822611    0.1262385 -63.42  0.001653876    2.268    0.559
        47 -11.7360    114.5891    229.8238   1.1079606843e+02   1.6089424458e+01    0.3660963    0.3244703 -73.78  0.002996826    1.452    0.311
        48 -10.3555    119.3724    229.7349   1.0991618847e+02   1.5461785950e+01     0.227969    0.1800181  47.31  0.001749987    1.100    0.091
        49  -9.5924     53.5541    230.8221   1.2203582988e+02   2.3419618333e+01    0.1647571    0.0919484 -70.98  0.001144096    2.105    0.525
        50  -9.0760     33.0000     47.4622   1.0427642343e+02   6.4642454272e+01    0.2977526   0.06616192 -60.24  0.000932048    3.913    0.744
        51 -10.2027      8.6196     42.8772   1.1518911386e+02   6.7708824605e+01    0.2416706      0.13876 -32.39  0.001307119    1.928    0.481
        52 -10.6744    195.7682     35.3547   5.4066363881e+01   3.1189070169e+01    0.4115058    0.2777312 -10.39  0.001671253    1.626    0.385
        53 -12.4289     98.5766    249.7044   1.1532033081e+02   1.5426116378e+01    0.9735951    0.3348542  32.24  0.004925897    2.759    0.638
        54 -10.5997    211.5411     21.2389   4.8181282559e+01   2.8853625944e+01    0.3991991    0.2811214  27.76  0.001112903    1.734    0.423
        55  -9.6226     33.0000     25.3587   9.6049084327e+01   6.9464046395e+01    0.4495942   0.06549009 -52.75   0.00116619    6.033    0.834
        56 -12.0751    115.4776    246.2618   1.1212416371e+02   1.3763715361e+01    0.4934172    0.3808761  -6.20  0.003712932    1.997    0.499
        57 -12.4137     38.8842    213.1208   1.2380066583e+02   2.7872174079e+01    0.8227015    0.5977867 -32.13  0.004083856    2.581    0.613
