#   1 NUMBER                 Running object number                                     
#   2 MAG_AUTO               Kron-like elliptical aperture magnitude                    [mag]
#   3 X_IMAGE                Object position along x                                    [pixel]
#   4 Y_IMAGE                Object position along y                                    [pixel]
#   5 X_WORLD                Barycenter position along world x axis                     [deg]
#   6 Y_WORLD                Barycenter position along world y axis                     [deg]
#   7 A_WORLD                Profile RMS along major axis (world units)                 [deg]
#   8 B_WORLD                Profile RMS along minor axis (world units)                 [deg]
#   9 THETA_WORLD            Position angle (CCW/world-x)                               [deg]
#  10 FWHM_WORLD             FWHM assuming a gaussian core                              [deg]
#  11 ELONGATION             A_IMAGE/B_IMAGE                                           
#  12 ELLIPTICITY            1 - B_IMAGE/A_IMAGE                                       
         1 -14.7850    195.7729     36.3301   3.6873722568e+01   3.2196058208e+01     6.656866     2.660379  56.02   0.01421255    2.531    0.605
         2 -15.3199    220.7474     25.8270   3.2023654611e+01   2.8117627251e+01     7.554183     3.324041 -18.15   0.02076709    9.713    0.897
         3 -15.0642    228.7740     91.9643   4.5234901303e+01   1.6887591659e+01     3.397316     1.016032 -54.19  0.008590347    6.736    0.852
         4 -16.0176    242.6674     32.5642   3.1535092926e+01   2.2920251317e+01     1.965705     1.633529   3.83   0.01292297    2.145    0.534
         5 -14.2917    171.4180     87.9775   5.3606253558e+01   2.9788217629e+01     2.560446     1.994474  17.62   0.01244125    1.753    0.430
         6 -14.9794    200.1976     54.7601   4.0652879511e+01   2.8705155178e+01     5.860147     2.187648 -27.18   0.01937848    4.473    0.776
         7 -16.9840    246.3607     69.4510   3.8450501805e+01   1.7126427031e+01     7.798538     2.959665 -33.61   0.01835792    2.942    0.660
         8 -10.8963    179.5062     24.0524   3.5839346758e+01   3.7358800225e+01    0.5653975    0.3548587  70.00  0.002829204    1.428    0.300
         9 -11.6531    134.8950     14.8549   3.9546801164e+01   4.8764342095e+01    0.5268474    0.2898516 -19.39  0.002653864    2.286    0.563
        10  -9.0465    155.2095     13.7912   3.6237432282e+01   4.4088098065e+01    0.2786362    0.1509411  15.63  0.001088476    4.243    0.764
        11  -9.9104    118.5256      3.5012   3.8716597372e+01   5.3554376868e+01    0.2588319    0.1696655  54.40  0.001022448    1.278    0.218
        12  -9.7984    115.9763     12.5108   4.2170162171e+01   5.3389552077e+01    0.2936467    0.1969425  60.22  0.001073598    1.258    0.205
        13 -11.4218    120.3205      8.9481   4.0181020613e+01   5.2697330038e+01    0.4350617    0.3395665  66.50   0.00143092    1.108    0.097
        14  -9.1350    194.0522      6.0003   3.0102247013e+01   3.5994576724e+01    0.2281975    0.1667928   4.42  0.001146241    2.331    0.571
        15  -9.9962    182.1064      3.8847   3.0702547810e+01   3.8846582180e+01    0.3174349    0.1697731  87.64  0.001011198    1.731    0.422
        16  -9.8038     93.2747      6.1340   4.4733211023e+01   5.9033997128e+01    0.2566801     0.196696  16.72 0.0007378636    1.392    0.282
        17  -9.8029    138.5268      5.4548   3.6182835899e+01   4.8750738817e+01     0.189213    0.1226769   1.23 0.0009701368    2.219    0.549
        18 -10.4317    248.9363      1.3977   2.5370341754e+01   2.5333836906e+01    0.2561297    0.1274661  84.62 0.0007395421    1.814    0.449
        19  -8.8409    159.1299      2.2982   3.2682962506e+01   4.4224204966e+01    0.1760565     0.163709  28.87 0.0006583962    1.356    0.262
        20 -10.5714    111.8942      2.6878   3.9623628571e+01   5.5135977121e+01    0.4650415     0.183007  65.10  0.002115279    2.121    0.528
        21  -8.5146    171.5350      2.0711   3.1298499726e+01   4.1399724019e+01    0.1694499   0.07529932 -54.47 0.0008061567    2.386    0.581
        22  -9.8945    243.5150      3.1108   2.5982991303e+01   2.6166596957e+01    0.2115802     0.150023  71.13 0.0008394769    1.544    0.352
        23  -8.3978     28.8878    183.4933   1.1264202456e+02   3.1769766058e+01    0.1677048    0.1311141  33.39 0.0002924835    1.399    0.285
        24 -11.1582    200.2927    174.7813   6.8081413119e+01   6.6347521068e+00    0.6162812     0.402041 -14.24  0.002847086    1.867    0.464
        25 -10.5687    215.1166    169.3677   6.4081653968e+01   5.1949213004e+00     0.433254    0.3129503  51.40  0.001219293    1.791    0.442
        26 -10.4159    193.6964    170.2608   6.8487499590e+01   8.6732296855e+00     0.285362    0.2232685 -60.32  0.001447657    1.578    0.366
        27 -10.4789    185.4648    167.8324   6.9704852155e+01   1.0639521704e+01    0.3392484    0.2340278 -28.22  0.001612983    1.460    0.315
        28 -10.4508    202.3203    166.0640   6.5859736560e+01   7.9985989951e+00    0.3858034    0.2789841 -81.93  0.001672392    2.675    0.626
        29 -10.2792    182.9311    160.8555   6.8748346716e+01   1.2559267208e+01    0.4461517    0.3044019  89.57  0.001643019    3.340    0.701
        30 -12.1760    191.7853    154.2233   6.5436128931e+01   1.2280116743e+01    0.8376798    0.5696356 -61.60  0.002158477    1.901    0.474
        31 -14.1078    234.5461     63.6109   3.8519059768e+01   2.0243112500e+01    0.8919483    0.6176105 -55.18   0.00321927    1.211    0.174
        32 -13.3911     10.7990    150.4057   1.1409525645e+02   4.1781776640e+01     1.047475    0.8018184 -64.99  0.003797516    1.139    0.122
        33 -11.2392    204.9980    152.8634   6.2518009418e+01   1.0125212453e+01    0.4881384    0.4378079 -72.44  0.001841123    1.368    0.269
        34 -10.7027    173.4624    152.0233   6.8869020282e+01   1.6249552383e+01    0.4913357    0.2897704 -42.51 0.0005349203    1.602    0.376
        35  -9.7721    134.0000    147.9694   7.7549654578e+01   2.4991946788e+01    0.5105501    0.1961384 -54.47  0.001291288    2.962    0.662
        36 -10.4619    133.4294    142.0072   7.6318294001e+01   2.6528383305e+01     1.392018    0.3985224 -56.61  0.002740247    7.596    0.868
        37 -13.8540    250.0669     42.6221   3.2857674470e+01   2.0224996045e+01    0.4312104    0.2401867 -37.34  0.001476388    1.740    0.425
        38  -8.2756    116.5955    149.1625   8.2543041166e+01   2.8047832742e+01    0.2038878    0.1458568 -39.93 0.0002145513    1.418    0.295
        39 -10.4248    145.3554    147.6042   7.4537602897e+01   2.2824672728e+01    0.4300974    0.2954317  89.78  0.001601981    2.666    0.625
        40 -12.9146     67.1595    137.0302   9.4785252733e+01   3.9398593675e+01     2.167745     1.526364 -70.61   0.01016109    1.475    0.322
        41 -11.8595     40.8356    141.2329   1.0388189763e+02   4.1525470615e+01    0.4452377    0.3939636  -4.32 0.0009197402    1.302    0.232
        42 -13.2081     49.1001    138.1749   1.0075935309e+02   4.1414516643e+01     1.077235     1.041822  67.68  0.003358263    1.114    0.102
        43 -12.0104     56.5629    137.0163   9.8165543786e+01   4.0814480360e+01    0.7085957    0.3899285 -63.91  0.001704685    1.710    0.415
        44 -11.0753    159.3956    143.2451   7.0088954805e+01   2.0986710680e+01    0.6089224    0.4014688  76.31  0.002230539    2.855    0.650
        45 -10.3742    158.3185    139.6682   6.9502184464e+01   2.2006264895e+01     0.398501    0.2240384 -61.99    0.0014307    2.534    0.605
        46 -10.6123    199.3890    144.2917   6.1720052366e+01   1.2862385766e+01    0.3642886    0.2141979 -44.52  0.001646827    1.560    0.359
        47 -10.7581    201.5766    140.6646   6.0491206238e+01   1.3170760591e+01    0.4928111    0.2178135 -40.10  0.001941205    2.058    0.514
        48 -10.5547    192.3933    144.0367   6.3046475319e+01   1.4248267190e+01     0.373731    0.2735021  20.67 0.0003726278    1.666    0.400
        49 -11.1561    191.3692    137.5392   6.1777564232e+01   1.5772404161e+01    0.5518683    0.4416227  87.89 0.0008050662    1.722    0.419
        50  -9.4971    191.6268    132.7886   6.0634504789e+01   1.6685525128e+01    0.3642517    0.2395979 -52.67  0.001580914    1.556    0.357
        51 -11.3855    209.9375    136.7558   5.8073104970e+01   1.2362304737e+01    0.6118254    0.5021019  14.79    0.0025343    1.446    0.309
        52  -9.8637    205.4087    136.2644   5.8790318201e+01   1.3310053607e+01    0.3814144    0.1934039 -35.51   0.00146217    1.904    0.475
        53  -8.7717    218.3509    154.8553   6.0463218809e+01   7.3945160518e+00      0.21806    0.1918252  51.06 0.0007401473    1.385    0.278
        54 -10.3907    144.7035    139.3476   7.2766009664e+01   2.4872292080e+01    0.2851965    0.2218341 -57.16 0.0009445259    1.355    0.262
        55 -11.2458    135.9304    128.3745   7.2351081971e+01   2.9223549019e+01     1.501641    0.2927722 -50.65   0.00301683    6.938    0.856
        56 -10.2644    135.2324    120.1160   7.0436307933e+01   3.1261858190e+01    0.3397005    0.2481466 -49.68 0.0007920258    1.362    0.266
        57 -11.1869    147.4349    106.2461   6.3696436487e+01   3.1634324779e+01    0.7742006    0.5526235  54.78   0.00206775    1.488    0.328
        58 -11.7185    142.0119     97.6896   6.2693424834e+01   3.4613249889e+01    0.7500437     0.577942  55.73   0.00121867    1.353    0.261
        59 -13.1141    124.2333    103.9839   6.9082483190e+01   3.7198428430e+01     2.111814      1.66404  54.33   0.01006231    1.359    0.264
        60 -12.3307    116.6673    103.9257   7.1200877955e+01   3.8809879217e+01     1.749285    0.8311883 -49.73  0.005901278    2.186    0.542
        61 -10.4417    142.1278    136.0611   7.2632134290e+01   2.6161091884e+01    0.3471292    0.3303843 -88.85 0.0009462413    1.148    0.129
        62  -9.8146    166.7600    134.0754   6.6208963072e+01   2.1494100530e+01    0.2612975    0.2309353  42.16 0.0006433793    1.190    0.160
        63 -11.1625    160.8181    128.4585   6.6210420563e+01   2.3960644078e+01    0.5495272    0.3958552 -38.25  0.002345249    1.353    0.261
        64 -10.6872    153.6882    128.5523   6.7919883564e+01   2.5448944686e+01    0.6663373    0.1842217 -49.30  0.001773196    4.004    0.750
        65  -8.6542    149.3616    131.3109   6.9654945507e+01   2.5743436523e+01    0.1652943    0.1254701  -1.79 0.0007040999    1.748    0.428
        66  -8.9197     94.1441    123.8967   8.3282919406e+01   3.8468123595e+01    0.2346564    0.2142275 -88.88 0.0004359694    1.235    0.190
        67  -9.5468    143.7826    122.3093   6.8795538702e+01   2.8947705328e+01    0.3292783    0.1408474  50.99  0.001089719    2.698    0.629
        68  -9.6424    216.9993    110.7453   5.1086679999e+01   1.5896690756e+01    0.8939241    0.3401951 -51.95  0.003154029    3.041    0.671
        69  -9.3596    217.4127    117.9850   5.2630253950e+01   1.4493698972e+01    0.2691842    0.2363241 -46.91  0.001215547    1.022    0.021
        70  -8.9975    221.2228    116.2447   5.1635738170e+01   1.4087663227e+01    0.1879656    0.1482698 -63.41 0.0007082589    1.338    0.253
        71 -10.8863    166.7072    116.5872   6.1930278983e+01   2.5228535389e+01    0.4916858    0.3564107  39.15  0.002298736    1.488    0.328
        72 -10.0109    175.0111    115.3496   5.9842237216e+01   2.3686215347e+01    0.4379803    0.2900191 -61.88  0.001389399    1.819    0.450
        73 -13.0421    134.5970    104.1103   6.6338176723e+01   3.4923869870e+01     1.833971    0.9337354 -43.38  0.006906493    1.937    0.484
        74 -10.1962    205.6873    235.6710   7.8415317312e+01  -5.1021287911e+00    0.2267518    0.1800809  -4.14 0.0003768338    1.032    0.031
        75  -8.3818     66.1380    116.1050   9.0590482666e+01   4.4929362863e+01    0.1903953    0.1736026  83.51  0.001012434    1.258    0.205
        76  -9.2072    172.8128    235.2104   8.5101711669e+01  -3.9913435375e-01    0.1838177    0.1642139  16.07 0.0003570749    1.129    0.114
        77 -10.1207     84.7897     98.3869   7.9611030050e+01   4.6230448120e+01    0.2569992    0.2339718 -28.70 0.0002678839    1.041    0.040
        78 -11.2722    157.3591     86.5028   5.6086917965e+01   3.3285596081e+01    0.8960618    0.3826468 -35.85  0.003149104    2.494    0.599
        79  -9.8990    153.6103     82.7903   5.5874626076e+01   3.4835582023e+01    0.3617777    0.2677982  61.60   0.00078137    1.397    0.284
        80  -9.4514    156.2489     78.0074   5.3988679415e+01   3.5080013918e+01    0.2615944    0.1725864 -49.60 0.0009084894    1.553    0.356
        81  -9.6951    153.3300     76.5071   5.4184861205e+01   3.6024692730e+01    0.2762902    0.2664593  17.36  0.000686946    1.127    0.113
        82 -11.4308    133.5105     80.4601   5.9879319881e+01   3.9901580560e+01    0.4804285    0.4356685  22.46  0.002568689    1.166    0.142
        83 -10.3148    141.0021     77.9519   5.7339970224e+01   3.8637753175e+01    0.3599835    0.3111003 -38.11  0.001232331    1.180    0.152
        84 -11.4569    136.2040     75.8462   5.7859754846e+01   4.0125365639e+01    0.6372025    0.3236825 -42.40  0.001866401    2.001    0.500
        85  -9.9708    164.9300     76.9433   5.1948423660e+01   3.3244179716e+01    0.3062975    0.2095019 -36.06 0.0004515672    1.499    0.333
        86  -9.1062    126.7831     76.4214   6.0377172875e+01   4.2176109972e+01    0.2143257    0.1369398  39.58 0.0006613699    1.611    0.379
        87  -9.8575    151.1394     71.3550   5.3196001393e+01   3.7425283118e+01    0.2647647    0.2173167 -56.12  0.000225825    1.259    0.206
        88 -10.4879    158.1005     68.7443   5.1045764877e+01   3.6225505051e+01    0.3817852    0.2911612  23.06  0.001551022    1.733    0.423
        89  -9.8778    126.2886     70.7169   5.8763704665e+01   4.3308609941e+01    0.3037313    0.2053308 -30.29  0.001413694    1.604    0.377
        90 -10.6146    140.2885     64.3043   5.3493870121e+01   4.1144546133e+01    0.5104631    0.2194183 -38.92  0.001599483    2.368    0.578
        91 -11.8982    135.1494     63.0945   5.4291116919e+01   4.2544392807e+01    0.6126772    0.4823491 -20.87  0.002607761    1.448    0.309
        92 -10.7009    144.2361     59.1782   5.1127373152e+01   4.1027060426e+01    0.4195497    0.2909563 -46.58  0.001178058    1.507    0.337
        93  -8.2418     87.3225     65.6818   6.8550178818e+01   5.2515366565e+01     0.138301    0.1181743  88.28 0.0007043729    1.668    0.401
        94  -8.3575     72.5751     58.4852   7.1229764641e+01   5.6539607864e+01    0.1390223    0.1260305   1.20 8.527804e-05    1.042    0.040
        95  -8.8488    220.1272    231.2808   7.4865220278e+01  -6.3061523266e+00    0.2204978    0.1138542  -5.77 0.0009503266    2.808    0.644
        96  -9.2057    174.4393    230.9820   8.4062960274e+01   1.0790150196e-01    0.1968189    0.1616439  16.15  0.000324921    1.070    0.066
        97  -9.2864    175.3911    226.1614   8.3052959267e+01   8.3114463781e-01    0.1688266    0.1289187 -52.99 0.0003555118    1.629    0.386
        98 -10.5617    118.4342     42.5884   5.1711079477e+01   4.9467427070e+01    0.2728967    0.2363272   7.66 0.0005346857    1.275    0.216
        99  -9.8923    109.5223     39.5053   5.2863676270e+01   5.1904586720e+01    0.2744945    0.1374722 -29.97  0.001218595    2.199    0.545
       100  -9.4019     91.9423     39.1336   5.7590152733e+01   5.5787339536e+01    0.2141226    0.1879685 -10.70 0.0003649111    1.180    0.153
       101  -9.6774    238.9354    223.3159   7.0004553282e+01  -7.4386868946e+00    0.1761309    0.1347906  -0.31  0.001156417    1.111    0.100
       102 -11.5191    123.6926     37.6577   4.8887492861e+01   4.8891194931e+01    0.4617658    0.2948097 -65.04  0.002135233    2.258    0.557
       103 -10.2318    171.8623     34.8261   3.9560421252e+01   3.7856606684e+01    0.3364108    0.2227103 -89.78  0.001773247    1.578    0.366
       104 -10.5317    166.8236     33.6122   3.9958856892e+01   3.9186649270e+01    0.3392557    0.1961601 -27.41  0.001242219    2.031    0.508
       105  -9.0802    172.2042    187.3109   7.6628782653e+01   8.9435924364e+00    0.4143151    0.2743757  75.03  0.001486767    3.687    0.729
       106  -9.3148    233.7443    186.7638   6.4163181865e+01  -8.0892424928e-01    0.2287432    0.1864297  30.00 0.0007566261    1.410    0.291
       107 -11.3776    125.2339     32.5496   4.6902012468e+01   4.9155879706e+01    0.4472553    0.2961788 -87.98  0.002148375    2.075    0.518
       108  -9.8386    139.9860     26.7354   4.2273182645e+01   4.6341989480e+01    0.2624305    0.1616827  15.65  0.001186688    2.675    0.626
       109 -10.1119    142.2077    219.5345   8.9357643904e+01   7.2798877691e+00    0.2402617    0.2240454 -14.24 0.0002907928    1.093    0.085
       110  -9.0340    163.4365     23.4862   3.7741938769e+01   4.1154790236e+01    0.1843799    0.1298336 -10.80 0.0006416984    1.978    0.495
       111 -10.2001    130.6936     18.6720   4.1437115028e+01   4.9382061874e+01    0.2071313    0.1688891  53.96 0.0008617953    1.114    0.102
       112  -8.0043     94.2008    214.0035   9.9950391283e+01   1.5990814323e+01    0.1680011    0.1106478 -62.21 0.0008220071    1.599    0.375
       113 -10.1121    151.6966     22.1085   3.9039868889e+01   4.4069849203e+01    0.3053014     0.143093  51.62  0.001412994    2.031    0.508
       114  -9.3748    235.7905    183.6043   6.3191855709e+01  -5.5656167164e-01     0.199591    0.1601776 -58.01 0.0006559188    1.714    0.417
       115 -10.6086    180.5046    182.2955   7.3782050200e+01   8.5366275009e+00    0.4366792    0.2960175 -76.84  0.001707414    3.074    0.675
       116  -8.5494    190.1481     15.1811   3.2553660631e+01   3.5919584506e+01    0.1731892     0.119897 -72.13 0.0005711793    1.316    0.240
       117  -9.8493    233.3221    211.6772   6.8925079870e+01  -4.9116332942e+00    0.2296552    0.1649076 -11.65 0.0006374922    1.202    0.168
       118  -9.0349    247.0009    211.5051   6.6480111849e+01  -6.6138655716e+00    0.1687101     0.111662  23.06 0.0005373649    1.564    0.361
       119  -8.8383    172.9768    211.4969   8.1022604606e+01   3.9509938028e+00    0.2194843      0.12995  32.73  0.001041612    1.616    0.381
       120  -9.1496    227.5575    206.8730   6.9095219800e+01  -3.3572207617e+00     0.227796    0.1773897  32.03  0.001378417    1.479    0.324
       121  -8.7841    165.1774    205.6364   8.1700801650e+01   6.3711115123e+00    0.2166931    0.1873563 -46.36 0.0002539862    1.268    0.211
       122 -10.6221    124.0055    206.0017   9.1472791994e+01   1.3117851774e+01    0.2028061    0.1922517  27.56            0    1.005    0.005
       123 -11.1472    194.4065    197.6134   7.3841600227e+01   3.1929098325e+00    0.5220062    0.3688698 -61.01   0.00198842    2.060    0.515
       124 -11.4616    191.5100    192.0013   7.3357381120e+01   4.7372809440e+00    0.7266856    0.4591821 -68.03  0.002833564    3.316    0.698
       125 -10.9881    241.0000    198.5114   6.5127519158e+01  -3.7818191241e+00    0.4273539    0.1826409 -43.59  0.001961953    2.246    0.555
       126 -11.1051    244.8398    193.8261   6.3588747707e+01  -3.5218615468e+00    0.4798367    0.2762959  23.62  0.002560446    1.960    0.490
       127  -9.4011     26.2655    199.2012   1.1474418959e+02   2.8159844307e+01    0.2015291     0.173561 -66.84 0.0003688723    1.227    0.185
       128 -10.0291    185.4193    241.4527   8.3466416546e+01  -3.2649481554e+00    0.2674731    0.2346639  56.16  0.001415571    1.680    0.405
