#   1 NUMBER                 Running object number                                     
#   2 MAG_AUTO               Kron-like elliptical aperture magnitude                    [mag]
#   3 X_IMAGE                Object position along x                                    [pixel]
#   4 Y_IMAGE                Object position along y                                    [pixel]
#   5 X_WORLD                Barycenter position along world x axis                     [deg]
#   6 Y_WORLD                Barycenter position along world y axis                     [deg]
#   7 A_WORLD                Profile RMS along major axis (world units)                 [deg]
#   8 B_WORLD                Profile RMS along minor axis (world units)                 [deg]
#   9 THETA_WORLD            Position angle (CCW/world-x)                               [deg]
#  10 FWHM_WORLD             FWHM assuming a gaussian core                              [deg]
#  11 ELONGATION             A_IMAGE/B_IMAGE                                           
#  12 ELLIPTICITY            1 - B_IMAGE/A_IMAGE                                       
         1 -10.8036    198.8302     38.2829   7.0745194488e+01   3.0798356707e+01    0.8676402    0.5095944 -45.02  0.003237363    1.662    0.398
         2 -11.6998    199.8865      6.5641   6.1828702510e+01   3.4215216766e+01     1.051802    0.7440512 -76.98  0.005715101    1.354    0.261
         3 -13.3677    169.1157     10.4734   6.6567536603e+01   4.1783449367e+01     1.755718     1.382094 -79.84  0.009325122    1.286    0.222
         4 -11.1044    185.7280      2.3670   6.2133598813e+01   3.8245072917e+01    0.9367939    0.1896018  66.34   0.00301575    3.620    0.724
         5  -8.3592    188.0850     16.3010   6.5871425214e+01   3.6237232430e+01    0.2772473    0.1983852   3.17 0.0009957929    1.897    0.473
         6  -8.3308    111.9860     10.5466   7.6743967187e+01   5.6112649673e+01    0.2086739    0.1685296  21.82 0.0004776764    1.217    0.178
         7 -10.5251    124.1501      4.6264   7.1818099135e+01   5.3757982233e+01    0.8176125    0.6112797  69.34  0.004564486    1.303    0.233
         8  -7.9994     67.5025      6.0998   8.7489575511e+01   6.5835988547e+01    0.1722643    0.1123109 -21.39 0.0004533786    1.478    0.323
         9  -8.2711     71.8931      5.4967   8.5674318033e+01   6.5091400883e+01     0.268943    0.1004892  46.07 0.0005621481    2.380    0.580
        10 -10.2744    124.0003    206.0023   1.2581767304e+02   1.5860653094e+01    0.1877932    0.1587059  57.20  0.001162148    1.006    0.006
        11 -11.2977     13.8212    244.9181   1.4955909163e+02   2.3669693221e+01    0.5402223    0.2504586  78.61  0.002972776    1.749    0.428
        12  -8.1274    138.9364    199.0531   1.2171085382e+02   1.4549185878e+01    0.1873854    0.1555475  64.46            0    1.173    0.148
        13  -8.4094    132.9734    199.0160   1.2295228218e+02   1.5620253756e+01    0.1856784    0.1628893  57.95            0    1.023    0.022
        14  -8.3969    222.9615    187.9848   1.0312735559e+02   9.0511806103e-01    0.1872783    0.1577422  14.44  0.001147724    1.045    0.043
        15  -8.8033    101.0051    175.9923   1.2650365635e+02   2.5855600762e+01    0.1883177    0.1676158  70.90  0.001127812    1.028    0.027
        16  -9.5792    195.0219    136.0553   9.7454008324e+01   1.5220764235e+01    0.4371968    0.3780306 -80.72  0.001720081    1.416    0.294
        17  -9.2202    185.2565    132.7657   9.8667319388e+01   1.8015679280e+01    0.3495349    0.2683363  35.46 0.0008956026    1.347    0.258
        18  -8.8700    139.8045    127.4796   1.0771014454e+02   2.9219093724e+01    0.4458283    0.2889163  39.28  0.001952922    1.608    0.378
        19  -8.0317     13.4171    127.2008   1.4172129074e+02   4.7930307886e+01     0.181509   0.09328103 -86.47 0.0009613901    1.735    0.423
        20 -10.0167     40.4508    110.6441   1.3183409111e+02   4.9427331718e+01     0.440407    0.4056537 -60.76  0.001884577    1.141    0.124
        21  -7.2492    129.7307    107.2383   1.0516954289e+02   3.5808794288e+01    0.1444365    0.1191344  85.72 0.0006756596    1.427    0.299
        22 -12.2186    226.2628     95.1871   8.1803147624e+01   1.5362695369e+01     1.443072     1.154607  63.79  0.007609403    1.355    0.262
        23  -8.1409    177.4927     94.9774   9.0578944749e+01   2.7091905260e+01     0.225724    0.1535705 -37.51 0.0003251478    1.465    0.318
        24  -8.7296    245.4593     92.4737   7.8295733861e+01   1.1547975321e+01     0.140173     0.126332 -38.48 3.683993e-05    1.004    0.004
        25  -8.3469    180.9910     91.2212   8.8828064118e+01   2.6925203914e+01    0.1998243    0.1276793  54.99            0    1.577    0.366
        26  -8.7689    127.9819     90.9899   1.0110936730e+02   3.9648154792e+01    0.2230868    0.2176708 -51.26            0    1.012    0.012
        27  -8.6143    148.7980     89.8844   9.5527583630e+01   3.5065256371e+01    0.2244506    0.2109182   3.81 0.0003067905    1.149    0.130
        28  -8.9212    192.5345     88.2437   8.5772317677e+01   2.4602608589e+01    0.2683606    0.2561473  12.94 0.0002791141    1.126    0.112
        29  -8.6280     83.8541     89.1223   1.1344832752e+02   4.8673345101e+01     0.202652    0.1619034 -29.86 0.0006098063    1.338    0.253
        30  -9.4373    176.5233     87.6207   8.8727785254e+01   2.8694558608e+01    0.3136047    0.1993832  58.27  0.001227094    1.612    0.380
        31 -10.3751    212.2672     92.3352   8.3358600082e+01   1.9099732110e+01    0.7852987    0.4884711 -64.73  0.002290952    2.206    0.547
        32  -8.6221     53.1485     84.8508   1.2243898397e+02   5.4016483917e+01    0.1817477    0.1437288 -34.20 0.0004423716    1.292    0.226
        33  -8.4913    105.3130     83.0092   1.0510199078e+02   4.6086849188e+01    0.2124608    0.1900125 -49.99   0.00072801    1.098    0.089
        34  -8.8136    209.6536     82.0989   8.1114897725e+01   2.1448018435e+01    0.3219005    0.1908823  50.14  0.001233244    1.754    0.430
        35  -8.2877    154.3287     82.2653   9.1985813575e+01   3.5194942613e+01    0.1566068    0.1219805  21.79 0.0002320061    1.573    0.364
        36  -8.6765      8.2228     81.5168   1.3722854859e+02   5.8695065552e+01    0.2976145    0.1605722  61.51  0.001553977    2.572    0.611
        37  -9.3351    126.1880     80.3459   9.8396521275e+01   4.2209256609e+01    0.2191099    0.1985944 -23.40 0.0005766806    1.138    0.121
        38 -10.1990     86.6577     78.0439   1.0936011079e+02   5.0604535057e+01    0.4689803    0.1619106 -45.93  0.001652588    2.702    0.630
        39  -9.9417    180.4837     78.8492   8.5444032573e+01   2.9270553404e+01    0.4528403    0.2079398  49.43  0.001671579    2.184    0.542
        40  -8.2865    170.2733     79.0319   8.7547533256e+01   3.1816752238e+01    0.2182961    0.1987577 -40.32 0.0004159376    1.101    0.091
        41 -12.3447     71.4389     73.1310   1.1293596261e+02   5.4116900015e+01    0.9831382    0.5359592 -53.42  0.004531302    1.768    0.434
        42 -12.6076     61.2332     67.3164   1.1476456180e+02   5.6810247896e+01    0.9121209    0.7156015   7.49  0.004832964    1.468    0.319
        43 -10.5401    232.1132     68.8474   7.4342518685e+01   1.8181533297e+01    0.4205052    0.2824449  66.57  0.000434537    1.587    0.370
        44 -11.4275    232.7024     64.9856   7.3295932301e+01   1.8623157039e+01    0.6473553    0.3649444  64.20  0.001927243    1.875    0.467
        45  -8.7627    216.2079     77.1841   7.8774790903e+01   2.0661701964e+01    0.2132727    0.1995578 -13.48 0.0007077884    1.158    0.136
        46  -9.8407    220.6331     75.8944   7.7766098521e+01   1.9804080255e+01     0.397226    0.1841717  48.33  0.001226638    2.364    0.577
        47 -11.7557     80.2813     68.7281   1.0855312179e+02   5.3625754210e+01    0.6209828    0.5454932 -88.78  0.003511456    1.433    0.302
        48  -7.7276     36.9544     77.5459   1.2633912817e+02   5.7402609564e+01    0.1646793    0.1275095  19.75 0.0008375521    1.533    0.348
        49  -9.0335    190.8222     76.5332   8.2847918361e+01   2.7056284166e+01     0.248048    0.2147494   0.96 0.0005365992    1.359    0.264
        50 -11.3706    134.7517     74.5424   9.4348141469e+01   4.1364613962e+01    0.5828682    0.4651285  61.45  0.002844421    1.324    0.245
        51 -10.2042    139.3263     72.7456   9.2635871026e+01   4.0614650402e+01    0.3241047    0.3063899 -26.09   0.00133061    1.074    0.069
        52 -12.1386    138.5414     65.3754   9.0465024009e+01   4.2133836012e+01    0.7733909    0.6675163 -23.24  0.003972977    1.211    0.174
        53  -8.5532    122.4229     74.7768   9.7669043177e+01   4.4142795000e+01    0.2397627     0.176789  41.12 0.0006720894    1.386    0.278
        54 -10.3613    113.9459     73.2306   9.9538527945e+01   4.6292148615e+01    0.3952152    0.3131044 -36.29  0.001707041    1.245    0.197
        55  -9.2196    246.8898     74.1546   7.3722852029e+01   1.4034459891e+01    0.2173343    0.1712036 -60.92 0.0004392006    1.266    0.210
        56 -10.3122    146.2266     72.0173   9.0742034916e+01   3.9076738543e+01    0.4849164    0.2846071 -60.15  0.001831269    2.380    0.580
        57 -11.5673    152.3937     68.5159   8.8223798804e+01   3.8175328773e+01    0.7580672    0.5726377 -43.80  0.003608363    1.340    0.254
        58 -11.6165    237.0182     75.3154   7.5292414184e+01   1.6067650926e+01    0.7578086    0.3693849 -51.28  0.003110965    2.192    0.544
        59  -9.9996    129.0482     72.5158   9.5175831504e+01   4.3073961954e+01    0.3240938     0.272167  39.29  0.001637292    1.209    0.173
        60 -10.2530     22.9331     71.0993   1.2997565371e+02   6.0033329799e+01    0.2846843     0.237709   5.21  0.001943068    1.436    0.303
        61  -8.6016     39.6375     70.9912   1.2374151252e+02   5.8583641541e+01    0.2092406    0.1763884  35.38 0.0006043272    1.398    0.285
        62 -10.5404     30.5650     66.0751   1.2589565543e+02   6.0503857311e+01     0.383485    0.2459375  28.87  0.002251109    1.832    0.454
        63  -9.8214     12.3344     70.0651   1.3369011433e+02   6.0985678927e+01    0.3448374    0.2593819 -16.68  0.002013864    1.558    0.358
        64  -9.6729      7.1918     67.0641   1.3501495118e+02   6.1936299545e+01    0.4795252    0.2804677 -53.04  0.002965682    1.328    0.247
        65 -10.8030     16.3303     66.1412   1.3136328984e+02   6.1584953163e+01    0.5814579    0.3309951 -82.71  0.002741161    2.166    0.538
        66  -9.2569    174.0123     69.7951   8.4070414459e+01   3.2474898745e+01    0.2444583    0.2029705 -72.23 0.0007788553    1.322    0.243
        67 -11.3156    122.3015     66.6861   9.5073619894e+01   4.5699443969e+01    0.7700027    0.2937443 -41.61  0.002687352    2.598    0.615
        68 -10.5319    100.6269     63.8307   1.0036517365e+02   5.0854179711e+01    0.8453411    0.3188437 -45.93  0.003004232    2.727    0.633
        69 -11.9868     76.1215     58.6293   1.0661095522e+02   5.6320125661e+01     0.620299    0.5603895  39.09  0.002736042    1.225    0.183
        70 -11.3884     84.2075     55.6585   1.0278703351e+02   5.5494156813e+01    0.5772892    0.4152803  42.67  0.002736031    1.472    0.321
        71 -10.7562     83.0314     50.5171   1.0131064932e+02   5.6639148239e+01    0.4931534    0.3069339  27.37  0.002049408    1.835    0.455
        72 -11.2422     96.8413     53.0833   9.7750383701e+01   5.3571102978e+01    0.7540221    0.5505669  64.92  0.003715789    1.800    0.445
        73  -8.8890     88.3746     57.2514   1.0196796601e+02   5.4441970033e+01    0.2483831    0.1970688   5.18 0.0006682999    1.415    0.293
        74  -8.7144     91.9763     56.7633   1.0062191085e+02   5.3857278110e+01    0.3016026    0.2093554  35.42  0.000830425    1.494    0.331
        75 -10.2489    182.3594     66.5676   8.1537855017e+01   3.0871091699e+01    0.4868601    0.3483242  46.28  0.001600894    1.454    0.312
        76  -9.1774    114.7337     66.5035   9.7108676623e+01   4.7409345748e+01    0.3276376    0.1713707 -50.82  0.001282223    2.208    0.547
        77 -11.1306    135.0822     60.5396   8.9719943236e+01   4.3807929511e+01    0.5277091    0.3578793 -12.79  0.001961367    1.919    0.479
        78 -10.4417    125.8393     63.0820   9.2926490056e+01   4.5544041670e+01    0.3985265    0.2588414 -66.18  0.001610179    2.331    0.571
        79  -8.0683    213.4801     62.9552   7.5426110393e+01   2.3558255023e+01    0.2181275     0.139171 -35.22 0.0006493269    1.511    0.338
        80  -8.9242    242.9114     68.8848   7.2951990684e+01   1.5702624524e+01    0.2334415    0.1968469 -75.74 0.0006301715    1.218    0.179
        81 -10.0944     45.7607     79.1775   1.2360183459e+02   5.6135440479e+01    0.2703693      0.23034   4.79  0.001694664    1.367    0.268
        82 -10.8125    220.0718     59.6048   7.3608530930e+01   2.2442560954e+01    0.4354592    0.3545399  -5.48  0.001776438    1.523    0.343
        83 -10.5667    222.8940     54.0612   7.1789882128e+01   2.2564765180e+01    0.3968713    0.2318155 -55.92  0.001785063    1.790    0.441
        84  -8.2068      1.6261     60.6570   1.3588959031e+02   6.3594798525e+01    0.1854931   0.09058306 -46.31 0.0007456825    1.671    0.401
        85  -8.7780    193.6105     64.4340   7.8949235829e+01   2.8330966904e+01    0.3584936    0.2236761  25.84  0.001400797    2.495    0.599
        86  -9.7587     20.6656     59.9531   1.2821720295e+02   6.2609148052e+01    0.2724867    0.1314645  35.70  0.001428715    2.530    0.605
        87 -10.6896    149.5427     58.0589   8.5523075851e+01   4.0660158398e+01    0.7404692    0.3183418  53.28  0.002726297    2.216    0.549
        88  -9.8560    238.7913     58.0175   7.0803114118e+01   1.8226546099e+01    0.3620806    0.1750248  86.70  0.001291672    3.486    0.713
        89  -9.6020    180.8198     58.0647   7.9313057494e+01   3.2624151671e+01    0.2425978    0.1988896 -69.26 0.0008356974    1.298    0.230
        90  -9.8998     37.7661     56.8648   1.2051674778e+02   6.1768539148e+01    0.3542036    0.2154748 -74.01  0.001737141    2.387    0.581
        91 -10.1070     32.9223     58.0098   1.2279219892e+02   6.2001009284e+01    0.3262666    0.1729918   3.31  0.001539423    2.865    0.651
        92  -9.2503    214.1701     55.9719   7.3465660401e+01   2.4431567867e+01    0.5623898     0.203934  62.63  0.001812048    2.754    0.637
        93  -9.3507    176.5543     55.7967   7.9399008424e+01   3.4081326689e+01    0.3786007    0.1577393 -26.01  0.001275643    2.913    0.657
        94 -10.1823    181.9176     52.5717   7.7489444990e+01   3.3175944278e+01     0.353958    0.3031018   4.76    0.0012444    1.398    0.285
        95 -10.3188    178.5175     49.1964   7.7060868160e+01   3.4560305000e+01    0.3879069    0.3349519   1.32  0.001188818    1.366    0.268
        96  -7.4934    170.3171     56.6743   8.0822069113e+01   3.5563270529e+01    0.1603583    0.1151721 -69.10 0.0007044827    1.673    0.402
        97  -9.2554     48.0196     55.7412   1.1609673494e+02   6.0871576819e+01    0.1747368    0.1561444 -22.41 0.0003474902    1.082    0.076
        98  -8.8781      6.4773     56.4813   1.3309502923e+02   6.4238732664e+01    0.1930864    0.1145193  11.87 0.0008760608    2.094    0.522
        99  -9.0263    249.0804     54.5981   6.8795525297e+01   1.6376057472e+01    0.2519806    0.1634942 -47.01  0.001116594    1.362    0.266
       100  -8.9253    186.2735     54.9658   7.7457354858e+01   3.1685451441e+01    0.2846724    0.2078743  55.87 0.0007843783    1.352    0.260
       101 -10.0837     21.9794     52.2384   1.2563767880e+02   6.4122502285e+01    0.3747772    0.1625502 -70.55   0.00155375    3.294    0.696
       102 -10.3452     26.2369     50.7074   1.2340824540e+02   6.4093470253e+01    0.4113899     0.193378  44.77  0.001728088    3.217    0.689
       103 -11.2486     62.8131     52.6332   1.0933856421e+02   5.9531723815e+01    0.4694522    0.3003903  19.94  0.002411721    1.848    0.459
       104 -10.5068    151.6796     50.7786   8.2681056987e+01   4.1271700706e+01    0.4062803    0.3719559 -52.86  0.002184771    1.131    0.116
       105 -11.4073    144.6634     49.1141   8.3642409517e+01   4.3300288457e+01    0.5418288    0.4594481 -75.45   0.00232146    1.346    0.257
       106 -11.1463    237.2248     49.1553   6.8806451782e+01   1.9838385644e+01    0.5276389     0.364844  -7.45  0.002560835    2.041    0.510
       107  -9.8572    207.4842     50.3367   7.2881962039e+01   2.6924383709e+01    0.5166843    0.3439066  60.83  0.002155203    1.493    0.330
       108  -9.1183    213.0003     49.2510   7.1830109477e+01   2.5692128301e+01    0.2463095    0.1934873 -44.96 0.0003517035    1.210    0.173
       109  -8.5101    110.6576     51.9210   9.3199627646e+01   5.0887369232e+01     0.298215     0.136075 -28.68  0.001108567    2.526    0.604
       110  -9.7938     50.0975     52.1687   1.1409128734e+02   6.1329633991e+01     0.207747    0.1569954 -23.07  0.001018757    1.287    0.223
       111  -7.8466    157.6433     51.7032   8.1746905270e+01   3.9604767344e+01    0.1599005    0.1132787  29.46 0.0006630863    1.699    0.411
       112  -9.0666    131.5762     50.8469   8.7281347183e+01   4.6251964235e+01    0.2795277     0.148376 -28.50  0.001129481    2.035    0.509
       113  -9.2146    172.4328     49.5690   7.8244656252e+01   3.6092631550e+01    0.3742476    0.2522582  26.96            0    1.973    0.493
       114  -8.8855    114.7139     50.1418   9.1418630637e+01   5.0286665862e+01    0.3704155   0.09187013  49.77 0.0009499379    3.817    0.738
       115 -10.9798     76.2363     46.1433   1.0202254830e+02   5.8600503818e+01    0.5799869    0.2595865 -36.88  0.001730681    2.142    0.533
       116 -11.4458     64.2867     44.4395   1.0576215662e+02   6.0828040040e+01    0.5588543    0.4097193  62.52  0.002944295    2.144    0.534
       117  -9.7023    129.9308     42.3424   8.4679741272e+01   4.7947654227e+01    0.3559106    0.2711015 -19.38  0.001021271    1.408    0.290
       118 -10.6176    133.6839     39.1432   8.2656697029e+01   4.7491989767e+01     1.023094     0.246318  55.71  0.003042677    3.672    0.728
       119 -10.3666     53.7260     46.2883   1.1057215512e+02   6.1991136646e+01    0.2777631    0.2030222 -60.30  0.001559132    1.690    0.408
       120 -10.3757     45.7873     47.1249   1.1408314927e+02   6.2828702477e+01    0.2697118     0.177845  20.14  0.001531085    1.701    0.412
       121  -8.9714    203.6281     45.3583   7.2054515389e+01   2.8606632555e+01    0.4240246    0.2576577  55.05   0.00155342    1.657    0.397
       122 -10.0708    206.6991     36.8552   6.9306249554e+01   2.8972154225e+01    0.5133177    0.3740469 -24.43  0.001990914    1.513    0.339
       123 -10.6768      4.8228    246.9025   1.5103495688e+02   2.4234513273e+01    0.4768947    0.2740978  84.75  0.003664225    1.363    0.266
       124 -10.0783    193.7661     30.1851   6.9135017249e+01   3.3147181909e+01    0.5353671    0.4472212 -35.00  0.002502537    1.247    0.198
       125  -9.4413    199.3934     28.1358   6.7827109702e+01   3.1945670203e+01    0.4154502     0.366275 -75.07  0.002371688    1.055    0.052
       126  -8.5955    116.5503     45.3098   8.9156361501e+01   5.0643332340e+01    0.2862024     0.133257 -38.70  0.001141835    2.170    0.539
       127  -9.6532    104.0697     46.2399   9.3018208928e+01   5.3240371293e+01    0.4547157    0.1274068  54.17  0.001304182    4.494    0.777
       128 -10.0449    220.4052     43.9591   6.9480689521e+01   2.4589723478e+01    0.5254425    0.2067577  53.44   0.00201482    2.650    0.623
       129 -10.5837     96.4050     42.8503   9.4044058007e+01   5.5375438680e+01    0.4250998    0.2893318 -33.35  0.002160748    1.443    0.307
       130 -10.6015     71.5576     45.4200   1.0342883476e+02   5.9508821100e+01    0.4578947     0.274792 -56.22  0.002120377    2.270    0.559
       131  -8.4524    155.7936     42.2681   7.9043929713e+01   4.1468433132e+01    0.2162278    0.1962121 -87.09 0.0006168528    1.142    0.124
       132  -9.8644    151.8861     39.1123   7.8765799385e+01   4.2913136309e+01    0.4219336    0.2647187  52.52  0.001932515    1.503    0.335
       133  -8.5904    183.7643     40.4064   7.3565095855e+01   3.4427545304e+01    0.2229616    0.1254599  54.07 0.0009600092    1.725    0.420
       134  -8.4831    190.9066     42.8192   7.3179468718e+01   3.2236100219e+01    0.2888791    0.2734297  78.21  0.001633052    1.048    0.046
       135  -9.5160     28.2236     38.3959   1.1855075507e+02   6.6335195671e+01    0.2261343    0.1797938 -52.85  0.001511464    1.281    0.219
       136  -9.0786    112.9243     44.2401   8.9746374516e+01   5.1627442606e+01    0.3504916    0.2022257 -29.69  0.001565522    1.782    0.439
       137  -9.9754    125.8638     45.3760   8.6764119677e+01   4.8468358580e+01    0.4308818    0.2986096 -47.29  0.001294684    1.591    0.372
       138  -8.3019     19.2981     37.4121   1.2228320747e+02   6.7275604480e+01    0.2112841   0.08803388 -54.68  0.001060519    2.000    0.500
       139  -7.6998     45.3103     37.3049   1.1063947622e+02   6.4704349231e+01    0.1286547   0.08459071 -17.13 0.0007019775    1.612    0.380
       140  -8.9151    101.1988     35.6729   8.9786078149e+01   5.5473795555e+01    0.2040112    0.1780839  74.21 0.0005952779    1.414    0.293
       141  -7.4510      7.6669     45.6446   1.2997708500e+02   6.6416812383e+01    0.1282687   0.06191336 -38.91  0.000704402    1.792    0.442
       142  -8.4815    107.1949     35.0417   8.7822864739e+01   5.4266071790e+01    0.2144305    0.1442759  30.18 0.0007362617    1.575    0.365
       143 -10.3098    153.0286     31.5785   7.6017669750e+01   4.3611186522e+01    0.6254409    0.2368232 -45.83  0.002138693    3.151    0.683
       144 -10.0302     32.6096     42.9075   1.1818131527e+02   6.5060211086e+01    0.2923933     0.223715 -75.82  0.001633016    1.851    0.460
       145  -8.0764      7.2028     30.0143   1.2559084804e+02   6.9506575749e+01    0.1597628    0.1151119 -46.68 0.0003701898    1.092    0.084
       146  -9.4640     72.2931     29.3764   9.6618850307e+01   6.1998142523e+01    0.1876159    0.1511713 -12.18 0.0006813264    1.138    0.121
       147  -9.2261     69.8793     26.6400   9.6307420546e+01   6.2817103831e+01    0.2454944    0.1897527  23.64 0.0004103581    1.241    0.194
       148  -8.5012     62.5534     29.5177   1.0034624711e+02   6.3589499620e+01    0.1279264    0.1113343 -11.18 -6.684244e-05    1.046    0.044
       149  -8.1201     92.3033     28.3072   8.9457928812e+01   5.8364442325e+01    0.1403902   0.09738533  15.79 0.0007013761    1.602    0.376
       150  -7.7173    138.6813     26.3221   7.6990233728e+01   4.7917809233e+01    0.1464775     0.108513 -67.63 0.0005566236    1.669    0.401
       151  -7.7478    113.3701     26.1398   8.2675292479e+01   5.4059183382e+01    0.1873019    0.1238573 -38.50  0.000457148    1.628    0.386
       152  -9.3238    118.5042    246.4985   1.3171579892e+02   9.7386184577e+00    0.1194279   0.09171657  52.39 0.0008106521    1.012    0.012
       153  -9.3630    250.0482    241.2157   1.0772843046e+02  -1.0036890279e+01    0.3327835    0.1766203 -21.77  0.002033612    1.981    0.495
       154  -8.6916    151.7032     20.6757   7.2572978571e+01   4.5246071078e+01    0.4437573    0.1981566  65.88   0.00178093    2.106    0.525
       155  -8.6877    219.2998    235.6629   1.1203991698e+02  -4.8931375163e+00    0.1040649   0.09068774  58.58 0.0006343059    1.660    0.398
       156  -7.5221     18.0129     20.9449   1.1676512923e+02   7.0375876257e+01    0.1302031    0.1012694 -26.45 0.0009222022    1.028    0.027
       157  -7.8480     74.9574     20.7275   9.1836836345e+01   6.2735491760e+01    0.1652859    0.1065462  41.55 0.0006146961    1.510    0.338
       158  -7.7875     15.0065     17.9705   1.1707319556e+02   7.1128827372e+01    0.1317203   0.09717394 -32.45            0    1.046    0.044
       159  -8.3293    186.4496    243.4657   1.1900825856e+02  -6.8051916979e-01    0.1203279   0.09412935  33.45 -1.223843e-05    1.007    0.007
       160  -7.3195     59.5103     12.4293   9.3623626242e+01   6.6479256365e+01    0.1229508     0.104631   2.62 0.0002105908    1.053    0.050
       161  -7.9454     55.9685    219.9853   1.4082591097e+02   2.3375477257e+01    0.2176569    0.1196678 -89.93            0    1.777    0.437
       162  -8.7639     55.9879    215.5572   1.4046745146e+02   2.4226181186e+01    0.2178694     0.136069 -87.13  0.001075943    1.480    0.324
       163  -7.7610    100.9636    214.9828   1.3162119572e+02   1.7934691234e+01    0.1460977    0.1152123  57.38            0    1.045    0.043
