#   1 NUMBER                 Running object number                                     
#   2 MAG_AUTO               Kron-like elliptical aperture magnitude                    [mag]
#   3 X_IMAGE                Object position along x                                    [pixel]
#   4 Y_IMAGE                Object position along y                                    [pixel]
#   5 X_WORLD                Barycenter position along world x axis                     [deg]
#   6 Y_WORLD                Barycenter position along world y axis                     [deg]
#   7 A_WORLD                Profile RMS along major axis (world units)                 [deg]
#   8 B_WORLD                Profile RMS along minor axis (world units)                 [deg]
#   9 THETA_WORLD            Position angle (CCW/world-x)                               [deg]
#  10 FWHM_WORLD             FWHM assuming a gaussian core                              [deg]
#  11 ELONGATION             A_IMAGE/B_IMAGE                                           
#  12 ELLIPTICITY            1 - B_IMAGE/A_IMAGE                                       
         1  -8.3661     34.7182     22.7527   5.6579766265e+01   7.2635146410e+01     0.204264    0.1574452  82.29 0.0009559186    1.964    0.491
         2  -8.4744     97.0331     14.9990   2.7248427416e+01   5.9478762026e+01    0.2484861    0.1843317 -31.43  0.001204385    1.408    0.290
         3  -7.7502     83.4919     10.9805   2.8359520986e+01   6.3422185041e+01    0.1922935    0.1003886 -52.27 0.0004185777    2.200    0.545
         4  -8.5743     55.7989      9.9095   3.6662817060e+01   7.0327838249e+01    0.2388868    0.1759791 -52.11 0.0007058532    1.548    0.354
         5  -7.8788     47.5888      9.8089   4.0319168169e+01   7.2185445499e+01    0.1846225    0.1219519 -43.50 0.0006230897    1.650    0.394
         6  -8.2950     90.9898      8.9627   2.5595602468e+01   6.1702800326e+01    0.2299408    0.1524166 -64.85 0.0006550953    1.649    0.393
         7  -7.9856    101.3208      7.7082   2.3000621743e+01   5.9129673411e+01    0.1473743   0.09598204 -64.86 0.0003934748    1.607    0.378
         8  -8.0488     70.3953      6.1655   2.9177275747e+01   6.7239034666e+01    0.1915809    0.1200204 -39.30  0.000941371    1.667    0.400
         9  -8.5017     33.3991      4.8440   4.4583661076e+01   7.5808881640e+01    0.3036436    0.1773532 -51.83   0.00129461    2.306    0.566
        10  -8.5453     79.1630      3.5622   2.5365269170e+01   6.5278829507e+01    0.2872681    0.1485652 -41.75  0.001069563    2.005    0.501
        11  -7.8940     62.5175      1.4184   2.8572670547e+01   6.9651579614e+01    0.1331647    0.1230694  76.20 0.0001639105    1.064    0.060
        12  -7.4596     39.2994      1.6555   3.8399121384e+01   7.4996746497e+01    0.1288726    0.1006931 -65.87 0.0007036491    1.676    0.403
        13  -7.9682    169.2552    247.4071   6.8190537235e+01   3.4825536843e+00    0.1504626   0.08108023  32.25 0.0009075518    1.653    0.395
        14  -9.3989    246.7139    228.3588   5.3149369083e+01  -1.8054728435e+00    0.3354638    0.1414715 -33.41  0.001795783    2.058    0.514
        15  -8.7383    248.6262    249.5436   5.5764036053e+01  -4.1283063812e+00    0.2599849    0.1256797  -7.81  0.001803124    1.903    0.474
        16  -9.7687    248.6935    241.8583   5.4734113432e+01  -3.3726862301e+00    0.3412575    0.1527476 -35.20  0.001508665    2.173    0.540
        17  -9.0493    247.9756    234.4987   5.3830492178e+01  -2.5606751270e+00     0.193258     0.137452 -29.79   0.00159374    1.625    0.385
        18  -9.4315    233.1434    246.9948   5.7652040482e+01  -2.5875641688e+00    0.3530734    0.1675913 -30.09  0.002105922    1.865    0.464
        19 -10.1569     93.1730    250.1540   8.3404623750e+01   1.1368162682e+01    0.2317668    0.1651553  26.63   0.00158926    1.110    0.099
        20  -9.7080    147.2234    245.5318   7.2072257053e+01   6.0972297549e+00     0.282031    0.2548561  42.43  0.001413315    1.456    0.313
        21  -9.5048    120.2084    245.0617   7.7361606674e+01   9.1700947121e+00    0.3449364    0.2325231  76.02  0.001615419    2.757    0.637
        22  -8.3850     67.5195    244.9203   8.8457128623e+01   1.5000645052e+01    0.1440057    0.1149892 -78.65 0.0007462883    1.548    0.354
        23  -8.8775    201.9743    242.9981   6.1986429828e+01   7.1262033374e-01    0.2023426    0.1351889 -38.23 0.0007915467    1.784    0.440
        24  -8.7990    139.4536    244.2300   7.3431039230e+01   7.1407741079e+00    0.1282604      0.11225 -76.25  0.000944766    1.743    0.426
        25  -9.2290     77.9958    243.1746   8.6068498778e+01   1.4176883481e+01    0.2902929    0.1400538  52.81  0.001325273    2.190    0.543
        26  -7.5722     58.3277    244.6326   9.0427870123e+01   1.6011501088e+01    0.1283594   0.06401854  51.51 0.0002153512    1.811    0.448
        27  -8.5568    169.0261    243.0916   6.7706615014e+01   4.0691378504e+00    0.1639019    0.1296873  10.61 0.0005620519    1.076    0.070
        28  -7.8214     49.7610    242.7574   9.2182719264e+01   1.7219046255e+01    0.1637498   0.08440355  79.78 0.0008835917    2.438    0.590
        29  -9.3275    194.2479    240.0314   6.2887052258e+01   1.8352540689e+00    0.2507551    0.1620212 -42.89  0.001373282    1.959    0.490
        30  -9.4909    183.3365    240.3022   6.4800264834e+01   2.9215492964e+00    0.3322757    0.2270958  53.93   0.00196204    3.146    0.682
        31  -9.3637    160.0403    240.1285   6.9002867904e+01   5.4408041392e+00    0.2588297    0.2065082 -74.14  0.001332103    2.331    0.571
        32  -7.8461    153.5182    242.0279   7.0462975976e+01   5.8952441692e+00    0.1231046   0.09978008  79.93 0.0008075152    2.366    0.577
        33  -8.0642     88.1954    242.1661   8.3791564189e+01   1.3226139872e+01    0.1549651    0.1146691  51.60 0.0005447995    1.356    0.263
        34  -9.2259    242.3210    236.3693   5.4888694468e+01  -2.2702379258e+00    0.2665751    0.1181793 -13.61  0.001588421    2.426    0.588
        35  -8.4329    146.2867    239.4370   7.1548172172e+01   7.0694676081e+00    0.1564315     0.139053  79.38 0.0004852215    1.778    0.438
        36  -8.9720    135.5628    238.6564   7.3574568838e+01   8.4018388362e+00    0.1587375    0.1491063 -75.20 0.0007254161    1.500    0.333
        37  -9.1994    231.3406    236.0650   5.6450478246e+01  -1.2657266176e+00    0.3094566     0.179607 -34.02  0.001967279    1.747    0.428
        38  -8.7025    208.8665    238.1312   6.0218919173e+01   6.1187156516e-01     0.144642    0.1183695   2.39 0.0005052677    1.275    0.216
        39  -8.2213    128.8678    238.6068   7.4918530115e+01   9.1764245829e+00    0.1674311   0.08475052  36.04 0.0006798733    1.682    0.406
        40  -8.6822     13.9691    237.6005   9.9799520392e+01   2.1538376290e+01     0.217375    0.1216042  45.37 0.0008982639    1.295    0.228
        41  -9.1307    217.0196    235.5305   5.8568539687e+01   1.2697609786e-01    0.1790604     0.164116   3.42  0.001138274    1.672    0.402
        42  -9.3331    213.6615    231.6277   5.8562342680e+01   9.0787917523e-01    0.2288918    0.1788616  37.56  0.001236948    1.932    0.483
        43  -9.0155    203.0849    234.4064   6.0659218630e+01   1.6284395142e+00    0.2231489    0.1576909 -47.66  0.001021946    2.166    0.538
        44  -9.7048    175.6973    233.1110   6.5225232586e+01   4.6781328462e+00    0.3680927    0.2126105 -53.71  0.002155797    2.694    0.629
        45  -8.4569    170.4329    235.5049   6.6495637378e+01   4.9316767814e+00    0.1552961    0.1071175 -54.57 0.0006925254    2.184    0.542
        46  -7.9324     58.0112    237.0000   9.0019076253e+01   1.7413177743e+01    0.2038386   0.05497629  26.97 0.0008072229    2.976    0.664
        47  -9.0340    108.9003    233.9966   7.8590182957e+01   1.2233254392e+01    0.4290182    0.1628027  44.52  0.001615048    2.721    0.633
        48  -8.0210    122.9613    233.9670   7.5620977346e+01   1.0590075751e+01    0.1809487    0.1251259  52.51 0.0008919253    1.762    0.432
        49  -8.1322     99.7298    234.1386   8.0578693101e+01   1.3277928039e+01     0.202609    0.1005529  56.04 0.0009516106    2.817    0.645
        50  -8.7776     78.2650    233.7886   8.5269147641e+01   1.5793245705e+01    0.1844654    0.1501257  86.86  0.001090817    1.477    0.323
        51  -9.0791     68.3493    231.6930   8.7329468932e+01   1.7277310747e+01    0.4838676    0.2264501  69.59  0.002157732    3.305    0.697
        52  -8.5065    194.6444    232.5130   6.1816992927e+01   2.7283632067e+00    0.1655224    0.1614059 -16.20 0.0008823667    1.703    0.413
        53  -9.6492    186.6206    230.6194   6.2946113800e+01   3.8223171961e+00    0.2811167     0.223722 -71.54    0.0016894    2.824    0.646
        54  -8.5162    145.0744    233.2080   7.1042548481e+01   8.1254329432e+00    0.1827156    0.1097284  45.15 0.0009826818    1.966    0.491
        55  -7.8669    164.6467    232.6669   6.7203512092e+01   5.9665551050e+00    0.1198582    0.0731803  -3.64 0.0007045497    1.786    0.440
        56  -8.2060    132.4132    232.2540   7.3476652254e+01   9.7509421366e+00    0.1325524    0.1158948 -75.32 0.0006011142    1.622    0.383
        57  -8.5807     92.2396    231.2677   8.1946414771e+01   1.4646040332e+01    0.2537034    0.1274484  54.18 0.0008772035    2.392    0.582
        58  -9.2132    236.2713    230.5535   5.4957139753e+01  -1.1097850154e+00    0.2022647    0.1593277 -16.88  0.001129747    1.374    0.272
        59 -10.0425    149.6905    226.1519   6.9248826313e+01   8.6504343837e+00    0.4990462    0.3449844 -88.44  0.002470768    3.849    0.740
        60  -8.5869    140.1196    230.0520   7.1649312985e+01   9.1853162237e+00    0.2112519    0.1239272  45.41 0.0008278837    1.970    0.492
        61  -8.1166      1.6172    230.3266   1.0233879854e+02   2.3963908835e+01    0.1926375   0.08488884  52.18  0.001079311    1.657    0.397
        62  -8.6050    229.8220    228.6588   5.5646626037e+01  -3.0323352225e-01    0.1696689    0.1061311 -36.90  0.001231531    1.802    0.445
        63  -8.7548    162.3611    227.7216   6.6992136126e+01   6.9321911496e+00    0.2572372    0.1693028  45.41  0.001581642    1.959    0.489
        64  -8.8852    127.9378    227.1684   7.3807609882e+01   1.1097317696e+01    0.2925768    0.1737506  51.18   0.00134696    2.156    0.536
        65  -8.3506    120.2190    227.7654   7.5504906961e+01   1.1928678494e+01     0.185973     0.107513  57.30 0.0008288979    2.620    0.618
        66  -8.2125    223.5268    226.7741   5.6336232995e+01   5.1360836548e-01    0.1852365   0.08119822 -30.93 0.0008414944    2.017    0.504
        67  -9.2929    225.3827    221.4532   5.5287425918e+01   9.5607948974e-01    0.2070728    0.1654164 -21.38  0.001105464    1.367    0.268
        68  -8.0662     49.6479    226.6715   9.1265190833e+01   2.0239256567e+01    0.2353106    0.1131926  67.06  0.001154428    2.405    0.584
        69  -8.8055    206.0646    225.6344   5.8951667158e+01   2.4028647215e+00    0.1781373    0.1388303 -38.35  0.000800611    1.662    0.398
        70  -8.2642    200.1150    226.1295   6.0009812063e+01   2.9628056192e+00     0.132572    0.1152784  -5.62 0.0004884006    1.324    0.245
        71  -8.7251     94.3026    224.2009   8.0805866587e+01   1.5668936959e+01    0.3388702    0.1615966  55.97  0.001518078    2.866    0.651
        72  -8.8571    216.5163    223.4261   5.6951238473e+01   1.6045420416e+00    0.1875899    0.1558314 -36.62 0.0009544907    1.703    0.413
        73  -8.9086    180.3289    223.9809   6.3154619228e+01   5.4080085830e+00    0.1958893    0.1585624  23.13 0.0007796748    1.276    0.217
        74  -8.5786    173.1655    222.8932   6.4313348572e+01   6.3776124752e+00    0.1921156     0.154385 -49.31 0.0006844468    1.689    0.408
        75  -7.8526    113.8460    223.8078   7.6430042380e+01   1.3373042457e+01    0.1600216    0.1285269  50.27 0.0004629312    1.353    0.261
        76  -8.7325    104.6369    223.5868   7.8430822084e+01   1.4533636398e+01    0.2495397    0.1757439  65.10  0.001467074    1.846    0.458
        77  -8.0795      8.2923    234.6666   1.0096407937e+02   2.2578687097e+01    0.1263922   0.05737372  51.79 0.0002170868    1.635    0.388
        78  -7.9333     38.4738    224.5101   9.3738085742e+01   2.1803977564e+01    0.1266376   0.09344937  47.22 0.0002031515    1.076    0.071
        79  -9.0974    239.0162    221.2711   5.3232405740e+01  -3.3135155729e-01    0.2103054    0.1820278 -32.65  0.001528076    1.832    0.454
        80  -9.4260    192.4799    221.2627   6.0622638206e+01   4.4203859965e+00    0.2234633    0.2072196  42.08  0.001125271    1.707    0.414
        81  -9.0262    160.3208    221.0153   6.6488466117e+01   8.1612170928e+00     0.438035    0.1744046  44.28    0.0018793    3.509    0.715
        82  -7.8368    140.5060    222.5334   7.0636915377e+01   1.0321508509e+01     0.118717   0.09907926  23.57 0.0002249018    1.097    0.088
        83  -8.3699    202.7307    220.2843   5.8738267809e+01   3.4325891972e+00    0.1777197    0.1284298 -19.14 0.0007340597    1.203    0.169
        84  -8.1340     73.1954    220.5438   8.5319985462e+01   1.8841698975e+01    0.2218124    0.1244143  70.01 0.0009527672    2.343    0.573
        85  -7.8636     27.4933    220.9906   9.6138981571e+01   2.3576075445e+01     0.154865   0.08666492 -49.53 0.0008096225    2.479    0.597
        86  -9.1590    120.5340    219.0976   7.4427897799e+01   1.3362938238e+01    0.4131358    0.2040808  52.21  0.001862147    2.894    0.655
        87  -8.4603     82.5246    220.0490   8.3100174167e+01   1.7845450243e+01    0.2498265    0.1347717  44.19    0.0010024    1.629    0.386
        88  -8.2563    210.0432    219.0270   5.7351396485e+01   2.8153028150e+00    0.1624272    0.1247459  -5.60 0.0005314389    1.050    0.048
        89  -9.4844    249.5730    218.3617   5.1312843470e+01  -9.7933125841e-01    0.3071411    0.2465376  64.25  0.001749582    5.390    0.814
        90  -9.3300    133.0539    215.8446   7.1333891078e+01   1.2347127533e+01    0.4288809    0.2664994  68.18  0.001929255    3.606    0.723
        91  -9.0200     51.6264    217.1014   9.0173358303e+01   2.1934415519e+01    0.2480346    0.1411409  80.62 0.0009686085    2.057    0.514
        92  -8.7706    169.3687    215.9488   6.4052579590e+01   7.8343780931e+00    0.2346643    0.1944412 -76.37 0.0009619556    2.168    0.539
        93  -8.6356    143.0998    216.5355   6.9325044692e+01   1.0969657609e+01    0.2294912    0.1830975  66.51  0.001429891    1.902    0.474
        94  -8.4357    111.9976    217.0400   7.6063255673e+01   1.4794566509e+01    0.1975659    0.1323082  54.46 0.0008260997    1.754    0.430
        95  -8.2396     61.9351    216.9864   8.7693849984e+01   2.0825651204e+01    0.2126845    0.1180197  54.54 0.0009299926    1.736    0.424
        96  -8.7536    231.9528    214.1134   5.3215336874e+01   1.1749593041e+00    0.2117084    0.1240794 -39.39 0.0006694703    1.902    0.474
        97  -8.1241    154.3970    214.7397   6.6792201460e+01   9.8495313896e+00    0.1920597    0.1155873 -51.47 0.0007494157    2.024    0.506
        98  -7.9026     18.3675    215.2464   9.8067965741e+01   2.5598845300e+01    0.1660075   0.09690768  74.26 0.0009446683    1.634    0.388
        99  -9.4347    214.2447    212.2262   5.5665683684e+01   3.2313198190e+00    0.2883386    0.2146579  44.11  0.001824412    2.123    0.529
       100  -8.4519    185.5971    213.9531   6.0776515598e+01   6.2031057146e+00    0.1841825    0.1364302 -46.27 0.0008766926    1.724    0.420
       101  -8.9676     93.1890    213.8810   8.0002256452e+01   1.7731618526e+01    0.3587281    0.1435764  47.38  0.001520757    2.626    0.619
       102  -9.3321     73.3049    211.7461   8.4515476905e+01   2.0569482686e+01    0.6876035    0.2134984  51.54  0.002309666    4.232    0.764
       103  -8.0352    224.7395    212.1171   5.4005394856e+01   2.1439635752e+00     0.150981    0.1125904 -31.17 0.0005594651    1.446    0.308
       104  -9.5070    175.5518    209.8874   6.2012088440e+01   7.9884074290e+00     0.358369    0.2647005  63.98  0.001654458    2.795    0.642
       105  -8.5256    161.7774    212.1694   6.4973957850e+01   9.3355363687e+00    0.1669942    0.1520656  27.58 0.0008876877    1.292    0.226
       106  -7.6859    106.4814    212.5439   7.6784062518e+01   1.6313795043e+01    0.1273447     0.106859  34.96 0.0008078289    1.068    0.064
       107  -9.0226    204.1447    210.6219   5.7073905254e+01   4.5438208360e+00    0.2019649    0.1596832 -30.64 0.0007723059    1.376    0.273
       108  -8.4218    192.4403    210.5406   5.9059960673e+01   5.8864220069e+00    0.1776837    0.1560749 -69.95 0.0007343281    2.065    0.516
       109  -8.7635    148.1630    210.5233   6.7466011264e+01   1.1313865090e+01    0.2350658    0.1882652  60.37  0.001147596    1.791    0.442
       110  -8.9430    116.6345    210.3281   7.4217663599e+01   1.5419629708e+01    0.3211552    0.1941378  50.01   0.00102629    1.866    0.464
       111  -9.1624      6.3674    208.6167   1.0074234986e+02   2.8029912562e+01     0.568644    0.1085254  64.57  0.001742657    5.503    0.818
       112  -8.9972    236.7084    208.2626   5.1632649997e+01   1.3964396244e+00    0.2317166    0.1859396 -52.42  0.001286706    2.392    0.582
       113  -8.2490     85.0835    208.8268   8.1391663103e+01   1.9726917799e+01    0.2192708    0.1559359  78.34 0.0009324693    1.739    0.425
       114  -8.1812     46.3843    209.1929   9.0911817358e+01   2.4138383905e+01    0.1723544    0.1069537  76.99 0.0005437591    1.724    0.420
       115  -9.2383    246.3954    207.1106   5.0076146367e+01   5.8187195446e-01    0.2074685    0.1297262 -26.92 0.0007496617    1.312    0.238
       116  -8.3093    139.0003    207.7373   6.8989389496e+01   1.2965568082e+01    0.1893385     0.165185 -85.44 0.0005313521    1.624    0.384
       117  -8.1048    126.4082    208.2319   7.1776820947e+01   1.4526049031e+01    0.1528664    0.1237562 -72.66    0.0005571    1.641    0.391
       118  -7.7925    156.3373    207.6771   6.5404287066e+01   1.0732457397e+01    0.1141056   0.09244195  55.30 0.0007050807    1.716    0.417
       119  -9.2243     99.5196    206.0195   7.7639769950e+01   1.8452423949e+01    0.3501487    0.2058575  62.20  0.001178693    2.346    0.574
       120  -8.5874     56.5065    205.4680   8.8111723079e+01   2.3822377438e+01    0.3030499    0.1365452  56.36   0.00111505    2.321    0.569
       121  -9.0098    183.9008    203.9205   5.9574915157e+01   7.8533179529e+00    0.2414515    0.2140492  57.58  0.001245842    1.778    0.438
       122  -7.9734    109.1686    205.1762   7.5279369324e+01   1.7356785585e+01      0.17102    0.1402713  57.22 0.0005528114    1.351    0.260
       123  -9.4878    194.7762    203.3144   5.7549060355e+01   6.6277487913e+00    0.2771619    0.2293631 -30.40  0.001289838    1.325    0.245
       124  -9.3649    192.4656    197.1811   5.6986787453e+01   7.7910724155e+00    0.3014303    0.2470808 -59.00  0.001190585    1.920    0.479
       125  -9.4994    164.0168    202.9724   6.3185735377e+01   1.0501882849e+01    0.3921366    0.2189525  48.15  0.001180993    2.495    0.599
       126  -8.7466    131.1834    203.6922   7.0115639512e+01   1.4708221883e+01    0.2405251    0.1883925  68.08  0.001023559    1.798    0.444
       127  -9.3208    250.1631    201.6552   4.8718602725e+01   8.4777685282e-01    0.3284841    0.1151635 -33.34  0.001377951    2.301    0.565
       128  -7.7139    218.6503    203.7243   5.3664930135e+01   3.8457544573e+00    0.1128363   0.06817257  -3.03 0.0004775634    1.636    0.389
       129  -8.0113     41.4973    203.0027   9.1723140770e+01   2.5988846357e+01    0.1915326   0.08436177  67.54 0.0008106682    2.618    0.618
       130  -8.5583    211.0474    201.8223   5.4581647588e+01   4.9423184350e+00    0.1774888    0.1309393 -42.06 0.0007425691    1.664    0.399
       131  -8.8656    140.6374    201.0161   6.7689811899e+01   1.3916380395e+01    0.3258725    0.2275248  63.41  0.001279859    2.289    0.563
       132  -8.6645     80.2558    201.5985   8.1816236022e+01   2.1806428263e+01    0.2972455    0.1775163  58.53  0.001492286    1.854    0.461
       133  -8.1372     48.3785    202.1597   8.9911709706e+01   2.5438883324e+01    0.1798903    0.1100041  79.10 0.0009390161    1.781    0.438
       134  -8.9438    243.1533    200.6703   4.9538611723e+01   1.6549011008e+00    0.2035873    0.1344165 -28.79 0.0008465571    1.321    0.243
       135  -9.3423    149.7758    198.5911   6.5403904342e+01   1.3106937355e+01    0.3675348    0.2652102  68.23  0.001611795    2.470    0.595
       136  -8.8129    124.1410    199.2314   7.1066189118e+01   1.6476224811e+01    0.2855794    0.1986415  66.67  0.001263568    2.146    0.534
       137  -9.2013    237.1305    198.3307   5.0031108102e+01   2.5529839886e+00    0.2207835    0.1217405 -36.02  0.001102656    1.674    0.402
       138  -8.5551    177.0568    198.7454   6.0033416366e+01   9.4913839276e+00    0.1837708    0.1579615 -40.38 0.0005814971    1.385    0.278
       139  -9.1680    112.7551    198.1282   7.3537532208e+01   1.8238100489e+01    0.3610867    0.2175612  58.98  0.001701505    2.278    0.561
       140  -8.9246     88.5595    198.2109   7.9384172927e+01   2.1451482792e+01    0.3441473    0.2010967  66.75  0.001396984    2.354    0.575
       141  -8.3765    202.3504    197.7743   5.5379119239e+01   6.5080692763e+00    0.1846498    0.1659065 -42.55  0.001048571    1.566    0.361
       142  -8.8587     61.4839    197.0558   8.6126056785e+01   2.5072064282e+01    0.4189539    0.1714516  54.42  0.001687703    2.674    0.626
       143  -8.2776     29.4387    197.5205   9.4486599041e+01   2.8425246012e+01    0.1304189    0.1068475  52.94 0.0001122448    1.007    0.007
       144  -8.1901     12.7082    197.3360   9.8798988740e+01   2.9988814463e+01    0.2274449    0.1007313  53.61  0.001106542    1.825    0.452
       145  -8.8005    216.0307    195.3619   5.2753587425e+01   5.2402090994e+00    0.2347719    0.1651495 -50.60  0.001300722    2.137    0.532
       146  -8.0706    133.3467    196.0758   6.8557213995e+01   1.5798427318e+01    0.1668553    0.1219921 -67.88 0.0008224468    1.843    0.457
       147  -7.8565     53.6362    196.3245   8.8097945151e+01   2.6142906895e+01    0.1496566   0.07910877  54.10 0.0007039903    1.791    0.442
       148  -7.7304     36.3079    196.6389   9.2644904571e+01   2.7940981956e+01    0.1462317   0.07591959  56.08 0.0007040139    1.738    0.425
       149  -8.8013    224.6246    193.8821   5.1177568805e+01   4.4636708899e+00    0.2376455    0.1103671 -40.19  0.001026765    2.104    0.525
       150  -7.3863    209.0000    194.9860   5.3826175481e+01   6.1086434522e+00    0.1737354   0.05612975 -39.08 0.0004735058    2.836    0.647
       151  -8.9608    185.2284    194.5647   5.7860753633e+01   9.0886900272e+00    0.2060231    0.1908198 -44.36 0.0006901845    1.457    0.314
       152  -9.1111    160.8029    194.1324   6.2462151303e+01   1.2373242616e+01    0.2552503    0.2166816  68.46  0.001129576    1.781    0.439
       153  -9.2924    245.4277    193.1383   4.8032132841e+01   2.3276131984e+00    0.1923072    0.1529327 -31.24 0.0005327634    1.474    0.321
       154  -8.0470    230.9979    194.0074   5.0239567705e+01   3.7453025954e+00    0.1447839    0.1250298 -38.40 0.0005606536    1.644    0.392
       155  -8.5609     76.9455    193.6219   8.1798300549e+01   2.3925481260e+01    0.2318927    0.1712579  72.85  0.000436791    1.502    0.334
       156  -8.8587     43.7908    193.3249   9.0447146197e+01   2.7909172983e+01    0.4247616    0.1887653  58.71  0.001843129    2.303    0.566
       157  -8.2514    198.9240    191.5611   5.4955576278e+01   7.8121419108e+00    0.1752851    0.1329395 -24.83 0.0003763734    1.174    0.148
       158  -8.5582    172.4460    191.7404   5.9792395612e+01   1.1200302258e+01    0.2044774    0.1946582  70.75  0.001078206    1.510    0.338
       159  -9.2247    139.2329    189.9632   6.6342012806e+01   1.6100296668e+01      0.34139    0.2537066  85.47  0.001583279    2.323    0.569
       160 -10.2541     92.6825    188.8279   7.7215969832e+01   2.2883922105e+01     1.013088    0.2293965  41.79  0.003167765    3.933    0.746
       161  -8.0873     22.9702    192.0000   9.5887452438e+01   3.0299008571e+01    0.2046595   0.06629537  23.40 0.0006103779    2.864    0.651
       162  -8.7578      6.4895    190.4721   1.0017439402e+02   3.2068443623e+01    0.2398393   0.09282137  75.99  0.001036168    2.492    0.599
       163  -8.9257    129.4254    188.7336   6.8346275359e+01   1.7728755786e+01    0.2797681    0.2099978  71.32 0.0009643988    1.943    0.485
       164  -8.3934    148.7808    189.1479   6.4155190597e+01   1.4897398839e+01    0.1844653    0.1701181  51.63 0.0009218262    1.316    0.240
       165  -8.8149     34.1928    187.9177   9.2637158282e+01   3.0163217668e+01    0.3348859    0.1542459  63.88  0.001473547    2.219    0.549
       166  -8.2887    237.3070    188.1219   4.8365389866e+01   3.8059076064e+00    0.1541289     0.105461 -26.42 0.0005859534    1.200    0.167
       167  -8.9197    216.5305    187.4868   5.1385357700e+01   6.2510980636e+00     0.229019    0.1598846 -33.73 0.0009397563    1.351    0.260
       168  -8.8670    191.5027    187.1984   5.5525553798e+01   9.4011429773e+00    0.2413953    0.1866753 -59.08  0.001168166    1.986    0.497
       169  -9.3271    155.9557    187.1895   6.2339434342e+01   1.4231245465e+01    0.3036858    0.2038057 -55.46 0.0008090956    1.836    0.455
       170  -9.4657    120.5635    185.9697   6.9985198099e+01   1.9544202396e+01    0.4176395    0.2586177 -75.73  0.001914336    2.558    0.609
       171  -9.0832     54.7109    186.5291   8.6955634835e+01   2.8248044117e+01    0.4753726    0.2258473  68.36   0.00193179    2.690    0.628
       172  -8.9458    249.4264    185.6404   4.6276000193e+01   2.8231888508e+00    0.2521079    0.1482513 -41.07  0.001191871    1.868    0.465
       173  -8.2619    230.7030    187.2021   4.9174462203e+01   4.6533276519e+00      0.16176    0.1196487 -35.00 0.0007996789    1.421    0.296
       174  -8.8242    164.9660    186.5148   6.0401347572e+01   1.3084412779e+01    0.2108139    0.1768425 -59.21 0.0006127674    1.566    0.361
       175  -8.9962    109.6406    185.8857   7.2596459040e+01   2.1131937593e+01    0.3651305    0.2197861  61.02  0.001278006    2.321    0.569
       176  -8.8046    210.2613    183.9925   5.1802922289e+01   7.4978918575e+00    0.2270259    0.1604192 -33.94 0.0006618812    1.327    0.247
       177  -8.6646    202.8244    184.5327   5.3122765491e+01   8.3489013090e+00    0.2047908    0.1435245 -48.72 0.0007147626    1.815    0.449
       178  -8.5659    182.8418    184.7236   5.6674915263e+01   1.0928780024e+01    0.2201399    0.1584631 -46.33 0.0007852031    1.572    0.364
       179  -8.9862     66.6608    184.4207   8.3512716238e+01   2.7287719942e+01    0.3685023    0.1944307  54.11 0.0009603989    1.932    0.482
       180  -8.3070    224.0526    183.4737   4.9549562998e+01   5.9100417663e+00    0.1703774    0.1212748 -24.67 0.0004830203    1.152    0.132
       181  -8.3097    197.2684    183.3772   5.3873007397e+01   9.2311272844e+00    0.1870957    0.1369851 -50.50 0.0007279479    1.776    0.437
       182  -8.8291    174.2872    183.4613   5.8069689179e+01   1.2300124468e+01    0.2214394    0.2053164 -62.61  0.000843602    1.471    0.320
       183  -8.9115     44.5829    182.4789   8.9379343047e+01   3.0350507147e+01    0.3396674    0.1439267  50.46 0.0008923364    2.161    0.537
       184  -8.0441      1.7597    183.5486   1.0122244933e+02   3.4051478417e+01    0.1881746   0.09022319  38.65 0.0009424664    1.668    0.400
       185  -8.0087    235.4684    181.4928   4.7531572042e+01   4.8586305408e+00    0.1110578   0.08364192 -15.82 0.0001086372    1.012    0.012
       186  -9.0903    147.5352    180.4431   6.3007207899e+01   1.6658682799e+01    0.2878695    0.2389727  81.81  0.001092178    1.777    0.437
       187  -9.4286     25.7493    178.7972   9.4387724845e+01   3.3169245388e+01    0.7303287    0.2265884  66.54  0.002320594    4.238    0.764
       188  -7.9842    240.5983    179.8643   4.6532624878e+01   4.4937735151e+00    0.1511998   0.08420081 -38.94 0.0009474265    1.710    0.415
       189  -8.6669    137.5500    179.3002   6.5018027199e+01   1.8355605037e+01    0.2665112    0.2032476  74.95  0.001146426    1.992    0.498
       190  -9.4526    191.5534    178.3167   5.4001313981e+01   1.0761661545e+01      0.23684    0.2247675  64.98 0.0006451138    1.550    0.355
       191  -8.6442    250.5186    172.4386   4.3936711238e+01   4.3371148707e+00    0.1972972    0.1139257 -29.53  0.000537821    1.327    0.247
       192  -9.1684    249.0164    177.0528   4.4912652424e+01   3.9243880605e+00    0.2172613    0.2041378 -33.93  0.001048932    1.657    0.396
       193  -8.6755    247.2636    173.6438   4.4572533012e+01   4.5445728597e+00    0.1862997    0.1156574 -33.04 0.0004270976    1.346    0.257
       194  -8.7211    217.5590    176.9818   4.9442143427e+01   7.5878593593e+00     0.211866    0.1726495 -49.54 0.0008659198    1.691    0.409
       195  -8.5721    205.0412    177.5543   5.1555455412e+01   9.0919924481e+00    0.2160617    0.1509819 -45.37  0.000829148    1.637    0.389
       196  -8.1719    169.2030    178.2321   5.8162382528e+01   1.3894291243e+01    0.1582438    0.1525851 -79.86 0.0007261335    1.392    0.282
       197  -8.4825    129.2246    177.2926   6.6596730234e+01   1.9999422112e+01    0.2676707     0.189895  78.30  0.001132707    2.324    0.570
       198  -9.1741     35.8749    176.3983   9.1346966157e+01   3.2750555219e+01    0.5256377    0.1928541  68.39  0.001766519    3.714    0.731
       199  -8.6991    231.0430    176.6276   4.7347699350e+01   6.0088372223e+00    0.2051482    0.1316046 -41.30 0.0008046723    1.646    0.393
       200  -9.3566    183.0406    175.7077   5.5083524005e+01   1.2349736832e+01    0.2723061    0.2035808 -42.79 0.0008115572    1.403    0.287
       201  -8.4332     88.8565    176.5931   7.6597296374e+01   2.6112721805e+01    0.2588235    0.1796047  82.35 0.0008168407    1.826    0.452
       202  -9.9261     57.6001    173.3276   8.4844277114e+01   3.1038919867e+01     0.888192    0.3643176  70.25  0.002663924    4.701    0.787
       203  -8.6700     12.8819    176.2405   9.7886764978e+01   3.4935514497e+01    0.3060456    0.1457478  71.40   0.00106621    1.971    0.493
       204  -7.9135    211.6331    175.8570   5.0184057475e+01   8.4932047888e+00    0.1583038   0.09616659 -41.90 0.0005335298    1.663    0.399
       205  -9.3039    158.8164    174.8891   5.9675509100e+01   1.6000280296e+01    0.3427135    0.2701402  83.21  0.001444462    2.150    0.535
       206 -10.6454    101.6388    175.5611   7.3101906182e+01   2.4495944299e+01      0.40363     0.300672   7.98  0.002089915    1.583    0.368
       207 -10.5782     76.0203    170.9501   7.9346457584e+01   2.9214298141e+01     1.096449    0.4865712 -86.04  0.003392572    4.576    0.781
       208  -8.4332     74.6425    159.7103   7.8212156322e+01   3.2131108031e+01    0.2208627    0.1668134 -26.17 0.0006712351    1.714    0.417
       209  -8.5437    224.3823    174.2104   4.7916844025e+01   7.1349926904e+00    0.1562698   0.09120481 -40.35 0.0005122833    1.661    0.398
       210  -9.6739    175.9318    172.1924   5.5793899861e+01   1.3948820394e+01    0.3151318    0.2346939 -47.65 0.0009513088    1.479    0.324
       211  -8.3871    143.0725    172.4698   6.2629670207e+01   1.8835932547e+01    0.1989386    0.1870859  83.53 0.0005021016    1.303    0.233
       212  -8.5765    134.8428    171.7127   6.4361447569e+01   2.0254499927e+01    0.2344825    0.1801659  87.89  0.000847565    1.958    0.489
       213  -9.5873    121.4139    170.1324   6.7278296637e+01   2.2664369049e+01    0.4012639    0.2840257 -80.69  0.001031645    2.023    0.506
       214  -9.1543     45.1830    170.9536   8.8196169887e+01   3.3085744924e+01    0.4145719    0.2158692  76.77  0.001619517    2.226    0.551
       215  -8.9088    230.3582    169.3371   4.6183442329e+01   7.0753897546e+00    0.3419297    0.1602927 -43.22  0.001838431    2.193    0.544
       216  -8.4693    205.8242    170.2719   5.0140394638e+01   1.0075039099e+01    0.2623628    0.1433746 -49.52  0.001056865    2.311    0.567
       217  -8.7855    198.3886    170.0272   5.1343021554e+01   1.1119843164e+01    0.1810673    0.1755713  81.40 0.0006963938    1.510    0.338
       218  -8.5758    149.9037    169.4234   6.0595551108e+01   1.8363984658e+01    0.2351499    0.1898382 -68.76 0.0008049707    1.622    0.383
       219  -7.4501     68.3580    170.6661   8.1471768859e+01   3.0313574187e+01    0.1585261   0.09385667  58.79 0.0007041583    1.801    0.445
       220  -8.0406    244.4727    169.0336   4.4158639568e+01   5.4485261695e+00     0.164943   0.08518966 -33.84 0.0005350808    1.544    0.352
       221  -8.4289    237.0538    169.0381   4.5177784693e+01   6.3119320777e+00    0.1595248    0.1252875 -47.12 0.0009542135    1.699    0.411
       222  -9.1641    167.0540    168.3761   5.6839048403e+01   1.5927089958e+01    0.2647716    0.2240104  67.33 0.0009209964    1.676    0.403
       223  -8.1589     88.8656    168.7584   7.5490990907e+01   2.7910712763e+01    0.2639776    0.1738777  75.80  0.001075128    1.999    0.500
       224  -8.5954    218.8124    168.1599   4.7697335766e+01   8.6833594241e+00    0.1673763    0.1382875 -28.60 0.0004274455    1.200    0.167
       225  -8.5002    111.5491    167.2191   6.9254542413e+01   2.4825920893e+01    0.2940318    0.1981237  65.65 0.0008014382    1.991    0.498
       226  -7.7259    211.3111    167.6799   4.8785556918e+01   9.7314001856e+00     0.106207   0.09218794 -56.59 0.0002842514    1.647    0.393
       227  -9.2768    191.9492    165.9735   5.1722312577e+01   1.2662600100e+01    0.4024463    0.1542898 -39.30  0.001025672    2.376    0.579
       228  -8.5856    185.0167    166.4118   5.3046429203e+01   1.3592353648e+01    0.2225229    0.1649666 -49.11 0.0005606303    1.533    0.348
       229  -8.6478     13.1791    167.0752   9.7365301659e+01   3.7186050977e+01    0.2462342    0.1124736  63.72  0.001082795    2.011    0.503
       230  -9.6391    137.4873    164.5007   6.2484138348e+01   2.1283503351e+01    0.6477676    0.2910018  53.05  0.002062235    3.607    0.723
       231 -10.0255     94.6691    162.2661   7.2915983915e+01   2.8558439189e+01    0.8303205    0.4672631  75.10  0.002981125    3.339    0.701
       232  -9.2440     20.4627    166.0163   9.5138743355e+01   3.6830899558e+01    0.3750979    0.1315999  45.60  0.001382458    2.331    0.571
       233  -7.9810    234.0007    164.9370   4.4885914981e+01   7.2301999143e+00    0.1595082    0.1204062 -45.10 0.0005996765    1.606    0.377
       234  -8.6238    159.6422    164.2636   5.7592285541e+01   1.7812026482e+01    0.2454283    0.2102982  82.74 0.0008552746    1.667    0.400
       235  -9.5027     33.9055    163.3387   9.0885530731e+01   3.6223479086e+01    0.6645302    0.1918444  49.78  0.002233062    3.251    0.692
       236  -7.9773    239.8900    163.8429   4.3874366572e+01   6.6654317440e+00    0.1458872    0.1122809 -35.12 0.0004885815    1.320    0.242
       237  -8.5918    212.9395    163.4555   4.7760659311e+01   1.0139827182e+01    0.2118502    0.1452308 -43.96 0.0007660399    1.547    0.353
       238  -8.7110    246.0080    162.9132   4.2889040515e+01   6.0646993837e+00    0.1693266    0.1245967 -21.92 0.0004027255    1.020    0.020
       239  -8.5044    204.8412    162.3965   4.8868226048e+01   1.1406029213e+01    0.2050754     0.141197 -38.81 0.0005494414    1.361    0.265
       240  -9.3892      3.4761    162.2560   1.0004435572e+02   3.9148427056e+01    0.4969363    0.1738155  45.35  0.001932805    2.253    0.556
       241  -7.3809    222.2824    161.6616   4.5999711034e+01   9.1657691908e+00    0.1074619   0.08550977 -49.88 0.0007011056    1.625    0.385
       242  -9.2215    177.4619    160.3804   5.3325253734e+01   1.5742445515e+01    0.2640731    0.2112337 -53.60 0.0008290334    1.474    0.321
       243  -8.8499    151.5673    160.6689   5.8632037179e+01   1.9773008148e+01    0.2503081    0.2218049 -79.19  0.001097979    1.440    0.306
       244  -8.6972    227.4097    158.9815   4.4757000388e+01   8.8821063654e+00    0.2670694    0.1597228 -50.25  0.001210177    2.204    0.546
       245  -8.5574     60.4723    159.8323   8.2443616792e+01   3.4024772434e+01    0.2933213    0.1807603  71.45 0.0009031448    1.845    0.458
       246 -10.1117    249.6703    157.1060   4.1389184110e+01   6.3899520035e+00    0.3288082    0.2250979 -47.05  0.001406483    1.797    0.444
       247  -8.3909    237.2557    158.9438   4.3362262188e+01   7.6438464933e+00    0.1645314    0.1167468 -27.71 0.0005911749    1.112    0.101
       248  -8.2475    128.1392    158.8678   6.3666783402e+01   2.3965419777e+01    0.2115813    0.1879861  72.59 0.0005559645    1.307    0.235
       249  -9.4945    105.7766    157.8246   6.9173642236e+01   2.7844503486e+01    0.4434774    0.2867769  68.17  0.001221819    2.176    0.540
       250  -7.6068    242.2881    159.7019   4.2816001086e+01   6.9281160381e+00    0.1000599   0.07818661 -44.32 0.0002644934    1.555    0.357
       251  -8.4457    196.6978    157.8559   4.9381127384e+01   1.3280205644e+01    0.2152966    0.1534772 -48.16 0.0007457489    1.556    0.357
       252  -8.1156    188.3796    157.7048   5.0805519763e+01   1.4538214726e+01    0.2356769    0.1100546 -44.26 0.0006857687    2.072    0.517
       253  -9.1658    167.6351    157.1581   5.4620396811e+01   1.7850207583e+01    0.3048205    0.2516027  87.10  0.001102825    1.854    0.461
       254  -7.8611     79.3657    158.2704   7.6623699164e+01   3.1806667779e+01    0.2053416    0.1737273   3.19 0.0005889184    1.396    0.284
       255  -9.2182     81.8921    154.8525   7.5364941844e+01   3.2273913850e+01     0.510738    0.2702735  61.88  0.001368073    2.580    0.612
       256  -8.4924    218.0168    156.4349   4.5679276382e+01   1.0492182987e+01    0.2264555    0.1400718 -45.56 0.0007241024    1.719    0.418
       257  -9.1851     50.1028    155.2657   8.5079777159e+01   3.6495493953e+01    0.5577203    0.2008865  51.78  0.001827571    3.016    0.668
       258  -9.0392    157.5706    155.7370   5.6408316570e+01   1.9740374231e+01    0.2534251    0.2206767 -64.54 0.0009551205    1.378    0.274
       259  -9.2106    119.4740    154.8258   6.5069819564e+01   2.6274187407e+01    0.4034177    0.2711534 -84.79  0.001197096    2.348    0.574
       260  -9.3138    242.9393    154.6734   4.1827987613e+01   7.5192408010e+00    0.1483938    0.1198379 -18.45 0.0004840192    1.092    0.084
       261  -7.8881    204.6468    155.2257   4.7554426389e+01   1.2543750008e+01    0.1697963   0.09898108 -30.47 0.0005194098    1.520    0.342
       262  -8.7181    144.6704    154.5337   5.8983000886e+01   2.2111488781e+01    0.2615917    0.2094398 -83.42  0.001076335    1.740    0.425
       263  -9.4758     68.1118    153.4883   7.9279053138e+01   3.4607637413e+01    0.5046145    0.2639086  63.90  0.001561129    2.486    0.598
       264  -9.6187    132.8471    152.7578   6.1382625648e+01   2.4469433024e+01     0.426639    0.3210479  75.89  0.001270996    1.894    0.472
       265  -9.2342    133.4190    147.8197   6.0276994488e+01   2.5415588700e+01     0.320728    0.2097117 -41.21   0.00103534    1.548    0.354
       266  -8.0539    232.7444    153.5739   4.3008371167e+01   8.9523337899e+00    0.1277194    0.1126698  44.81 0.0006127924    1.580    0.367
       267  -9.5616     29.2060    150.0202   9.1225628739e+01   4.0171693087e+01    0.5962794    0.1955247  59.34  0.001870957    3.721    0.731
       268  -8.3391     20.4058    152.3210   9.4255300376e+01   4.0380761652e+01     0.194617    0.1187341  81.03 0.0008281645    1.547    0.354
       269  -8.8630      3.0851    150.6375   9.9709012136e+01   4.2170465666e+01    0.4124572    0.1481313  78.94  0.001564328    2.705    0.630
       270  -9.0843    243.2782    149.7626   4.0891287574e+01   8.1361435662e+00    0.2501903    0.1213093 -37.45 0.0009908784    1.668    0.401
       271  -9.0007    189.5207    150.0254   4.9111145019e+01   1.5646058595e+01    0.2804836    0.1986148 -59.11  0.001012382    1.913    0.477
       272  -8.2711    182.3953    151.1503   5.0616273374e+01   1.6570164665e+01    0.1840361    0.1133269 -49.99 0.0007980595    1.771    0.435
       273  -8.4200    162.4399    150.5695   5.4378782505e+01   1.9912878424e+01    0.2595018     0.189383 -74.64 0.0009094477    2.180    0.541
       274  -8.5819     98.3926    150.6713   6.9938255465e+01   3.0709014394e+01    0.3095715    0.2205322  69.89 0.0009528171    1.726    0.421
       275  -9.3874    248.9063    149.0881   4.0048459363e+01   7.5304164128e+00    0.2660365    0.1256586 -33.70  0.000808594    1.621    0.383
       276  -8.2527    212.9308    149.6768   4.5178226688e+01   1.2211538020e+01     0.158373    0.1411387 -14.70 0.0004439083    1.124    0.110
       277  -8.4713    198.8579    149.0045   4.7307313717e+01   1.4384147521e+01    0.1849245    0.1565339 -47.43 0.0006054225    1.329    0.247
       278  -9.7827     89.3616    146.2470   7.1744717701e+01   3.3238939193e+01    0.6831617     0.380623  84.46  0.002284857    3.531    0.717
       279  -9.8185     39.9616    147.6923   8.7479453478e+01   3.9666117421e+01    0.6004912    0.2324649  53.87  0.001928888    2.758    0.637
       280  -9.2785    233.4921    147.5046   4.1777901492e+01   9.7039235190e+00    0.2102816    0.1546363 -26.09 0.0006490202    1.062    0.058
       281  -8.4345    223.1810    146.6566   4.3067203862e+01   1.1220340471e+01    0.1982347    0.1329251 -38.04 0.0003781807    1.310    0.237
       282 -10.5565    148.7451    144.8793   5.6145238636e+01   2.3352093401e+01    0.5625431    0.4063177  89.29  0.001487039    2.374    0.579
       283  -8.5799    149.9916    136.2485   5.4050800597e+01   2.4865766158e+01    0.4552926    0.2708317  -7.27  0.001527094    4.043    0.753
       284 -10.1986    106.6295    143.9619   6.6408311601e+01   3.0922427452e+01    0.7934726    0.4935751  78.71  0.002419201    2.837    0.647
       285  -8.7104     77.9446    146.9302   7.5277019401e+01   3.4845879682e+01    0.2443423    0.1667591  65.26 0.0007416026    1.644    0.392
       286  -9.6670     13.6990    146.1259   9.6027333468e+01   4.2585811397e+01    0.4638706    0.2035317  51.76  0.001501524    2.043    0.510
       287  -7.8211    206.4789    146.4857   4.5569756462e+01   1.3643747727e+01    0.1252048    0.1044793 -23.92 -1.258543e-05    1.014    0.013
       288  -8.1326    175.7678    146.0091   5.0824759626e+01   1.8541791417e+01    0.2023464     0.151002 -68.40 0.0007579238    1.951    0.487
       289 -10.0332    139.0681    144.7583   5.8321402305e+01   2.5072589665e+01    0.3930695    0.2823397 -84.61  0.001543583    2.205    0.547
       290  -9.6284    241.0918    144.4027   4.0185754024e+01   9.1413043631e+00     0.319906    0.1866377  -2.70   0.00172212    2.461    0.594
       291  -8.9629    242.3665    138.6992   3.8952205490e+01   9.7559861447e+00    0.3267535    0.1680339 -56.00  0.001406847    4.129    0.758
       292  -9.7720    125.0842    142.4288   6.1238182480e+01   2.8046270637e+01    0.5151849     0.343219 -85.26  0.001347648    2.536    0.606
       293  -8.6332    247.1260    143.7021   3.9286452693e+01   8.4664208530e+00    0.2137924    0.1245533 -29.18 0.0005439839    1.324    0.245
       294  -8.7225    165.5784    143.7502   5.2355199650e+01   2.0663419052e+01    0.2502723    0.2132375 -62.32 0.0007530436    1.378    0.274
       295 -10.6034     69.5997    140.7010   7.6866933436e+01   3.7689428211e+01    0.8488838    0.4478795  73.88  0.002945377    3.048    0.672
       296  -9.7826     69.9793    133.8296   7.5585650440e+01   3.9433156486e+01     0.379332    0.2193059  17.55  0.001500084    2.274    0.560
       297 -10.3890     55.2820    144.7701   8.2106406040e+01   3.8598262263e+01    0.9278164    0.3828694  62.07  0.002856458    3.777    0.735
       298  -8.2605    182.2661    141.4421   4.8679487309e+01   1.8277980950e+01    0.2149648    0.1516241 -56.80 0.0007325264    1.719    0.418
       299  -9.4627      2.6579    141.3361   9.9447197761e+01   4.4658012178e+01    0.4471547    0.1943384  63.46  0.001520577    2.099    0.524
       300  -8.0106    250.4879    140.5242   3.8284551701e+01   8.4667340504e+00    0.1139321    0.0848915 -26.38 0.0008100373    1.013    0.013
       301  -9.8823     23.4508    138.0107   9.2104347418e+01   4.3951230939e+01    0.5968797    0.2253307  57.79  0.001896576    2.816    0.645
       302  -7.7626    218.5771    138.5046   4.2150842813e+01   1.3087297849e+01    0.1230157   0.09912959 -29.28 0.0001804819    1.044    0.042
       303  -8.5620    207.7874    137.6069   4.3595086547e+01   1.4843177458e+01     0.239727    0.1428929 -48.98 0.0008594445    1.806    0.446
       304  -8.7500    197.5169    137.1958   4.5156000762e+01   1.6518947337e+01    0.2717617     0.177792 -54.56 0.0008868866    1.855    0.461
       305  -8.8592    248.5044    134.9391   3.7483617726e+01   9.4648188599e+00    0.2428036    0.1141747 -37.55 0.0007629913    1.655    0.396
       306  -8.6518    172.3176    137.8480   4.9792156825e+01   2.0600524439e+01     0.248814     0.194419 -62.82 0.0007202605    1.574    0.364
       307  -8.5704    162.5126    136.1356   5.1371367117e+01   2.2638370134e+01    0.2085277    0.1865906 -69.32   0.00061737    1.300    0.231
       308  -7.8802    109.9811    137.0000   6.4098784828e+01   3.1972776719e+01     0.244663   0.08426726  37.62 0.0007953929    2.894    0.654
       309 -10.0269     56.4430    135.3749   8.0366200966e+01   4.0951530325e+01    0.5070251    0.2720807   6.09  0.001762279    3.266    0.694
       310  -9.2521     39.1808    135.8254   8.6382551874e+01   4.2956498114e+01    0.3180429     0.215882  61.41 0.0008473386    1.436    0.303
       311 -10.2858     83.5055    132.9877   7.1083464200e+01   3.7519027493e+01    0.5425717    0.3480053 -79.51  0.001434314    1.880    0.468
       312  -8.5811    179.2368    133.6239   4.7589983236e+01   2.0170564270e+01    0.2698221    0.1896071 -59.37 0.0008212248    1.760    0.432
       313  -8.9846    112.8761    133.1384   6.2497705367e+01   3.2354680591e+01    0.3753216    0.2517096  70.20  0.001000013    2.092    0.522
       314  -7.9574    237.4475    133.2828   3.8544600287e+01   1.1168240340e+01    0.1638536   0.08877338 -41.39 0.0007072365    1.598    0.374
       315  -7.7106    231.4799    133.5589   3.9378384195e+01   1.1960140338e+01    0.1200488   0.09418247 -25.46 3.628724e-05    1.028    0.027
       316 -10.4434    132.4612    130.6599   5.6892357850e+01   2.9277382010e+01    0.6865155    0.4540769 -64.38  0.002023453    1.824    0.452
       317  -9.1647    143.1976    131.5823   5.4555071173e+01   2.7070183510e+01    0.2917753    0.2306923 -84.60 0.0008419329    1.685    0.407
       318 -10.5458     60.4754    125.2761   7.7317470815e+01   4.3115789779e+01    0.8447044    0.4443789  70.57   0.00291677    2.824    0.646
       319  -8.9928    250.7197    129.0775   3.6112625388e+01   9.9615001578e+00     0.440818   0.07403024 -36.25  0.001527241    4.325    0.769
       320 -10.0826     12.8333    128.7589   9.5133916167e+01   4.7369810175e+01    0.6622329    0.2434511  64.06  0.001960473    2.956    0.662
       321  -8.4304    246.9637    129.8277   3.6699879048e+01   1.0356977484e+01    0.2026772    0.1256214 -33.47 0.0006763717    1.226    0.184
       322  -8.0476    204.7782    129.9912   4.2498308300e+01   1.6527100721e+01    0.2026128    0.1302298 -56.07 0.0006923158    1.963    0.491
       323  -8.3233    192.8328    130.1397   4.4457770476e+01   1.8462045005e+01    0.1957534    0.1629852 -46.70 0.0005050102    1.212    0.175
       324  -9.3340    168.3117    129.2247   4.8702914591e+01   2.2905932167e+01     0.286586    0.2183875 -63.74 0.0005978969    1.593    0.372
       325  -9.4104    152.9718    128.9048   5.1783170550e+01   2.5791021474e+01    0.3862143    0.2392749 -57.89 0.0009455473    1.881    0.468
       326  -9.3836     97.9881    128.0832   6.5657556261e+01   3.6260415579e+01    0.6920183    0.2197393 -56.71  0.002103982    3.258    0.693
       327  -9.8329     73.0688    129.0093   7.3694137732e+01   4.0226872216e+01    0.4092658    0.2736703  72.95  0.001026153    1.805    0.446
       328  -7.9615    220.6261    129.7321   4.0101700943e+01   1.4104224014e+01    0.1205603   0.08627392  -0.85 0.0006992407    1.674    0.403
       329  -8.2029    211.5102    128.9945   4.1268473629e+01   1.5617210386e+01    0.1928362    0.1045149 -39.27 0.0008360426    1.555    0.357
       330  -7.9919    186.4766    129.5097   4.5409157388e+01   1.9648046722e+01    0.1335751    0.1178793 -36.16 0.0001276469    1.061    0.057
       331 -10.7633     45.2806    123.6189   8.2527079561e+01   4.5598028478e+01     1.349255    0.5744208  68.78    0.0039098    4.185    0.761
       332  -7.9162      1.3593    129.7038   9.9352765644e+01   4.7876360146e+01    0.1548784   0.08197202  53.83 0.0007033034    1.704    0.413
       333  -9.9244    117.9686    124.5533   5.9221978374e+01   3.3392475122e+01    0.6518144    0.4733169 -76.79  0.001960749    1.736    0.424
       334  -8.9076    179.4296    124.6469   4.5594241686e+01   2.1740368876e+01     0.253308    0.2054774 -58.29 0.0007843351    1.365    0.267
       335 -10.5577     28.0860    120.5028   8.8595544622e+01   4.8361647365e+01     1.126942    0.4796508  83.02  0.003856584    2.979    0.664
       336  -7.8957    188.5069    123.5200   4.3754211904e+01   2.0330751786e+01    0.1343055    0.1176082 -36.28 -2.361164e-05    1.041    0.039
       337  -9.4441    158.7614    121.4078   4.8847766609e+01   2.6177294846e+01    0.4010947    0.2583531 -70.47  0.001206612    2.473    0.596
       338  -8.6070     84.9280    122.3509   6.8478036784e+01   4.0001765522e+01    0.4448644    0.2506919  17.99  0.001595218    2.764    0.638
       339  -8.4477    172.0083    121.4286   4.6239087826e+01   2.3677696520e+01    0.2146854    0.1702891 -41.05 0.0004318166    1.147    0.129
       340 -10.1250    131.1889    118.2923   5.4341843711e+01   3.2216291853e+01    0.6043998    0.4097712 -82.11  0.002236677    2.327    0.570
       341  -9.8170    141.7679    118.4308   5.1849482803e+01   3.0088397451e+01    0.4733028    0.3223256 -72.73  0.001304015    2.074    0.518
       342  -9.6948     71.1593    119.2656   7.2439644588e+01   4.3104394290e+01     0.447935      0.27205 -83.26   0.00159191    2.068    0.517
       343  -9.7718      2.8094    116.6155   9.8093696873e+01   5.1390374400e+01    0.6537506    0.2421731  68.79  0.002377639    2.781    0.640
       344  -7.9866    231.5039    117.4537   3.6154586491e+01   1.4278994748e+01    0.1222691   0.09563607 -37.44 0.0002986701    1.099    0.090
       345  -8.0800    185.6065    115.7720   4.2511236350e+01   2.2188674613e+01    0.1927515    0.1131863 -46.85 0.0004423205    1.601    0.376
       346  -9.9835    109.3109    114.1789   5.9160350986e+01   3.7491096759e+01    0.5017489     0.341323 -74.97  0.001433028    1.883    0.469
       347 -10.2156     92.7758    112.3924   6.3707596174e+01   4.1108552737e+01    0.6581814    0.4056605 -71.74  0.001363678    1.990    0.497
       348  -8.7690     93.4744    104.4932   6.1518561171e+01   4.2935583879e+01    0.2674011    0.1557193  27.90 0.0007624841    2.220    0.550
       349  -8.7443    249.8937    114.8517   3.3462209875e+01   1.1984066905e+01    0.1736544    0.1315768 -17.61  0.001167845    1.260    0.206
       350  -8.1444    193.1430    115.1380   4.1121721873e+01   2.0939705652e+01    0.1821467    0.1396373 -51.07 0.0004071674    1.303    0.232
       351  -8.9742     58.9736    115.0085   7.5961263290e+01   4.6120308328e+01    0.2519452    0.1833573 -30.51 0.0009790494    1.751    0.429
       352  -8.2304    167.1888    114.1564   4.5463426027e+01   2.5943127242e+01    0.2108337    0.1871976 -19.00 0.0005974112    1.166    0.143
       353  -9.9837     78.9168    112.2643   6.8250740766e+01   4.3648910288e+01    0.5963853    0.3905563  80.44  0.001900222    2.102    0.524
       354  -9.7905    133.7549    109.4832   5.1534392425e+01   3.3601035104e+01    0.6122547    0.3039327 -53.57  0.002319946    2.136    0.532
       355  -9.7169    121.9467    112.4099   5.5255351499e+01   3.5373862899e+01    0.3378509    0.2881744  84.42 0.0006587544    1.315    0.239
       356  -8.5915    174.7632    111.6457   4.3454111018e+01   2.4947710163e+01    0.2811098    0.1664489 -48.90 0.0006630831    1.634    0.388
       357  -9.1265    159.2657    111.6244   4.6416546386e+01   2.7979411546e+01    0.2867907     0.216943 -70.33 0.0007415579    1.624    0.384
       358  -9.7613     66.6046    110.4709   7.2215862426e+01   4.6178299683e+01    0.4446465     0.288947  75.96  0.001287957    1.972    0.493
       359  -9.7105     14.3687    110.7972   9.2989957611e+01   5.2263041774e+01    0.5048228    0.2315251  77.47  0.001443079    2.348    0.574
       360 -10.9924    248.6952    105.8068   3.1801735101e+01   1.3373961085e+01     0.779388    0.2375611 -30.05  0.003164601    3.138    0.681
       361  -7.6492    149.6880    110.2867   4.8089945799e+01   3.0168720541e+01    0.1447259    0.1143235 -80.79 0.0006993091    1.579    0.367
       362  -7.6011    183.0000    109.0492   4.1397612258e+01   2.3843617463e+01    0.2295173   0.07032629 -39.15 0.0007017835    2.873    0.652
       363  -8.0884    189.4309    107.4832   3.9968272943e+01   2.2909616890e+01    0.2394034    0.1071081 -46.72   0.00100765    2.120    0.528
       364  -8.2725      4.9826    109.0000   9.6705911255e+01   5.3385342677e+01    0.2179979   0.08130871  14.10 0.0008074818    2.978    0.664
       365  -9.2144    110.3146    106.6738   5.6982650848e+01   3.9052816004e+01    0.3020318     0.194939  20.15  0.001166053    2.418    0.587
       366  -9.3443    139.8778    104.4477   4.8793683985e+01   3.3387137859e+01     0.376786    0.2744637 -85.34 0.0008556301    1.896    0.473
       367 -10.8546    108.7421     98.5962   5.5276968740e+01   4.1253370507e+01    0.8750367    0.4837992  67.83  0.001216734    3.092    0.677
       368  -9.0401    107.8716     92.1880   5.3723319788e+01   4.2907499541e+01    0.5579655     0.312622  31.96  0.002081853    2.426    0.588
       369 -10.6032     45.8452    102.1811   7.8582154268e+01   5.1472145040e+01    0.9758475    0.4568939  64.56  0.003114491    3.396    0.706
       370  -9.1565     46.1606     92.1816   7.6330890229e+01   5.4182649713e+01     0.520072    0.3075233  -2.52  0.001899809    2.941    0.660
       371 -10.8123     22.9736    102.5699   8.8387677533e+01   5.3882089459e+01    0.8802756    0.3872277  60.07  0.002177621    2.695    0.629
       372  -8.6713    166.8455    104.1773   4.3104951459e+01   2.7872664824e+01    0.2492032    0.1756698 -52.48 0.0007237393    1.393    0.282
       373  -9.5517    150.6881    102.9122   4.6008855306e+01   3.1432396455e+01    0.4694189     0.277077 -64.88  0.001695551    2.407    0.584
       374  -8.5694     78.4013    104.7314   6.6647404860e+01   4.5692849811e+01    0.2564245    0.2054644  -0.17  0.001023043    1.681    0.405
       375 -10.2527    128.4762    101.8246   5.0838051338e+01   3.6352362769e+01    0.4068829    0.3104167 -65.69  0.001004322    1.417    0.294
       376  -8.9272      6.7861    102.8463   9.5449742252e+01   5.5001900451e+01    0.2909602    0.1658311  70.91 0.0008862203    1.713    0.416
       377  -8.0182    175.5607    101.7582   4.0926875068e+01   2.6570339402e+01    0.1992589    0.1188853 -48.64 0.0006307942    1.586    0.370
       378  -8.4507    159.9370    100.9261   4.3613461145e+01   2.9892918346e+01    0.2282057    0.1680053 -69.66 0.0005542455    1.639    0.390
       379  -9.3197     82.1671     99.9475   6.4118496324e+01   4.6229996514e+01    0.4126105    0.2689712 -79.57 0.0009601624    1.987    0.497
       380  -9.1113     95.0158     96.8890   5.8993941974e+01   4.4487072869e+01     0.328903    0.2451188 -68.96 0.0005869286    1.438    0.305
       381 -10.1558     63.8918     95.6512   6.9793405427e+01   5.0570169089e+01    0.6735958    0.3965842  88.21  0.001496112    2.681    0.627
       382  -8.3182     64.0318     87.8187   6.7682435670e+01   5.2602353694e+01    0.3435635    0.2331875 -24.82  0.001285448    2.136    0.532
       383  -8.2168    164.8830     94.0970   4.0910990847e+01   3.0134541284e+01    0.2244692    0.1791899 -62.02  0.000504315    1.288    0.223
       384  -8.2248    151.2203     94.5957   4.3712156577e+01   3.2946854459e+01     0.201048    0.1397108  40.03  0.000651403    1.663    0.399
       385  -8.9010    120.4188     92.7970   5.0415687763e+01   4.0047531951e+01    0.3329749    0.2436313 -32.62  0.001523152    1.537    0.349
       386  -9.7712    124.5712     90.6925   4.8737316141e+01   3.9585261911e+01    0.4391666    0.3338127 -79.79  0.001032703    1.582    0.368
       387  -9.9903    247.6942     92.3581   2.9180665007e+01   1.5332029361e+01    0.2537737     0.189497   7.62  0.001646242    1.866    0.464
       388  -8.2519    176.0323     92.9952   3.8659928664e+01   2.8022481664e+01    0.2245012    0.1568025 -65.20 0.0005798345    1.674    0.403
       389  -9.2217    139.0514     91.9687   4.5624304858e+01   3.6117923162e+01    0.3994502    0.2706102 -71.08 0.0007987225    1.906    0.475
       390  -8.1232    158.0321     91.6894   4.1572756444e+01   3.2034357356e+01    0.1958875    0.1829333 -80.90 0.0004475364    1.103    0.093
       391  -8.9925     22.4564     90.5373   8.6837000373e+01   5.7312229453e+01    0.3973144    0.2376689 -46.24  0.001317595    1.746    0.427
       392  -9.8435      4.8803     90.9732   9.5227975278e+01   5.8433574565e+01    0.5084389    0.2552618  75.18  0.001812755    2.035    0.509
       393  -9.5115     34.8032     89.4755   8.0859113975e+01   5.6352893379e+01    0.5096526    0.2797126  83.47  0.001786715    2.374    0.579
       394  -7.2459    183.2955     89.6903   3.6645572508e+01   2.7114920296e+01    0.1406808   0.09816786 -62.51 0.0002827714    1.592    0.372
       395  -8.0239    150.9983     88.9878   4.2235779016e+01   3.4071961151e+01    0.2353862    0.1698218 -70.21 0.0003867702    1.638    0.389
       396  -8.5056    245.0000     87.9775   2.8543083116e+01   1.6332997861e+01    0.2043621    0.0523209 -34.17 0.0007565614    2.941    0.660
       397 -10.1943     86.4461     85.8556   5.8671889741e+01   4.8885777103e+01    0.6903366    0.4238104 -67.43  0.001759933    1.956    0.489
       398  -7.9574    163.8628     86.8345   3.9181653034e+01   3.1669970643e+01    0.2012763    0.1561712 -60.42 0.0003750978    1.294    0.227
       399  -9.8938     48.6655     84.2298   7.3299164624e+01   5.5982718095e+01    0.6558099    0.3708194  72.31  0.002032443    2.773    0.639
       400  -9.7955    104.8860     83.0361   5.1867132843e+01   4.5618530477e+01    0.5123377    0.3499811 -81.54  0.001146572    2.057    0.514
       401  -8.2841    158.0080     83.5030   3.9354955660e+01   3.3549518153e+01    0.2296134    0.1792174 -46.34 0.0003744247    1.164    0.141
       402  -9.2653    140.7701     82.5126   4.2551828635e+01   3.7602073819e+01    0.3355185    0.2237929 -55.96 0.0007389997    1.520    0.342
       403  -7.9253     64.1785     82.2560   6.6044673708e+01   5.4010500291e+01     0.219292    0.1767332  85.61   0.00078714    1.381    0.276
       404  -9.5831     24.7105     80.3561   8.3917605478e+01   5.9937384939e+01    0.5544133    0.2997391  77.82  0.001758234    2.358    0.576
       405  -9.1389      9.7974     80.8576   9.1642274753e+01   6.0971471195e+01    0.4242986    0.1813559  53.27  0.001390225    2.621    0.619
       406  -8.8674     74.6828     80.1065   6.1204278498e+01   5.2613910689e+01    0.3879578    0.2492749 -79.73   0.00102476    2.197    0.545
       407  -7.9231    188.7455     93.0199   3.6625558023e+01   2.5474455263e+01    0.1847714    0.1036889 -38.46 0.0006409209    1.536    0.349
       408  -8.2506    150.0856     80.1019   3.9925250726e+01   3.5944275233e+01    0.2418756    0.1696446 -69.21   0.00111644    1.661    0.398
       409  -8.6632    119.1503     79.8291   4.6890451481e+01   4.3092040866e+01     0.283034     0.196873 -57.73  0.001012283    1.471    0.320
       410  -8.1603    166.9061     79.3350   3.6619307230e+01   3.2333656859e+01    0.1945329    0.1771756 -51.66 0.0005316067    1.031    0.030
       411  -7.8974    184.3407     78.1661   3.3554050982e+01   2.8806219923e+01    0.2069986    0.1064279 -44.38 0.0007829955    1.683    0.406
       412  -8.5984     50.4905     77.2218   7.0560658137e+01   5.7562960761e+01    0.4523109    0.2011635  19.83  0.001413165    3.664    0.727
       413  -7.9157    157.1420     76.1751   3.7461969648e+01   3.5058857715e+01     0.208625    0.1592036 -65.16 0.0004820129    1.349    0.259
       414  -8.6188    140.4179     75.2081   4.0465877883e+01   3.9074883690e+01    0.2678639    0.1714865 -48.61 0.0006280584    1.473    0.321
       415  -9.3250    128.1423     75.1715   4.3202885160e+01   4.1948248108e+01    0.3789541    0.2445947 -62.37  0.000849326    1.763    0.433
       416  -8.7603    106.2885     76.4338   4.9361435416e+01   4.6747570493e+01     0.308104    0.1365198  36.71 0.0009597681    3.333    0.700
       417  -9.8973     63.3115     73.5488   6.3728384271e+01   5.6354741006e+01    0.5031127    0.3000666 -69.96  0.001142414    2.041    0.510
       418  -8.1795    163.5383     73.3164   3.5526535508e+01   3.4115774380e+01    0.2693343    0.1230596 -42.41  0.000970814    1.936    0.483
       419  -9.7080     82.4622     72.3917   5.5776943568e+01   5.2879374352e+01     0.544549    0.3252406 -67.49  0.001375505    2.190    0.543
       420  -8.1859     83.0189     65.4804   5.3146928606e+01   5.4315721044e+01    0.3647437    0.2368535   0.29  0.001157796    3.973    0.748
       421  -8.7603    115.6458     72.5607   4.5497943422e+01   4.5396350975e+01    0.2948608    0.1816503 -48.34 0.0005547254    1.573    0.364
       422  -8.5205     42.4632     72.2267   7.2970769834e+01   6.0045594736e+01    0.3357615    0.1500018 -72.97    0.0011267    2.924    0.658
       423  -7.5306    175.3586     72.2747   3.3337728601e+01   3.1676431591e+01    0.1337643    0.1098858  18.97 0.0007004964    1.654    0.395
       424  -9.0705    105.8130     71.4850   4.7866475362e+01   4.7904952041e+01    0.3005781     0.227884 -73.59  0.000721174    1.502    0.334
       425  -9.2175     95.1883     71.0217   5.0956048759e+01   5.0421646743e+01    0.4244758    0.2520648 -62.12  0.001037043    2.021    0.505
       426  -9.4914     51.4170     69.4144   6.7755627517e+01   5.9421897634e+01    0.4894122      0.27793 -73.28  0.001304946    2.239    0.553
       427  -9.0456     28.9336     70.2913   7.9467212405e+01   6.2245221089e+01    0.3844311      0.19183 -31.99   0.00141181    2.820    0.645
       428  -8.9575     16.7389     69.7592   8.6072629854e+01   6.3538341753e+01     0.288837    0.1994843  74.27  0.000902657    1.577    0.366
       429  -8.9028    147.2222     67.9533   3.6901666380e+01   3.8800657746e+01    0.3015607    0.1768733 -50.20 0.0006078554    1.631    0.387
       430  -7.9721    163.7237     66.3372   3.3512855165e+01   3.5246476580e+01    0.1518613    0.0990524 -61.38  0.000699905    1.611    0.379
       431  -8.5599    138.7701     65.9062   3.7943890654e+01   4.1169573109e+01    0.2897207     0.180902 -55.56  0.000595401    1.633    0.388
       432  -8.7915    121.6678     65.6437   4.1681395619e+01   4.5325839744e+01    0.3128123    0.2111572 -58.76 0.0006621238    1.553    0.356
       433  -8.8700     37.3470     63.9713   7.3157970276e+01   6.2885674244e+01    0.3664861    0.2345518  84.49  0.001093296    2.176    0.540
       434  -8.8682    110.0701     63.4826   4.3921846000e+01   4.8524271172e+01    0.2914518    0.2009298 -58.69 0.0006849484    1.522    0.343
       435  -8.5021     65.1979     62.4009   5.9053895707e+01   5.8674403003e+01    0.3505691     0.226883  14.81  0.001352763    2.570    0.611
       436  -7.8245    158.2689     61.6355   3.3034367634e+01   3.7279632570e+01    0.1557563   0.09851301 -60.41 0.0003438782    1.655    0.396
       437  -9.1227     97.6286     60.3908   4.6400633152e+01   5.2084291373e+01    0.3410397    0.2492998  73.20  0.001079366    1.549    0.354
       438  -9.5800     73.3437     59.3354   5.4514023577e+01   5.7725173349e+01    0.4597276     0.268462 -58.33  0.001094144    1.903    0.475
       439  -7.8408    147.1986     58.9854   3.4141579877e+01   4.0343267422e+01    0.1999093    0.1094145 -37.62 0.0003824164    1.717    0.418
       440  -7.9947     89.1484     59.2353   4.8689300544e+01   5.4281364538e+01    0.2155362    0.1766637 -80.95 0.0004893162    1.353    0.261
       441  -8.2593    130.9825     57.4813   3.6825946066e+01   4.4544600792e+01     0.298525    0.1855146 -54.07 0.0009099435    1.619    0.382
       442  -9.8318     23.4828     56.1853   7.8795600048e+01   6.6532916055e+01    0.5127841    0.2841349  73.96  0.001827521    2.819    0.645
       443  -9.6114      7.6788     57.0322   8.8991414132e+01   6.7582910620e+01    0.3675593    0.2173404  67.06  0.001183273    1.973    0.493
       444  -8.1606    140.0574     55.9927   3.4511588405e+01   4.2573714442e+01    0.2421485     0.161975 -65.87 0.0004427176    1.632    0.387
       445  -8.7728    119.1115     55.5327   3.8812637920e+01   4.7811130070e+01    0.2960777    0.1918109 -55.97 0.0007060212    1.595    0.373
       446  -8.4754     44.2050     55.4397   6.6550364195e+01   6.4014849572e+01    0.2401412    0.1982211 -82.59 0.0008231843    1.356    0.263
       447  -8.0162    250.6908     55.3222   2.1196383089e+01   1.9637146139e+01    0.1229937   0.06400955 -52.17 0.0002617825    1.647    0.393
       448  -9.5324     62.8430     53.3503   5.6559423357e+01   6.1174443858e+01    0.7295665    0.2224182 -48.49  0.002109959    3.251    0.692
       449  -8.9217     54.1981     53.9383   6.0843540595e+01   6.2678794942e+01    0.3544888    0.2279284 -67.74  0.001146393    1.892    0.471
       450  -7.4110    163.2967     53.2903   2.9764522988e+01   3.7421504202e+01    0.1312745    0.1125893  20.26  0.000209734    1.556    0.357
       451  -8.3465    105.8200     53.0956   4.1297054199e+01   5.1519154216e+01    0.2398224    0.1943811 -68.31 0.0006081192    1.273    0.214
       452  -9.4768     92.5194     50.3900   4.4128368583e+01   5.5235304659e+01    0.4484353    0.2465763 -52.05  0.001147739    1.947    0.486
       453  -8.5844     74.9848     51.5553   5.0747243110e+01   5.9024093569e+01    0.3085089    0.1934784  30.90  0.001273509    2.075    0.518
       454  -8.6976    144.8128     49.3352   3.1479802031e+01   4.2482503127e+01    0.3072251    0.1862141 -33.88  0.000743517    1.628    0.386
       455  -7.9178    129.7033     48.7056   3.4082264966e+01   4.6337101414e+01    0.1416763    0.1179828  25.12 0.0002074521    1.564    0.361
       456  -8.3525    120.8426     47.1533   3.5394038022e+01   4.8815452155e+01    0.2330759    0.1867821 -64.33 0.0007508892    1.228    0.186
       457  -8.3902    112.3206     46.6734   3.7184653841e+01   5.1036438600e+01    0.2759555    0.1615983 -48.41  0.000670432    1.692    0.409
       458  -8.9127     82.1664     46.1964   4.5820358716e+01   5.8458970164e+01    0.3091424    0.2306461 -58.23 0.0007299551    1.424    0.298
       459  -8.3264     45.0035     44.3588   6.1586436602e+01   6.6445948401e+01    0.2393792    0.1939284 -64.89 0.0006362073    1.322    0.244
       460  -8.9889     16.5675     44.1073   7.9630534994e+01   7.0262615926e+01    0.2767196    0.2101054  76.36  0.001014095    1.564    0.360
       461  -8.3352    132.9294     42.9819   3.1452692358e+01   4.6427341013e+01    0.2487041    0.1582468 -64.37   0.00053999    1.705    0.413
       462  -8.7709     92.7574     42.4312   4.0761213219e+01   5.6614715400e+01    0.2500117    0.1966597  -3.08   0.00107291    1.737    0.424
       463  -9.3148     69.6227     41.2857   4.8364443961e+01   6.2225370397e+01    0.4174702    0.2723275 -63.00  0.001198865    1.936    0.483
       464  -9.0524     58.2087     42.3135   5.3861855295e+01   6.4428086803e+01    0.3696366    0.2455987 -67.44  0.001357619    2.004    0.501
       465  -9.8125      5.3362     41.7838   8.7229115263e+01   7.1672863656e+01    0.3943093    0.2234017  81.08  0.001405261    2.180    0.541
       466  -8.8354    106.0241     41.1958   3.6594680349e+01   5.3525482625e+01    0.3230994    0.1872713 -46.61 0.0007822713    1.711    0.416
       467  -7.5091    140.2775     41.2886   2.9571488888e+01   4.4832005937e+01    0.1344684    0.1142807  27.44 0.0003206685    1.518    0.341
       468  -8.5495     36.9925     40.5314   6.4539872329e+01   6.8596115068e+01    0.2544729    0.2001596 -74.43 0.0006620606    1.494    0.331
       469  -8.6661     95.8026     38.0841   3.8016675885e+01   5.6593022899e+01    0.2328613    0.1890788 -68.99 0.0005205525    1.289    0.224
       470  -8.3261     80.7273     36.5729   4.2013320436e+01   6.0522382155e+01    0.2481516    0.1704435 -59.94 0.0005125847    1.673    0.402
       471  -7.6976    133.6916     36.3225   2.8960780090e+01   4.7216736506e+01    0.1571207     0.100352 -64.17 0.0007035499    1.646    0.393
       472  -9.4076     26.2144     34.9340   6.9100663389e+01   7.1386506885e+01    0.3706455    0.2313795 -64.52  0.001036397    1.746    0.427
       473  -8.0298    125.9912     35.2884   2.9961245599e+01   4.9332668562e+01    0.2005266    0.1806395 -85.69 0.0003482935    1.039    0.038
       474  -8.4682    111.8825     34.3422   3.2450114053e+01   5.3094961111e+01    0.2557006    0.1863504 -52.41  0.000555116    1.350    0.259
       475  -8.7481     48.5735     33.1510   5.4183010836e+01   6.8134040579e+01    0.2502324    0.2141671  82.58 0.0006248808    1.416    0.294
       476  -8.3565    119.1839     33.1768   3.0465021772e+01   5.1384726813e+01    0.2143926    0.1567126 -61.20 0.0005906625    1.365    0.267
       477  -8.7993     60.5163     32.0717   4.7720189775e+01   6.5902755652e+01    0.2890112    0.2226572 -65.47 0.0008111899    1.546    0.353
       478  -8.5977     72.2766     31.1432   4.2406212176e+01   6.3421724096e+01    0.2564664    0.1837873 -88.28 0.0005302868    1.876    0.467
       479  -8.8258     13.0312     30.4699   7.7313817677e+01   7.3876364224e+01    0.2402891     0.184504 -86.11 0.0007055246    1.538    0.350
       480  -8.3841    181.9475     29.7813   2.0675559712e+01   3.6329856178e+01     0.177643    0.1743229 -86.34 0.0004336661    1.256    0.204
       481  -8.3333    101.5170     29.0373   3.2605464099e+01   5.6522591989e+01    0.2164236    0.1411532 -36.27 0.0006652449    1.544    0.352
       482  -8.8911     81.5486     27.1147   3.7198192114e+01   6.1829973107e+01    0.3184299    0.2183869 -61.52 0.0008340718    1.700    0.412
       483  -8.9241      3.8777     27.6669   8.4238305897e+01   7.5232600313e+01    0.2442666    0.1838592 -80.04 0.0008115378    1.401    0.286
       484  -7.9928    109.9975     27.0081   2.9844846110e+01   5.4614029135e+01    0.1765416    0.1629141 -65.43 0.0004672783    1.051    0.048
       485  -9.0063     91.7536     26.1386   3.3764654566e+01   5.9421519561e+01    0.3318596    0.1952896 -52.64 0.0009194724    1.858    0.462
       486  -8.1304    104.3888     22.7557   2.9206929041e+01   5.6627289043e+01    0.1856055    0.1420567 -17.26 0.0005719134    1.527    0.345
       487  -8.0483    184.0012    250.0000   6.5903760823e+01   1.6514981564e+00    0.1688366    0.0477331  28.69 0.0008007945    2.931    0.659
       488  -7.6080    120.5243     20.9909   2.5423372370e+01   5.2638944475e+01    0.2174952   0.09081272 -50.31 0.0008085697    2.493    0.599
       489  -8.7840     63.7793     20.9401   4.0210097505e+01   6.6986469517e+01    0.2554795    0.1853696 -54.66 0.0007099126    1.558    0.358
       490  -7.8090     19.6969     21.3059   6.7087935768e+01   7.5181396187e+01    0.1263498    0.1040073  68.87 0.0003468627    1.599    0.375
       491  -8.8121     74.1534     19.1662   3.5452921824e+01   6.4766371147e+01    0.3164055    0.2078064 -48.50 0.0008310032    1.635    0.388
       492  -8.2452     87.5953     17.3178   3.0582774350e+01   6.1639046463e+01    0.2560491    0.1280544 -34.86 0.0006717846    1.997    0.499
       493  -8.2484     38.5515     18.0190   5.1061298057e+01   7.2790281932e+01    0.1977895    0.1308356 -40.22  0.000427645    1.536    0.349
       494  -7.5708    112.5589     16.5784   2.4969448597e+01   5.5239965339e+01    0.1430572    0.1273218 -80.07 0.0001093833    1.027    0.026
       495  -8.7744     48.3196     21.2670   4.7529781210e+01   7.0321843797e+01    0.2776634    0.2129056 -51.13  0.001031343    1.432    0.302
       496  -7.8829      1.6872     16.3584   8.1891601370e+01   7.7992867508e+01    0.1273947   0.09307051  59.86 0.0007043207    1.744    0.427
       497  -9.0082    175.6790    247.7520   6.7083354109e+01   2.7723314740e+00    0.2222776    0.1777679  47.49  0.001639092    1.961    0.490
       498  -8.2536      7.9635     15.4827   7.4748119120e+01   7.7702506437e+01    0.1768137   0.09313411  45.64  0.000808532    2.426    0.588
       499  -7.7892     16.5543     13.5740   6.4998150641e+01   7.7144738387e+01    0.1257833    0.1184429  -7.98 0.0001842594    1.057    0.054
       500  -8.9652    132.4292    248.0227   7.5222977537e+01   7.3694483878e+00    0.2189472    0.1692178  63.72 0.0008715237    1.959    0.490
       501  -8.2593    113.0201    248.3085   7.9145446350e+01   9.4747924802e+00    0.1856271    0.1416449  57.17 0.0009391278    1.619    0.382
       502  -9.2798    243.1273    245.9186   5.6062045494e+01  -3.3208375882e+00    0.3385391    0.1161721 -26.62  0.001980521    2.664    0.625
       503  -8.8057    218.5179    247.1217   5.9881902383e+01  -1.3098019304e+00    0.2698866   0.08262695 -37.07  0.001464498    3.157    0.683
       504  -8.6290    156.0545    248.0247   7.0687583944e+01   4.7982979460e+00    0.1532367    0.1196278  44.40  0.000628408    1.669    0.401
       505  -9.1032    103.8601    246.7767   8.0887533189e+01   1.0730105633e+01     0.305912    0.1914179 -87.25  0.001759704    2.742    0.635
       506  -7.9624     63.6784    248.3010   8.9504493407e+01   1.4821410251e+01     0.121928   0.06489449  48.54 0.0003475787    1.628    0.386
       507 -10.0987    223.9716    243.8959   5.8618707964e+01  -1.4521424949e+00    0.3526677    0.1817301 -42.20  0.002318353    2.551    0.608
       508  -9.4548    210.9484    246.2406   6.0956792771e+01  -5.1594661620e-01    0.1911003    0.1293481 -39.68 0.0008573412    1.926    0.481
