#   1 NUMBER                 Running object number                                     
#   2 MAG_AUTO               Kron-like elliptical aperture magnitude                    [mag]
#   3 X_IMAGE                Object position along x                                    [pixel]
#   4 Y_IMAGE                Object position along y                                    [pixel]
#   5 X_WORLD                Barycenter position along world x axis                     [deg]
#   6 Y_WORLD                Barycenter position along world y axis                     [deg]
#   7 A_WORLD                Profile RMS along major axis (world units)                 [deg]
#   8 B_WORLD                Profile RMS along minor axis (world units)                 [deg]
#   9 THETA_WORLD            Position angle (CCW/world-x)                               [deg]
#  10 FWHM_WORLD             FWHM assuming a gaussian core                              [deg]
#  11 ELONGATION             A_IMAGE/B_IMAGE                                           
#  12 ELLIPTICITY            1 - B_IMAGE/A_IMAGE                                       
         1 -13.8315    183.3097     53.8152   4.5949642143e+01   3.2479758553e+01     1.544956    0.9026437  33.93  0.004780046    2.597    0.615
         2 -14.2463    203.8134     35.9420   3.8658971347e+01   3.0087161682e+01    0.8359922    0.7301041  57.26  0.001418219    1.295    0.228
         3 -14.1745    227.7517      9.8008   3.0568664762e+01   2.7858780913e+01    0.8506301    0.6869592 -71.16   0.00394001    1.039    0.038
         4 -12.8665     58.7300      3.5358   5.7240786512e+01   6.6710032434e+01    0.4469085    0.2138205  34.99  0.002311013    1.804    0.446
         5 -10.2013     60.2915    218.7988   1.1179918834e+02   2.0427449833e+01    0.3772353    0.1808496  67.65  0.001613864    2.637    0.621
         6 -17.1167     72.7423    150.2170   9.9409826681e+01   3.5313881662e+01     16.85839     8.643915  78.50   0.01179732    5.605    0.822
         7 -13.6019     28.3650    215.7861   1.1844424058e+02   2.4836828525e+01    0.5324774    0.2677188  82.20  0.002133223    2.008    0.502
         8 -11.5331     60.7896    198.3262   1.0951639528e+02   2.5006438982e+01    0.2400714    0.2103397  55.99 0.0005587555    1.095    0.087
         9 -12.9968     49.6320    194.3872   1.1175393157e+02   2.7329600478e+01    0.4296303    0.2983788 -39.94  0.001443584    1.888    0.470
        10 -10.4799     82.5283    194.8912   1.0378784763e+02   2.2803642384e+01    0.3127009    0.2013247  31.18  0.001400956    1.604    0.377
        11 -18.3591     16.6955    232.1587   1.2185134868e+02   2.2566297822e+01     6.375679     4.597607  72.02   0.03896467    1.082    0.076
        12 -11.0298    149.0331    192.0094   8.7032587155e+01   1.2344264405e+01    0.2281848    0.1831039  74.78 0.0006798125    1.683    0.406
        13 -10.8596     33.4748    190.4792   1.1520762321e+02   3.0081352717e+01    0.4654743    0.2931578  70.66  0.002527056    1.534    0.348
        14 -10.2133     21.7302    192.3410   1.1809705707e+02   3.0825609589e+01    0.2250616    0.1157712  45.84  0.001177681    1.816    0.449
        15  -9.7643     72.0714    188.4939   1.0552866150e+02   2.5828131959e+01    0.1937959    0.1314851  38.75 0.0004226765    1.444    0.307
        16 -10.4041     69.7330    184.0110   1.0551740737e+02   2.7239115120e+01    0.2366524    0.1927107  60.10 0.0003736697    1.183    0.155
        17 -13.6243     61.3239    182.6810   1.0748855978e+02   2.8691153765e+01     0.939453    0.7555501 -12.53  0.005095837    1.707    0.414
        18 -11.0292     38.6491    186.1707   1.1354673580e+02   3.0556056097e+01      0.30549    0.2128981 -88.09  0.000919743    1.313    0.238
        19 -10.1514     41.4131    183.7498   1.1261684362e+02   3.0836236948e+01    0.2506746    0.1317717  66.15 0.0005787535    2.148    0.535
        20 -10.8101     50.1726    217.3790   1.1389075463e+02   2.2005971743e+01    0.3859411    0.2452498  17.73  0.002014141    2.182    0.542
        21 -16.8067      1.6659     98.3539   1.1359473061e+02   5.5298534206e+01     13.82285          nan -70.43   0.02137471   17.948    0.944
        22 -11.5345     63.0843    249.8296   1.1399870051e+02   1.3700771362e+01    0.2973323    0.1506115  51.11  0.001621937    1.647    0.393
        23 -11.3943     53.5401    184.0219   1.0962575260e+02   2.9348176271e+01    0.4160042    0.2009444  63.59   0.00167141    2.648    0.622
        24 -11.6920     56.9083    211.2163   1.1180223971e+02   2.2540858467e+01    0.4600776    0.3744278  58.51 0.0006752963    1.090    0.082
        25 -10.9652     55.0091    206.7268   1.1178024642e+02   2.3797124661e+01     0.312389    0.2093733 -87.07 0.0009433702    1.467    0.318
        26 -10.4535     76.2087    210.8951   1.0733748769e+02   2.0036414793e+01    0.3018153    0.1765361 -82.61 0.0009367621    1.999    0.500
        27 -10.0181     58.6037    249.9040   1.1488997281e+02   1.4255007519e+01    0.1722844    0.1297784 -81.66 0.0003739422    1.377    0.274
        28 -10.9519    185.8625    173.1146   7.4886863215e+01   9.4694439821e+00    0.3084816      0.27351  32.92 0.0009899847    1.169    0.145
        29 -10.8757     49.0186    170.8342   1.0916651286e+02   3.3153033231e+01    0.3609063    0.2267231 -38.11  0.001191716    2.041    0.510
        30 -11.6763    247.0145    170.9972   6.2766848325e+01  -5.6562172737e-01     0.193953    0.1599183 -58.90  0.001145977    1.700    0.412
        31 -11.2475     45.6538    166.4370   1.0950138924e+02   3.4645507120e+01    0.3993115    0.1981706 -46.64  0.001725194    2.268    0.559
        32 -10.5604     33.1667    165.8536   1.1274861069e+02   3.6125874219e+01     0.296487    0.1478448  86.74  0.001254574    2.369    0.578
        33 -10.6684     88.2794    209.6710   1.0436543626e+02   1.8566551832e+01    0.2560327    0.1753452 -55.36 0.0009920117    1.563    0.360
        34 -11.0784     37.3049    162.0923   1.1120326835e+02   3.6647497320e+01    0.2868841    0.1989441  -3.01  0.001456662    2.098    0.523
        35 -10.5053     42.0960    208.2782   1.1485561901e+02   2.4994653650e+01      0.31306    0.1629615  82.41  0.001489472    2.124    0.529
        36 -12.9922     92.2497    150.5720   9.3827847211e+01   3.2204478137e+01    0.7445558    0.5623266  -1.36  0.003424983    1.768    0.434
        37 -11.9675    134.2906    147.6089   8.1569830254e+01   2.5171777145e+01    0.7910979    0.2614593 -52.98  0.002301346    3.433    0.709
        38 -11.3935    133.0000    141.0153   8.0383841576e+01   2.6981762869e+01    0.5111589    0.2070479 -53.34  0.001653214    2.731    0.634
        39 -10.7787    111.1921    149.4174   8.8227553883e+01   2.9180313929e+01    0.3597365    0.2462748  71.40  0.001464055    2.101    0.524
        40 -10.1324    174.8905    149.1430   7.2026924487e+01   1.6541590424e+01     0.233375    0.2162697 -77.97 0.0006893585    1.267    0.211
        41 -11.7163    104.7649    137.0611   8.7326675753e+01   3.3409415185e+01    0.5666563    0.3485961 -23.49  0.002108582    2.481    0.597
        42 -11.5159    106.0763    130.8508   8.5498849096e+01   3.4696350575e+01    0.4334874    0.3489897 -61.53    0.0011926    1.290    0.225
        43 -12.4970     92.3627    136.6824   9.0900185045e+01   3.5689737290e+01     0.307252    0.2799853 -26.88 0.0004659004    1.145    0.127
        44 -10.9363    136.0000    129.4464   7.6781144848e+01   2.9057057841e+01    0.3617735   0.09017364 -46.54 0.0009368165    3.952    0.747
        45 -11.3235    113.2135    128.5912   8.2876098473e+01   3.3886314032e+01    0.3415995    0.2797726   6.51 0.0008903305    1.434    0.303
        46 -11.1264    100.2485    124.4928   8.5704564781e+01   3.7328746198e+01    0.3014873    0.2386718 -23.99 0.0005390079    1.417    0.294
        47 -10.9914    118.9532    123.1821   7.9880294037e+01   3.4039267440e+01    0.2667686    0.1888494   7.97  0.001084403    1.986    0.496
        48 -10.0915    108.9205    117.9942   8.1467443431e+01   3.7257889124e+01    0.2295593    0.2223022 -18.71 0.0003794889    1.017    0.016
        49 -10.6529    231.2349    113.8465   5.3140789508e+01   1.2006477136e+01    0.2314918    0.2228673 -22.25 0.0007938229    1.123    0.109
        50 -10.1066    205.3995    110.1864   5.6557879353e+01   1.7906907980e+01    0.2346998    0.2002181  37.27 0.0007643016    1.303    0.233
        51 -11.7753    116.9356    109.2848   7.6790649966e+01   3.7672703848e+01    0.4445687    0.2683694  54.30   0.00176963    1.962    0.490
        52 -10.1509     65.0862    206.6072   1.0943445570e+02   2.2525530751e+01    0.3703115    0.1756663 -82.29  0.001528289    2.673    0.626
        53 -11.2266     58.9437     97.0907   9.2496225131e+01   5.0565548035e+01    0.2867405     0.197234  51.83 0.0009752268    1.853    0.460
        54 -13.1544     47.6201    245.1794   1.1668919691e+02   1.6523622542e+01    0.3787349    0.2266503  57.68  0.002062005    1.397    0.284
        55 -10.0667    156.9842     89.0811   6.0715878006e+01   3.2903406117e+01    0.2512588    0.1886726 -78.38  0.001117144    1.760    0.432
        56 -11.8756    193.0613    195.1308   7.7807507546e+01   3.9660544643e+00     1.016781    0.5161249 -62.14  0.002694891    7.182    0.861
        57 -11.0892     71.9875    244.8464   1.1177454450e+02   1.3501054524e+01    0.2442279    0.1816873 -65.92 0.0009210752    1.506    0.336
        58 -14.0628    197.3771     42.4812   4.1041441255e+01   3.0725565812e+01    0.8119451    0.7806786 -52.81  0.003967577    1.174    0.148
        59 -10.4821     57.1833    223.6123   1.1293776050e+02   1.9781176341e+01    0.3836739    0.1635832  55.69  0.001702022    2.369    0.578
        60  -9.2949     73.3614    236.4556   1.1070069123e+02   1.4981919361e+01    0.1215744     0.105935  63.19 0.0001408348    1.054    0.052
