#   1 NUMBER                 Running object number                                     
#   2 MAG_AUTO               Kron-like elliptical aperture magnitude                    [mag]
#   3 X_IMAGE                Object position along x                                    [pixel]
#   4 Y_IMAGE                Object position along y                                    [pixel]
#   5 X_WORLD                Barycenter position along world x axis                     [deg]
#   6 Y_WORLD                Barycenter position along world y axis                     [deg]
#   7 A_WORLD                Profile RMS along major axis (world units)                 [deg]
#   8 B_WORLD                Profile RMS along minor axis (world units)                 [deg]
#   9 THETA_WORLD            Position angle (CCW/world-x)                               [deg]
#  10 FWHM_WORLD             FWHM assuming a gaussian core                              [deg]
#  11 ELONGATION             A_IMAGE/B_IMAGE                                           
#  12 ELLIPTICITY            1 - B_IMAGE/A_IMAGE                                       
         1 -14.4616     68.8041    145.1041   1.0033465883e+02   3.7140353918e+01     4.900247     2.506854  71.74  0.005386079    4.530    0.779
         2 -13.9409    223.6372     23.1340   3.5542063117e+01   2.7174805127e+01    0.9998646    0.8447066  61.36  0.003076788    1.370    0.270
         3 -14.2102    208.5381     38.3137   4.0544322786e+01   2.8647975817e+01     1.597993     1.379737  19.65  0.007302368    1.591    0.371
         4 -12.6799    246.4054      3.4955   2.9795640418e+01   2.4638502942e+01    0.6084427    0.3310423  84.77   0.00369574    1.688    0.408
         5  -9.9119      2.0027      2.3558   8.6170005980e+01   7.4008281790e+01     0.188168   0.09710789 -38.00  0.001180641    1.674    0.403
         6 -10.1058     48.8471      2.6308   6.2441477427e+01   6.8039603346e+01     0.157308     0.103083  49.97 0.0005050137    1.708    0.415
         7  -9.2128     43.9719      1.0000   6.3602112247e+01   6.8995098674e+01      0.18508   0.05786308  45.75 0.0007725655    2.917    0.657
         8 -15.3768     36.8140    249.3421   1.1939913347e+02   1.7588802598e+01     4.913941     1.146419  28.83   0.01349208    9.015    0.889
         9 -14.2788      3.4718    181.1228   1.2155108091e+02   3.5319804106e+01     3.475253     0.532439 -77.61  0.009869142    6.233    0.840
        10 -13.2652     34.0585    202.5326   1.1647074642e+02   2.7576853331e+01    0.6715932    0.3968402 -44.49  0.001293741    2.348    0.574
        11 -16.5689     40.2374    191.4002   1.1404988607e+02   2.9428496149e+01     12.98679     5.084725  56.87   0.05263492    2.932    0.659
        12 -10.5038    207.7298    194.0128   7.6109002429e+01   2.1239083910e+00    0.1911872    0.1625935 -15.15 0.0004419675    1.071    0.066
        13  -9.4727     82.4930    182.4370   1.0271045498e+02   2.6031699938e+01    0.1934477    0.1400837  20.81 0.0005027066    1.665    0.399
        14 -14.4675     16.3546    216.5654   1.2121421761e+02   2.6350459627e+01     1.449955    0.6640679  48.70  0.005227985    1.857    0.462
        15  -9.6154     99.3328    180.8390   9.8243463307e+01   2.3790080484e+01    0.2418265    0.1850153  49.50 0.0006077647    1.275    0.216
        16 -12.0991     61.6928    176.0187   1.0705093584e+02   3.0474014806e+01    0.4435875    0.3015791 -33.61  0.002187737    2.004    0.501
        17 -11.9735     66.8049    170.7991   1.0501182770e+02   3.1059549216e+01    0.3455998    0.2670972 -39.67 0.0008301549    1.512    0.338
        18 -13.5346     63.8400    157.3493   1.0377712231e+02   3.4766207968e+01    0.5209848    0.3597473 -45.27  0.001487578    1.545    0.353
        19 -12.5593     83.8867    155.1538   9.7898336610e+01   3.2427214687e+01    0.8618128    0.5582867 -32.58  0.001391054    2.005    0.501
        20 -12.1091     76.7733    161.2430   1.0088928798e+02   3.1996825106e+01    0.4363225    0.3813499  10.24  0.001005811    1.358    0.264
        21 -15.8755      7.0762    245.7863   1.2454395284e+02   2.1400840054e+01     1.935177     1.867975  80.90   0.01639379    1.493    0.330
        22 -11.0535     31.0258    155.6689   1.1243581635e+02   3.8958156435e+01    0.4190077    0.2328428  22.47  0.001745641    2.182    0.542
        23  -9.9523    174.8397    148.9423   7.3544387097e+01   1.6772578193e+01    0.2748196    0.2130775 -62.92 0.0008231546    1.552    0.356
        24 -10.8473    133.5623    144.2085   8.2293689829e+01   2.6180487705e+01     1.142772    0.2698132 -53.76  0.002457868    6.615    0.849
        25 -11.1882    121.2446    173.4522   9.1456562390e+01   2.1764263434e+01    0.4997577    0.1248713  41.49  0.001447249    3.781    0.735
        26 -11.1882     22.6120    146.5655   1.1361817371e+02   4.1966893328e+01    0.3466144    0.2156013  79.74  0.001206838    1.705    0.414
        27 -10.5003     32.8692    143.6917   1.1039876392e+02   4.1735281728e+01    0.4395265    0.2947328  19.67  0.002373368    1.813    0.448
        28  -9.8122    101.0043    138.5107   8.9804004548e+01   3.3675827625e+01    0.3793259    0.2653983  -8.69  0.001587383    2.180    0.541
        29 -10.1608     98.4661    141.4972   9.1159393349e+01   3.3393716703e+01    0.2884905    0.2708035  47.01 0.0007470652    1.091    0.083
        30 -10.2041    198.1662    139.7267   6.6598282179e+01   1.3899467547e+01    0.3251827    0.2117593 -58.80  0.001433832    1.946    0.486
        31 -12.4490     86.2044    139.8992   9.4323665541e+01   3.5827983684e+01    0.3024046    0.2673909 -43.48  0.000435909    1.135    0.119
        32 -11.7622     76.0921    136.6267   9.6615770016e+01   3.8201513712e+01    0.4436088    0.2945259  63.05 0.0005754894    1.907    0.476
        33 -10.2642     25.1636    134.1357   1.1131057425e+02   4.4806615905e+01    0.2733886     0.186063  48.43  0.001162054    1.622    0.384
        34 -11.1571    135.4233    128.3729   7.8084741632e+01   2.9402474309e+01    0.5124604    0.2168415 -48.71   0.00178323    2.381    0.580
        35 -11.1857     67.3503    126.9323   9.7297930175e+01   4.1866160577e+01     0.567242    0.2849085 -64.15  0.002324241    2.031    0.508
        36 -10.2994    146.2573    171.8713   8.5038532334e+01   1.7508650601e+01    0.2260498    0.2052219  85.90 0.0008798423    1.275    0.216
        37  -9.6353    160.4935    127.5045   7.1733653271e+01   2.4267584042e+01     0.154001     0.150301 -55.42 0.0008101194    1.051    0.048
        38 -10.4199     96.8587    126.2946   8.8251531132e+01   3.7355653307e+01    0.3452084    0.2653687   3.24  0.001483951    1.669    0.401
        39 -15.1064      9.1519    207.4935   1.2208804165e+02   2.8969085402e+01     1.410962     1.030194 -56.54  0.004344193    1.640    0.390
        40  -9.0062    163.4179    121.2024   6.9501435777e+01   2.4952696665e+01    0.2210595    0.1433269 -53.04 0.0007112032    1.655    0.396
        41 -10.9527    107.4216    130.8100   8.6258088072e+01   3.4365776554e+01     0.562787     0.369529  32.17  0.002487297    1.634    0.388
        42  -9.8688    106.4610    119.1491   8.3727090854e+01   3.7296683233e+01    0.2262425    0.2045937  15.40 0.0003390787    1.174    0.148
        43  -8.9189    168.1650    112.7885   6.6316734636e+01   2.5621771514e+01    0.2631437    0.1715562 -80.66 0.0009490054    2.876    0.652
        44  -9.9725    205.3844    110.2542   5.8367937576e+01   1.7955135324e+01    0.2895953    0.2028099  46.39  0.000879774    1.544    0.352
        45 -11.4309    247.1023    108.6734   5.1515508015e+01   9.9608103553e+00    0.2498802    0.1611237 -46.60  0.001343281    1.369    0.270
        46  -9.7634    134.5121    106.0181   7.2552955741e+01   3.4497121322e+01     0.243557    0.1522522 -43.51 0.0006284963    1.583    0.368
        47 -11.5864    241.3026    100.0438   5.0448364397e+01   1.2455972731e+01     0.346899    0.1348234 -43.01 0.0009657255    2.198    0.545
        48 -10.6482     53.2323     90.6956   9.3704058950e+01   5.2410763336e+01    0.3151006    0.1881059 -57.23  0.001412308    1.602    0.376
        49  -9.7652     41.6738     91.9430   9.8191935990e+01   5.3464475572e+01    0.1917961    0.1578978 -49.72 0.0004618366    1.069    0.064
        50  -9.3665    233.7735     85.9987   4.8370323786e+01   1.6206727654e+01    0.1831223   0.09933123 -38.62 0.0005568762    1.635    0.388
        51  -9.1727     71.8575     82.9564   8.4933993915e+01   5.1499254185e+01    0.2154988     0.175817  75.63 0.0009317989    1.745    0.427
        52  -9.3418    160.5152     82.5213   5.9886519753e+01   3.3177923223e+01     0.147502    0.1466943  82.51 0.0001474516    1.020    0.019
        53 -10.2771    243.4648     77.4917   4.5280016593e+01   1.5607215704e+01    0.1308572    0.1110482 -52.72  0.000276694    1.007    0.007
        54  -9.5199     46.0885     61.3270   8.7965779494e+01   5.9583536805e+01    0.1744072    0.1547253   4.34 0.0004228351    1.142    0.125
        55 -10.9666     13.5081     59.8640   1.0135609619e+02   6.2995804387e+01    0.2304246    0.1976052 -53.52  0.000418308    1.194    0.163
        56 -12.5319    216.5656     30.1248   3.7775106648e+01   2.7882232412e+01    0.4927045    0.3574371  57.29  0.001088406    1.516    0.340
        57 -10.3764    172.8078    239.7076   9.1023440853e+01   5.1359767725e-02    0.3414109    0.1778775 -53.69  0.001640863    2.667    0.625
        58 -13.6198    199.3530     44.0676   4.3060618724e+01   2.9992249115e+01     1.247243    0.8208066  39.05  0.003702512    2.014    0.504
        59 -12.0529    185.1607    215.6793   8.4607855847e+01   2.0864563645e+00    0.4384798    0.3036609  -2.31   0.00230817    1.669    0.401
        60 -10.3183    135.7167     42.0750   5.3089349061e+01   4.5510760560e+01    0.2448938    0.2113644  85.15 0.0004801625    1.256    0.204
        61  -9.7280    135.4653     34.0153   5.0559693798e+01   4.6607730415e+01    0.1926398    0.1732228  61.51 0.0003623411    1.038    0.036
        62  -9.7813      8.2200     51.3909   1.0142257618e+02   6.5077551338e+01    0.1471934    0.1063526  24.21 0.0006659253    1.640    0.390
        63  -9.3947    189.6064     15.1911   3.7066052247e+01   3.5734387831e+01    0.1566423    0.1249844 -13.40 0.0005885882    1.628    0.386
        64 -13.8372     57.5117    240.3075   1.1477907087e+02   1.6851060079e+01    0.8123419    0.4891786  47.80 0.0007525681    1.377    0.274
        65 -10.4506    107.8989    204.0054   9.9751590229e+01   1.7196890270e+01    0.2091885    0.1919756  58.31 0.0004344463    1.025    0.024
        66 -11.3799    191.8061    192.4150   7.8991924576e+01   5.0861774735e+00    0.7648575    0.4598692 -66.71  0.002806123    3.935    0.746
