#   1 NUMBER                 Running object number                                     
#   2 MAG_AUTO               Kron-like elliptical aperture magnitude                    [mag]
#   3 X_IMAGE                Object position along x                                    [pixel]
#   4 Y_IMAGE                Object position along y                                    [pixel]
#   5 X_WORLD                Barycenter position along world x axis                     [deg]
#   6 Y_WORLD                Barycenter position along world y axis                     [deg]
#   7 A_WORLD                Profile RMS along major axis (world units)                 [deg]
#   8 B_WORLD                Profile RMS along minor axis (world units)                 [deg]
#   9 THETA_WORLD            Position angle (CCW/world-x)                               [deg]
#  10 FWHM_WORLD             FWHM assuming a gaussian core                              [deg]
#  11 ELONGATION             A_IMAGE/B_IMAGE                                           
#  12 ELLIPTICITY            1 - B_IMAGE/A_IMAGE                                       
         1 -11.5800     80.3626     23.3766   8.9307314502e+01   6.0570681453e+01    0.6083921    0.2777421  35.67 0.0005482574    2.296    0.565
         2  -9.1284    128.4121     15.7867   7.3900172457e+01   5.0946772627e+01    0.3965114    0.2595887  26.89  0.001375897    1.695    0.410
         3  -9.4106    134.0609     13.5816   7.2016176981e+01   4.9799282243e+01    0.2523892    0.2155901  38.18 0.0002289185    1.119    0.106
         4  -9.2638     79.2807     12.9633   8.5044378209e+01   6.2026682854e+01    0.4383008    0.2518643  43.76  0.001251566    1.604    0.376
         5  -8.8787     74.4785     13.5509   8.6844041498e+01   6.2873113793e+01    0.3453347    0.2026207  21.91  0.001327121    1.847    0.458
         6  -9.2711     64.2026     14.0458   9.0604102735e+01   6.4657381397e+01    0.3334224     0.202016  13.21  0.001578485    1.854    0.461
         7  -8.9671    232.7752     12.7749   5.9389640928e+01   2.5559823524e+01     0.294686    0.1909595 -34.91  0.001075088    1.497    0.332
         8  -8.1075     96.3205     13.2014   8.0255464204e+01   5.8530878428e+01    0.3119361     0.168449  15.07  0.001354999    2.501    0.600
         9  -8.4592    107.9760     11.8349   7.6791915913e+01   5.6110104177e+01    0.2449074    0.1233282  35.26  0.001092302    2.067    0.516
        10  -9.1939     31.9901     10.7645   1.0236409789e+02   6.9831713117e+01    0.3473582    0.1895164  10.22  0.000527607    2.238    0.553
        11  -8.9960     32.2430      6.0843   9.9856003156e+01   7.0430788264e+01    0.1939895    0.1725999  -3.10 0.0003046928    1.320    0.242
        12  -7.8429    134.0234      3.0133   6.8254527058e+01   5.0764973216e+01    0.1996579    0.1589495  40.08 0.0003291479    1.196    0.164
        13  -8.5539    125.0674     10.2926   7.2531927198e+01   5.2285779170e+01    0.2325147     0.193334   9.58 0.0005160817    1.262    0.208
        14  -9.8460    129.9806      6.9565   7.0377644650e+01   5.1408875459e+01    0.4173698    0.3721708  68.60  0.001317602    1.110    0.099
        15  -8.2818    113.0212     11.2364   7.5405088969e+01   5.5020237401e+01    0.1990085    0.1320704  22.96 0.0006907664    1.614    0.380
        16  -9.6885     46.6134      6.5444   9.3719150231e+01   6.8386890740e+01    0.2886027    0.1883298  21.64 0.0001865322    1.428    0.300
        17  -9.0998     40.9840      6.1233   9.5902035708e+01   6.9257037413e+01    0.5293018    0.2375789 -13.80  0.002259019    3.246    0.692
        18  -8.2317    156.2389      7.7339   6.6399737334e+01   4.4846402946e+01     0.297135    0.1623146  -6.49 0.0008150238    2.429    0.588
        19  -9.2311     71.0762      9.1168   8.5898082248e+01   6.3995465347e+01    0.3511868    0.1412181  38.31  0.001560842    2.392    0.582
        20  -9.1298    119.3078      6.7700   7.2343759276e+01   5.3971176187e+01    0.2516761    0.1901564  35.73 0.0001597089    1.244    0.196
        21  -7.8655    100.6050      6.6698   7.6421121661e+01   5.8239605006e+01    0.2568351    0.1550392  29.18 0.0008496279    1.670    0.401
        22  -8.4215    105.2449      1.9925   7.3407972941e+01   5.7613705189e+01    0.3947612    0.1670661  44.84  0.001768716    2.062    0.515
        23  -8.4511    111.4174      4.4835   7.3079109692e+01   5.6003042999e+01    0.2096922    0.1815503  35.27 0.0005474406    1.034    0.033
        24  -8.2782    110.6966      1.6560   7.2102936395e+01   5.6403730694e+01    0.2576604    0.1299501  50.27   0.00102822    1.682    0.405
        25  -8.9776     76.1238      5.3812   8.2527016303e+01   6.3425401067e+01    0.3683079    0.2145281 -23.25  0.001373842    1.707    0.414
        26  -9.9495      7.6329      5.4508   1.1226875615e+02   7.3087756937e+01    0.4510517    0.2116894   5.30   0.00239055    2.782    0.640
        27  -7.7784     84.4289      3.3248   7.9148354696e+01   6.1969773891e+01    0.2344949    0.1081408  -1.15 0.0009545141    3.078    0.675
        28  -8.2804    153.2642      3.4354   6.5437397299e+01   4.5972621972e+01    0.1859297    0.1214887  81.13 0.0008375545    1.533    0.348
        29  -8.4274    143.1319      2.1726   6.6505116865e+01   4.8598331656e+01    0.1960316      0.18791  13.02 0.0003572491    1.135    0.119
        30  -8.5364     56.0246      3.5089   8.8442132095e+01   6.7236710157e+01    0.2610961   0.09624024  41.73  0.001109523    2.488    0.598
        31  -7.5079     91.5749      4.8121   7.7889637520e+01   6.0353173218e+01    0.1641431    0.1148607 -30.60 0.0007834733    1.563    0.360
        32  -7.8004    159.2247      1.5931   6.4039282343e+01   4.4637093274e+01    0.1960471    0.1057188  58.66 0.0009411499    1.621    0.383
        33  -7.9685      3.4489      1.4588   1.1265620486e+02   7.4019862302e+01    0.1911135   0.09584224  19.61  0.001039195    2.114    0.527
        34  -8.1201    243.3042     93.6312   7.7555773551e+01   1.2172424041e+01    0.1475699   0.09780302 -58.82 0.0007034203    1.749    0.428
        35  -9.7855    218.5584    249.6720   1.1299856497e+02  -6.3848745783e+00    0.3236028    0.2003978  48.25  0.001970765    1.909    0.476
        36 -10.3670    188.0955    248.4136   1.1811924750e+02  -1.6742803624e+00    0.4523697    0.1812153  50.05  0.001991094    3.024    0.669
        37  -7.7803     83.4437     93.5035   1.1281573298e+02   4.7231007832e+01    0.2514965    0.1413509  23.82  0.001032964    2.454    0.592
        38  -8.9106     43.8749     92.2378   1.2514860463e+02   5.2865815826e+01    0.2984003    0.1737683 -26.61   0.00140172    2.353    0.575
        39  -8.2029    110.4172     90.8449   1.0410733817e+02   4.2904212696e+01    0.3019134    0.2010719  24.55  0.001184118    1.917    0.478
        40  -7.6423     56.3343     91.6854   1.2094976914e+02   5.1548690538e+01    0.1337091    0.1025333  80.35 0.0003952026    1.688    0.407
        41  -9.2280     21.1571     90.5111   1.3225812313e+02   5.5340481766e+01    0.2902204    0.1747481 -28.30  0.001583843    2.043    0.511
        42  -7.7381     97.8624     89.4032   1.0732150826e+02   4.5620551529e+01    0.2002743    0.1396469  25.25 0.0005905084    1.713    0.416
        43 -10.0067     37.5923     80.9775   1.2469901239e+02   5.6056665342e+01    0.5948362    0.3229965 -18.22  0.002605023    3.026    0.670
        44  -7.5539    125.7655     84.2481   9.7967607615e+01   4.1046051371e+01    0.2431391    0.1191948  36.31 0.0007495935    2.458    0.593
        45  -9.7613      8.0008     77.5676   1.3432461495e+02   5.9137146861e+01    0.5427108    0.2165225 -35.07  0.001966121    2.989    0.665
        46  -8.6445     88.1585     78.7819   1.0714487369e+02   4.9609456672e+01    0.3496083    0.2469061  13.05  0.001414633    1.853    0.460
        47  -7.8669    184.3395     78.0363   8.3029286584e+01   2.8297259617e+01     0.218041    0.1851632 -36.58 0.0005253637    1.156    0.135
        48  -8.8053     48.7683     77.4458   1.1991025183e+02   5.5637108574e+01     0.357749    0.2155651 -11.55  0.001636769    2.583    0.613
        49  -7.6296    149.0789     76.1440   8.9758377801e+01   3.7231048109e+01    0.2061663    0.1787663 -78.57            0    1.324    0.244
        50  -7.5068    105.5040     76.4852   1.0118708038e+02   4.6828753360e+01     0.148563    0.1385911 -14.96 0.0008099698    1.051    0.048
        51  -8.2064     74.6345     74.5864   1.1023126901e+02   5.2725873815e+01    0.3205392    0.2061255 -19.90  0.001015384    2.047    0.511
        52  -9.3390     24.1377     73.7288   1.2778876036e+02   5.8864575966e+01    0.4465458    0.1429389 -46.83  0.001891866    2.565    0.610
        53  -9.4039     28.0236     69.4764   1.2534838581e+02   5.9467126213e+01    0.4195118    0.2116385 -18.27  0.001832056    3.210    0.688
        54  -8.1821     23.4577     69.4816   1.2704582779e+02   5.9844643506e+01     0.220507    0.1648986 -63.29 0.0005732565    1.207    0.171
        55  -8.2969    105.8743     67.3233   9.8119164395e+01   4.8524431918e+01     0.286963    0.1919018  -9.53   0.00123442    2.096    0.523
        56  -8.8638     84.3360     63.6218   1.0351218308e+02   5.3314728803e+01    0.3155931    0.2358754  14.51  0.001042448    1.543    0.352
        57  -8.7708     16.4855     64.0099   1.2837153712e+02   6.1543192913e+01    0.2585213    0.1373172 -40.75  0.001234135    1.662    0.398
        58  -8.7261     19.3228     61.3420   1.2661777892e+02   6.1904129888e+01    0.2342042    0.1074019 -44.15 0.0008673831    1.801    0.445
        59  -7.2393    148.5216     63.4664   8.5948849795e+01   3.9570740827e+01     0.152293    0.1434001  20.31  8.11439e-05    1.090    0.082
        60  -9.4137     32.7094     61.8200   1.2154408441e+02   6.0671107319e+01     0.442666    0.1822752 -53.05  0.002080386    1.956    0.489
        61  -9.6533    241.5847     61.4876   7.0103698764e+01   1.7367946314e+01    0.2530637    0.2394213  83.81 0.0006781878    1.140    0.123
        62  -9.3697     62.8723     61.2550   1.1007045593e+02   5.7200573913e+01    0.5707076      0.25598  25.79  0.002296389    3.004    0.667
        63  -7.4375    127.0800     59.9810   8.9890750170e+01   4.5234162128e+01     0.179601    0.1600254  45.62 0.0007865021    1.120    0.107
        64  -8.7174     97.5616     57.7782   9.7329809017e+01   5.1932789535e+01    0.5479012    0.3038088  -8.64  0.001766073    4.139    0.758
        65  -9.6141     36.3033     60.3482   1.1973144082e+02   6.0625288976e+01    0.4849094    0.1996282 -35.51  0.002037527    2.725    0.633
        66  -7.8368    111.0922     58.3264   9.3578390086e+01   4.9059860283e+01    0.2047156    0.1836622  32.48  0.000620144    1.107    0.097
        67  -8.3380     57.6961     62.4121   1.1231747908e+02   5.7688115531e+01    0.3159646    0.1306096  34.56  0.001199413    2.671    0.626
        68  -8.0630     72.3227     54.3120   1.0433436557e+02   5.7090873669e+01    0.1851262    0.1230557 -47.32 0.0005461011    1.518    0.341
        69 -10.0887     75.1682     50.1126   1.0182203481e+02   5.7382249500e+01    0.3257704    0.2585131  15.01  0.000289398    1.303    0.232
        70  -8.4329    118.6143     51.0392   8.8995255168e+01   4.8625476336e+01    0.2999114    0.2011006  49.04 0.0006058611    1.474    0.321
        71  -9.0266     45.6279     48.9109   1.1238945809e+02   6.1868179749e+01    0.3304094     0.208903  -9.85  0.001050318    1.979    0.495
        72  -8.2319    106.9593     48.8833   9.1388648406e+01   5.1516397324e+01    0.3245898    0.1740888  25.98  0.001229299    2.751    0.637
        73  -9.4774     11.9964     46.3419   1.2557880630e+02   6.5504563307e+01    0.5509671    0.2517405 -34.58  0.001977939    2.074    0.518
        74  -8.4492      6.9860     47.5563   1.2805986514e+02   6.5574628189e+01    0.1929498     0.140971  12.31 0.0009633383    1.634    0.388
        75  -8.9029     92.3894     37.4422   9.1333805780e+01   5.6281887169e+01    0.6683595    0.2518422 -34.68  0.002537885    2.584    0.613
        76 -10.6668     83.0815     40.2879   9.5400674035e+01   5.7632708875e+01     0.446244    0.2767521 -17.21 0.0002812675    1.822    0.451
        77  -8.9113     87.6952     37.9507   9.2992307094e+01   5.7124010412e+01     0.279449    0.2381398  16.66 0.0007170925    1.110    0.099
        78  -9.7614     69.9174     35.8990   9.8152074335e+01   6.0640269538e+01    0.7161686    0.3614887  22.31  0.002944312    2.901    0.655
        79  -9.0415     56.3566     35.3371   1.0299390166e+02   6.2853588373e+01    0.2958479    0.1912895   2.42 0.0007670811    1.872    0.466
        80  -9.4353     57.4152     42.0064   1.0523021934e+02   6.1571549643e+01    0.6905904     0.341274 -15.02  0.002280116    4.755    0.790
        81  -8.7650      1.9968     45.0056   1.2952885379e+02   6.6364934932e+01    0.1838481    0.1334953 -48.08  0.000871346    1.031    0.030
        82  -8.0004    112.6080     42.5964   8.7537885302e+01   5.1264576919e+01    0.2974062   0.09919191  40.85 0.0009451441    3.488    0.713
        83  -8.5130     35.6600     38.3004   1.1266286147e+02   6.4977793240e+01    0.3407694    0.1111938 -47.69  0.001390757    2.636    0.621
        84  -9.0359     38.5199     35.5088   1.1036961566e+02   6.5154350693e+01    0.3546537    0.1945181  14.94  0.001821205    2.254    0.556
        85  -7.5836    124.1849     39.5908   8.3514263615e+01   4.9067686435e+01    0.2000067    0.1246479  43.51 0.0003178151    1.559    0.359
        86 -10.4926    138.1124     36.7939   7.9381306578e+01   4.6123997803e+01      0.24482    0.2309787 -27.26 0.0002825036    1.101    0.092
        87  -8.1279    105.8684     37.0127   8.7263857397e+01   5.3547663405e+01    0.2673285    0.1904504   3.21   0.00133185    1.634    0.388
        88  -8.2196     19.0048     36.0000   1.1919412519e+02   6.6987364113e+01    0.1659975    0.1129044 -24.07 0.0004197958    1.339    0.253
        89  -8.7520     23.2528     35.4607   1.1707689652e+02   6.6724129405e+01    0.2947067    0.1887237  12.39   0.00181633    1.738    0.425
        90  -8.9928     22.0454     32.2952   1.1646291519e+02   6.7407551266e+01    0.2987273    0.2159583  22.68  0.001209768    1.577    0.366
        91  -9.5150      6.6025     33.6037   1.2412605482e+02   6.8330066235e+01    0.2997752    0.2218082 -15.02  0.002130585    1.340    0.254
        92  -8.4860      1.4515     28.4900   1.2492156734e+02   6.9593230197e+01    0.2293868   0.08857372 -56.83 0.0007042252    2.101    0.524
        93  -8.0467      2.5397     31.5099   1.2537761706e+02   6.8966792578e+01    0.1569116    0.1054955  11.60 0.0009975887    1.721    0.419
        94  -7.0003    144.3069     28.3048   7.5220783683e+01   4.5670556331e+01    0.1472306    0.1019874  31.03 0.0002461128    1.605    0.377
        95  -9.1807     41.9229     27.3684   1.0556975899e+02   6.6111141288e+01    0.2905894    0.1771403 -41.54 0.0009471889    1.550    0.355
        96 -10.5280    202.8723    249.2000   1.1563370699e+02  -4.0162686505e+00    0.5613397    0.2525126  30.52  0.002912242    2.020    0.505
        97  -9.2440     70.0067     26.0077   9.3949545886e+01   6.2095372398e+01    0.2292784    0.1784174 -45.58 0.0009212486    1.583    0.368
        98  -8.6048     61.9113     26.8052   9.7253021971e+01   6.3330140625e+01    0.2171819    0.1623384 -19.70 0.0005852642    1.199    0.166
        99  -8.5811     25.5015     25.9630   1.1236615187e+02   6.8191582254e+01    0.3502862     0.159577 -25.42  0.001647659    2.576    0.612
       100  -8.6812     28.6291     21.2941   1.0890290501e+02   6.8638718223e+01    0.3233687    0.1849979  -5.93  0.001043334    2.130    0.531
       101  -8.1742    144.8519     23.5006   7.3483615163e+01   4.6093164206e+01    0.2106007    0.1840855  16.49 0.0004091732    1.222    0.181
       102  -7.6055    118.1974     24.5642   7.9379831842e+01   5.2398700056e+01    0.1961413    0.1146779  44.44 0.0005545265    1.600    0.375
       103  -8.7828     64.3380     22.7628   9.4562001945e+01   6.3507395242e+01    0.2327871    0.2039944 -20.05  0.001476381    1.188    0.159
       104  -7.8426    129.0153     22.5009   7.6228652457e+01   5.0081892758e+01    0.2114951    0.1292075  58.96 0.0005537648    1.536    0.349
       105  -8.7260     92.4342     20.8432   8.4552078267e+01   5.8494616103e+01    0.3437561      0.19031  24.65  0.001165465    2.167    0.539
       106  -8.6253     46.1479     20.9151   1.0090266274e+02   6.6543359624e+01    0.2821091    0.1550503 -35.88 0.0008319352    1.660    0.398
       107  -8.3931    140.2859     19.9794   7.3114553961e+01   4.7612522989e+01    0.2282197    0.1852272  60.88 0.0003912226    1.152    0.132
       108  -8.4651      9.8780     19.6283   1.1742506343e+02   7.0625948808e+01    0.2716557    0.1429726 -11.62  0.001204348    2.211    0.548
       109  -7.2965    146.9643     19.0587   7.1601567020e+01   4.6053025755e+01    0.1559661    0.1523706  45.65 0.0009427133    1.056    0.053
       110  -7.9211      5.2841     18.9048   1.1950568160e+02   7.1077666100e+01    0.1638845    0.1182749 -53.43 0.0003873426    1.444    0.308
       111  -6.9337    151.3146     18.3192   7.0615921710e+01   4.5042377556e+01    0.1464331   0.09744281  34.69 0.0002985699    1.653    0.395
       112  -9.0570    163.0155    248.8333   1.2266000363e+02   2.1587190679e+00    0.1980599    0.1188906  22.43  0.001090136    1.988    0.497
       113  -9.2312    157.5025    248.5029   1.2361227899e+02   3.0650948322e+00    0.2058254    0.1192203 -48.29  0.001213678    2.174    0.540
       114  -8.9121    171.5875    245.2130   1.2063696710e+02   1.3202474503e+00    0.1473319    0.1104481 -22.95 0.0009531536    1.678    0.404
       115  -8.0861    116.2057    243.5788   1.3055856740e+02   1.0195094656e+01     0.155753   0.09725077  35.90 0.0004435641    1.524    0.344
       116  -9.5724    188.1096    234.0673   1.1604809780e+02   2.3981220139e-01    0.3029117    0.2387106 -80.18  0.001820171    2.217    0.549
       117  -7.1831    189.4776     15.5190   6.4401714618e+01   3.5699527237e+01     0.135222    0.1238574  84.30 -1.346336e-05    1.031    0.030
       118  -8.3296     26.5910    231.1762   1.4553463341e+02   2.4178630976e+01    0.1747658     0.116149  53.45 0.0001924914    1.266    0.210
       119 -10.0287    171.9534    206.1278   1.1471688875e+02   7.2150371800e+00    0.2257919     0.199727  40.05 0.0002643647    1.067    0.063
       120  -7.3268    150.6870     13.2992   6.9056444650e+01   4.5711160674e+01    0.1386742    0.1005882 -67.49 0.0001926083    1.606    0.377
       121  -8.5016     11.9990    206.9635   1.4669999763e+02   3.0275479084e+01    0.1455983    0.1094771 -60.49    0.0010571    1.695    0.410
       122  -7.3257    156.6200    181.7197   1.1361098831e+02   1.4375284102e+01    0.1430343    0.1072574  11.37 0.0007008118    1.717    0.417
       123  -7.3884    152.3416    157.2907   1.0979042999e+02   2.0051671396e+01    0.1480801    0.1162949   6.05 0.0004037145    1.650    0.394
       124  -9.1816     67.0100    144.6113   1.2826699365e+02   3.7742415995e+01    0.4466509    0.2838535  65.24  0.002228633    1.788    0.441
       125  -7.6353    139.2081    139.1872   1.0892864693e+02   2.6530668506e+01    0.2556876    0.1713945  -2.51 0.0009544365    2.857    0.650
       126  -9.8590    229.8955    136.2009   8.9583728596e+01   8.0278078859e+00    0.2723384    0.2402647  28.54 0.0005511847    1.170    0.146
       127  -7.0167    143.6793    126.6611   1.0493026392e+02   2.8294009426e+01     0.157374    0.1230772  -2.27 0.0007050156    1.714    0.417
       128  -8.2827    133.4907    124.4789   1.0689202769e+02   3.0905168720e+01    0.1505847    0.1485562 -60.64 0.0004308118    1.011    0.011
       129  -7.6345    180.4349    120.7966   9.5220144278e+01   2.1370953717e+01    0.2163538    0.1453156 -26.14 0.0008325513    1.663    0.399
       130  -7.4968    119.4999    118.9914   1.0912638033e+02   3.4953028064e+01     0.214005    0.1286693 -27.00  0.000809298    2.442    0.590
       131  -9.3505    248.1743    117.4194   8.2382684824e+01   7.4574478252e+00    0.2650189     0.203515 -32.70 0.0003320266    1.151    0.131
       132  -8.2614     12.0389    121.4905   1.3958323095e+02   4.8883552389e+01    0.1519251   0.08910237 -30.52 0.0008083853    2.434    0.589
       133  -7.5629    142.6947    111.6840   1.0138953532e+02   3.1685650044e+01    0.1556666    0.1238753   0.32 0.0007026441    1.625    0.385
       134  -9.0375      2.6079    109.4398   1.4075389143e+02   5.2268032688e+01    0.3079388    0.1297847 -41.28  0.001481139    2.830    0.647
       135  -8.0860    133.8565    106.7554   1.0227722107e+02   3.4649705481e+01    0.4011346    0.2061022 -34.31  0.001136554    2.246    0.555
       136  -7.6597    124.7418    107.1806   1.0473793487e+02   3.6488218129e+01    0.2105716     0.183455  -3.36  0.001059347    1.333    0.250
       137  -7.5238     76.3270    107.3217   1.1842489228e+02   4.5200897003e+01    0.1446564    0.1059132 -25.96 0.0004735988    1.687    0.407
       138  -7.5692    109.2395    106.5914   1.0875709314e+02   3.9717999103e+01    0.2128799    0.1444773  29.13  0.000952039    1.740    0.425
       139  -9.2714     14.7366    105.0940   1.3665471354e+02   5.2470546672e+01    0.4170847    0.1790093 -35.05  0.001798374    3.407    0.706
       140  -8.0300     68.2471    104.6243   1.2023549946e+02   4.6998283619e+01    0.3335927    0.1415925  21.90  0.001093605    4.370    0.771
       141  -7.6504     93.7918    103.3837   1.1231075413e+02   4.3268050381e+01     0.199451    0.1410394  25.30 0.0007410424    1.698    0.411
       142  -7.5637    129.9892     97.1975   1.0063945131e+02   3.7492933656e+01     0.205175    0.1214148  46.79 0.0004423065    1.729    0.422
       143  -9.5426     16.1251     94.9209   1.3464818259e+02   5.4706038883e+01    0.2813393     0.248545  80.63  0.000521241    1.244    0.196
       144  -9.2257     12.0902     93.6828   1.3572603404e+02   5.5264827826e+01    0.3094803    0.1704009 -50.01   0.00058402    1.575    0.365
