#   1 NUMBER                 Running object number                                     
#   2 MAG_AUTO               Kron-like elliptical aperture magnitude                    [mag]
#   3 X_IMAGE                Object position along x                                    [pixel]
#   4 Y_IMAGE                Object position along y                                    [pixel]
#   5 X_WORLD                Barycenter position along world x axis                     [deg]
#   6 Y_WORLD                Barycenter position along world y axis                     [deg]
#   7 A_WORLD                Profile RMS along major axis (world units)                 [deg]
#   8 B_WORLD                Profile RMS along minor axis (world units)                 [deg]
#   9 THETA_WORLD            Position angle (CCW/world-x)                               [deg]
#  10 FWHM_WORLD             FWHM assuming a gaussian core                              [deg]
#  11 ELONGATION             A_IMAGE/B_IMAGE                                           
#  12 ELLIPTICITY            1 - B_IMAGE/A_IMAGE                                       
         1 -14.7229     68.3855    144.4075   1.0470252438e+02   3.7343035690e+01     5.557673     2.285746  62.12   0.01444061    4.322    0.769
         2 -12.5797    213.6036     27.1106   4.1774930776e+01   2.8591545683e+01    0.5362251    0.4231176  42.94  0.001164238    1.516    0.341
         3 -14.0552    220.5824     19.6844   3.9197018592e+01   2.7819039497e+01     1.162873    0.9723343  26.40  0.003353361    1.513    0.339
         4 -13.7708    197.2006     40.9643   4.7401970026e+01   3.0781736412e+01     1.593078     1.010545  21.10  0.004413845    2.398    0.583
         5 -14.2674    206.0138     35.5320   4.4847339624e+01   2.9367947616e+01     1.698832     1.456481  10.06   0.00648455    1.395    0.283
         6 -10.7572      2.1474      3.3707   1.0169924779e+02   7.7848500848e+01    0.3397515    0.1363062 -51.08  0.001709661    1.894    0.472
         7 -10.2154     53.0472      4.4897   6.5902308000e+01   7.0886981996e+01    0.1955691    0.1261576  48.17 0.0007742347    1.568    0.362
         8 -11.3436    243.2405      1.8061   3.3293216438e+01   2.4709371013e+01    0.5370595    0.1777174  78.49  0.002235372    3.252    0.692
         9 -10.6843     47.7919      2.3597   6.7096567858e+01   7.2173014651e+01    0.2343257    0.2086942   3.64 0.0004419252    1.026    0.025
        10  -9.4483     56.5086      1.4727   6.2297826594e+01   7.0578508576e+01    0.1327688    0.1185265  13.02 2.386976e-06    1.006    0.006
        11 -10.5777     64.8864    196.4106   1.1131160879e+02   2.6452783457e+01    0.3500613    0.2860548 -10.07  0.002221275    1.779    0.438
        12 -10.8206    139.4504    249.7731   1.0114955131e+02   8.0477827474e+00    0.1800546    0.1432158  38.76      0.00139    1.168    0.144
        13 -14.5337     49.4733    220.7834   1.1640006564e+02   2.3629248326e+01      2.06313     1.354071  59.82   0.01405635    1.266    0.210
        14 -14.4803     85.8730    228.8032   1.0954160692e+02   1.7976201849e+01     2.407101     1.135028  36.66  0.008944757    1.629    0.386
        15 -14.1912      5.0557    188.3596   1.2437723692e+02   3.4141159686e+01     2.362715    0.5754415 -85.89   0.00962789    3.930    0.746
        16 -15.5301     10.4994    152.4748   1.2158180383e+02   4.1502638853e+01     5.275126     1.533848  86.36   0.01951162    3.732    0.732
        17 -13.4367     24.7978    225.2062   1.2158021959e+02   2.5359803888e+01     1.043562    0.3042973  49.10  0.003696063    2.288    0.563
        18 -14.9060      9.5944    208.0455   1.2403386690e+02   2.9891659220e+01     1.163326    0.9670765  29.29  0.003820971    1.424    0.298
        19 -14.0184     32.0957    247.5294   1.2104896585e+02   2.0886527707e+01     1.030632    0.7297801  23.84  0.005016774    1.630    0.386
        20 -15.7802      9.1275    239.4248   1.2499023016e+02   2.4347675904e+01     1.709167     1.417813  86.05   0.01481751    1.397    0.284
        21 -13.1907     37.4272    205.9079   1.1807667851e+02   2.7677631547e+01    0.3923303    0.3732885   5.35  0.001470873    1.448    0.309
        22 -15.0978     45.9605    196.1646   1.1558959994e+02   2.8686763461e+01     2.318499     1.042304  53.05   0.00947843    1.882    0.469
        23  -9.8162     99.5201    180.8011   1.0154313890e+02   2.4912970044e+01    0.2244083    0.1936685   5.05 0.0006252969    1.397    0.284
        24 -10.5274     49.0427    180.1672   1.1367221999e+02   3.1652040489e+01    0.2053642    0.1657936  86.41 0.0005790332    1.190    0.159
        25 -12.1933     64.1373    178.5625   1.0984545375e+02   3.0206164851e+01    0.3650689    0.3053531 -24.71  0.002025728    1.654    0.395
        26 -12.0207     69.0306    173.0411   1.0806073268e+02   3.0768996606e+01    0.3224115     0.252855 -39.03 0.0005511428    1.661    0.398
        27 -11.4858     41.3414    177.0004   1.1530014790e+02   3.3174461088e+01    0.4868791    0.3227271   7.21  0.001792986    2.221    0.550
        28 -13.6035     65.8675    159.3313   1.0731979823e+02   3.4216452772e+01    0.5178295    0.4206128 -53.90  0.001930059    1.395    0.283
        29 -12.9275     77.2447    160.7306   1.0448585119e+02   3.2372873124e+01     1.266119    0.6961701  71.58  0.003062774    2.457    0.593
        30 -12.6055     85.2805    156.9022   1.0184572238e+02   3.2078004670e+01    0.9521625    0.6133806 -52.74  0.001508957    1.685    0.406
        31  -9.9246    111.8167    197.1163   1.0079933813e+02   1.9997671967e+01    0.1908721    0.1534113  56.76 0.0006565917    1.230    0.187
        32 -10.1800     59.2425    150.8845   1.0811060857e+02   3.7005824287e+01    0.2371941    0.1742022 -14.06 0.0005347129    2.071    0.517
        33 -10.0193    174.6924    148.3805   7.8900474597e+01   1.8330868356e+01    0.3589143    0.2177398 -62.15  0.001389606    2.933    0.659
        34 -10.9838    133.6125    143.3926   8.7094751878e+01   2.6903591243e+01    0.8762152    0.2499822 -55.31  0.002322259    5.602    0.821
        35 -10.6909    139.6006    171.9640   9.0917297217e+01   2.0280585271e+01    0.4344245    0.2393534  57.14  0.001867513    2.522    0.603
        36 -10.8318     25.3131    148.6408   1.1732588105e+02   4.1169415168e+01    0.2718388    0.1537219  16.80 0.0009027349    2.193    0.544
        37 -10.4000     99.4753    142.5038   9.5734619311e+01   3.3102145075e+01    0.2900416     0.247376  54.91 0.0008059141    1.122    0.109
        38 -10.0859    101.9952    139.2651   9.4464221864e+01   3.3412706215e+01     0.371065    0.2547162 -19.45  0.001636258    2.295    0.564
        39 -12.3711     87.4371    141.3054   9.8846356087e+01   3.5303845191e+01     0.267486    0.2553501 -45.36 0.0004697418    1.168    0.144
        40 -10.0915     81.6551    141.5887   1.0051829540e+02   3.6118053833e+01    0.2841992    0.1935764  64.56 0.0003356489    1.595    0.373
        41  -9.0575    159.6272    135.7832   7.9440040166e+01   2.3450187476e+01    0.1913195    0.1335818 -52.26 0.0004396853    1.619    0.382
        42  -9.7128     28.9833    136.2880   1.1524849699e+02   4.3791032177e+01    0.1757136    0.1512425  60.57 0.0003189196    1.098    0.089
        43 -10.3623    209.9924    199.9449   8.1650467004e+01   4.9327487271e+00    0.1758921    0.1419956   7.65 0.0004091437    1.052    0.049
        44 -10.1983    110.0057    131.2069   9.0715158105e+01   3.3832450563e+01    0.3442173    0.2618799 -13.94 0.0009485242    1.819    0.450
        45 -10.2126    106.1167    130.8829   9.1716805955e+01   3.4598182021e+01      0.33918    0.2929258  84.04  0.001561871    1.251    0.201
        46 -11.2223    135.7511    128.9466   8.3522954769e+01   2.9472933309e+01    0.5007609    0.1679428 -50.49   0.00162498    3.301    0.697
        47  -9.5716     33.6516    130.7278   1.1329460072e+02   4.4711929931e+01    0.1263004   0.09664387 -38.23 0.0006997616    1.626    0.385
        48  -9.6671    161.3163    128.6487   7.7475909579e+01   2.4457727386e+01     0.144575    0.1171363 -84.86 0.0007047014    1.735    0.424
        49 -10.6196     97.3760    127.4609   9.3492693925e+01   3.6904485097e+01     0.280551    0.2391321 -19.76 0.0009106562    1.432    0.302
        50 -10.4877    116.5666    125.5445   8.7739426246e+01   3.3889485637e+01    0.3463598    0.2664594 -63.86  0.001703032    1.411    0.291
        51  -9.4500    158.5106    161.5055   8.4891167922e+01   1.8935634383e+01    0.3398035    0.2159514 -79.46    0.0012072    4.468    0.776
        52 -11.4261     32.9778    155.6799   1.1578470797e+02   3.8806655556e+01    0.3864304     0.228947  73.06  0.002082481    1.594    0.373
        53 -10.0065    107.0153    119.8730   8.9138747407e+01   3.6943820408e+01    0.2116863    0.2059384  60.02 0.0003435989    1.017    0.016
        54  -9.6428    168.2219    113.1082   7.2291100246e+01   2.5929086588e+01    0.2674097    0.1999586  85.55  0.001216543    2.051    0.512
        55  -9.8534    135.0026    112.4788   7.9842577220e+01   3.3056927690e+01    0.2832643    0.1526951 -51.08  0.001139225    1.973    0.493
        56 -10.0987     39.8763    113.1406   1.0913861742e+02   4.8488499869e+01    0.2121466    0.1664756  70.45 0.0004872425    1.234    0.189
        57 -15.6375     65.7739    247.6986   1.1479814844e+02   1.7314274322e+01     9.336652     2.675522  24.61    0.0238027   10.889    0.908
        58 -10.0513    205.5389    110.1514   6.4509946789e+01   1.8734313066e+01    0.2808702     0.195764  36.50 0.0009826755    1.526    0.345
        59 -10.4964     33.0831    109.2094   1.1093200473e+02   5.0159185516e+01    0.2475687    0.1785893  84.42 0.0007368217    1.322    0.244
        60 -10.7248    245.6024    109.2022   5.8303708918e+01   1.1425932930e+01    0.1875632    0.1050799 -20.54 0.0006283415    1.692    0.409
        61  -9.5932    134.4280    106.2213   7.8403084485e+01   3.4484163590e+01    0.2153232    0.1440997 -55.76  0.000824253    1.647    0.393
        62 -10.7960     38.9472    101.9630   1.0779240567e+02   5.1427674281e+01     0.363547    0.1429623  41.43  0.001470273    2.532    0.605
        63  -8.9450    130.4780     96.5096   7.6831795436e+01   3.7360203828e+01    0.1530099    0.1483905 -82.99 0.0002500927    1.060    0.056
        64  -9.8498     41.8717     91.9847   1.0497615942e+02   5.3665763225e+01     0.206517    0.1884143 -77.29 0.0005577126    1.013    0.013
        65 -10.6269     52.8922     90.6142   1.0048263988e+02   5.2715775126e+01    0.2805998    0.2359921 -64.26 0.0009848214    1.100    0.091
        66 -10.2943    249.9967     87.5197   5.2907559249e+01   1.3500832967e+01    0.1637312    0.1275478  55.24 0.0006198789    1.550    0.355
        67  -9.4187     73.2146     83.8702   9.1216437895e+01   5.1432810436e+01    0.2227198    0.1912432  82.23 0.0005271516    1.280    0.219
        68  -9.6256    159.7409     81.5960   6.5626021543e+01   3.3584455204e+01    0.2059992    0.1483396  65.28 0.0007143181    1.565    0.361
        69  -8.5896    109.5486     79.5495   7.7755302840e+01   4.5492819839e+01    0.1526111     0.148585 -74.79 0.0002971676    1.034    0.033
        70  -8.8217     59.3262     61.6640   9.0130809710e+01   5.8903498151e+01    0.1464674    0.1125215  79.52 0.0007051566    1.720    0.419
        71 -10.4982     13.5145     59.8266   1.1123575634e+02   6.4210435476e+01     0.228918    0.2033735 -71.33 0.0004071314    1.049    0.046
        72  -8.8680     98.0523     57.2315   7.3816097552e+01   5.2610825241e+01     0.186826    0.1260728  45.79            0    1.503    0.335
        73  -9.5388    204.6317     56.7378   5.0876410953e+01   2.6935004474e+01    0.1392338    0.1043529  28.38 0.0006981981    1.650    0.394
        74 -11.0425    170.8540    233.5028   9.3530792894e+01   6.0476501035e+00    0.2004619    0.1696471   6.08 0.0008148631    1.187    0.157
        75 -10.3712    146.5031    182.9872   9.1196673717e+01   1.7174043170e+01    0.2688862    0.1786166  35.55 0.0008922192    1.322    0.243
        76 -12.2645    183.8268    215.9432   8.8782432934e+01   6.5444748832e+00    0.3184199    0.2633249  17.86  0.001789507    1.085    0.079
        77  -8.7648    130.6884    213.2738   9.8774502658e+01   1.4512522202e+01     0.118517   0.08100014  53.39 0.0002072163    1.554    0.357
        78 -10.8756    138.4014     44.3107   5.8124638064e+01   4.5164913891e+01    0.3576841    0.2751781 -81.86 0.0002501943    1.544    0.352
        79 -10.1965    142.1870     39.6561   5.5659007438e+01   4.4887538484e+01    0.2679861    0.2290034 -62.92 0.0006816429    1.219    0.180
        80 -10.1788    189.8362     15.2611   4.0670091592e+01   3.5597391904e+01    0.2477396    0.1676642 -41.00 0.0007436367    1.349    0.259
        81  -9.5736      2.2496     49.9504   1.1529060562e+02   6.7196560739e+01    0.1714817    0.0921405 -75.49 0.0008831567    1.575    0.365
        82  -9.5767    113.1617    207.5662   1.0176108992e+02   1.7954226738e+01    0.1829433    0.1577802  76.91 0.0005541338    1.332    0.249
        83 -11.3532    193.5356    195.4059   8.3845894334e+01   7.9061867668e+00    0.7758108    0.4479741 -61.88  0.002782223    6.409    0.844
        84  -8.6245    115.6705    203.2977   1.0071618313e+02   1.8338214704e+01    0.1271133   0.08342529  56.94 0.0004111211    1.638    0.390
        85  -9.8575     62.8438    201.1141   1.1216446441e+02   2.5778030075e+01    0.1866386    0.1520591  72.45 0.0003236881    1.162    0.140
