#   1 NUMBER                 Running object number                                     
#   2 MAG_AUTO               Kron-like elliptical aperture magnitude                    [mag]
#   3 X_IMAGE                Object position along x                                    [pixel]
#   4 Y_IMAGE                Object position along y                                    [pixel]
#   5 X_WORLD                Barycenter position along world x axis                     [deg]
#   6 Y_WORLD                Barycenter position along world y axis                     [deg]
#   7 A_WORLD                Profile RMS along major axis (world units)                 [deg]
#   8 B_WORLD                Profile RMS along minor axis (world units)                 [deg]
#   9 THETA_WORLD            Position angle (CCW/world-x)                               [deg]
#  10 FWHM_WORLD             FWHM assuming a gaussian core                              [deg]
#  11 ELONGATION             A_IMAGE/B_IMAGE                                           
#  12 ELLIPTICITY            1 - B_IMAGE/A_IMAGE                                       
         1 -15.8588     69.6663    144.3174   9.8237240749e+01   3.7228075621e+01     5.404669     2.645053  66.15  0.002582565    4.970    0.799
         2 -13.8493    197.8420     43.8591   4.0588535600e+01   3.0639631801e+01     0.898885    0.8261452 -69.78  0.002999697    1.080    0.074
         3 -13.9620    206.3316     35.7962   3.7645649723e+01   2.9768162248e+01    0.6664411    0.6309469 -38.93  0.001266023    1.263    0.208
         4 -14.0437    231.2670      9.4404   2.9670472925e+01   2.7489393267e+01    0.8394331    0.6445928 -67.54  0.004021673    1.045    0.043
         5 -12.8036     57.4262      3.6498   5.7010141568e+01   6.6812076861e+01    0.4430744    0.2201161  38.89  0.002384571    1.652    0.395
         6 -11.8941     18.8661      3.7124   7.5024689284e+01   7.2652157509e+01    0.2685708     0.144532  -3.14  0.001493371    1.991    0.498
         7 -10.9744     59.8314    218.2061   1.1096963773e+02   2.0421238647e+01    0.2515338    0.1710497  73.16 0.0005252432    1.463    0.317
         8 -12.9910     44.9686    194.1658   1.1198747096e+02   2.7779407113e+01     1.488636    0.4563567  45.63   0.00193413    3.059    0.673
         9 -13.0753     47.8270    246.0483   1.1590950394e+02   1.6051302730e+01    0.4615725    0.2543288  61.87  0.001447107    1.657    0.396
        10 -18.2759     11.4578    240.6565   1.2258785342e+02   2.1073999562e+01     10.38431     7.588008  89.69   0.03461955    1.224    0.183
        11 -10.0409     64.6905    205.2903   1.0847394491e+02   2.2721638289e+01    0.4273792    0.1881202 -73.97  0.001771581    2.522    0.604
        12 -11.3252     61.6507    211.2601   1.0984102069e+02   2.1747031982e+01    0.4363404    0.2524138  61.72  0.001927726    1.791    0.442
        13 -11.4644     94.8204    203.8229   1.0102769671e+02   1.8776446927e+01    0.4513187     0.231722 -33.28  0.001622571    3.527    0.716
        14 -12.0085    193.4690    195.8710   7.6716190123e+01   3.8983089912e+00     1.110383    0.5738683 -62.50  0.003139472    6.356    0.843
        15  -9.9385     40.8631    200.9115   1.1362803905e+02   2.6649267362e+01    0.1765961    0.1634494 -80.50 0.0004974998    1.171    0.146
        16 -11.2991     56.9302    210.9704   1.1089923675e+02   2.2412690299e+01    0.6166014    0.3329417  48.49  0.001119628    1.697    0.411
        17 -10.7940     13.2740    197.1967   1.1960457287e+02   3.0296315141e+01    0.2091437    0.1614471  64.97 0.0003941602    1.145    0.127
        18 -10.2899     59.5569    197.0021   1.0876035605e+02   2.5333028169e+01    0.1851624    0.1638355  65.20 0.0001233327    1.046    0.044
        19 -10.2046     82.8486    194.8764   1.0272983437e+02   2.2649497135e+01    0.2868524    0.1862999  30.49  0.001034562    1.588    0.370
        20  -9.3246     66.9506    194.0596   1.0658760416e+02   2.5070754101e+01    0.1591345    0.1433974  68.62 0.0003197842    1.026    0.025
        21 -10.0520    158.1367    193.1825   8.3997213384e+01   1.0508160862e+01     0.189962    0.1759535 -85.80 0.0004853113    1.338    0.253
        22 -12.5885    130.3605    191.4039   9.0308145248e+01   1.5775277795e+01    0.3849455    0.3377122   8.12  0.001555154    1.199    0.166
        23 -12.6974    110.0994    188.8183   9.4919842363e+01   1.9817820289e+01    0.7015558    0.4053847  -7.30  0.002051517    5.073    0.803
        24 -12.1200    124.8416    188.5979   9.1175388296e+01   1.7366147649e+01    0.3293959    0.2334182 -69.66  0.001143117    1.711    0.415
        25 -13.2524     58.1152    183.2727   1.0746400229e+02   2.8845034638e+01     0.734647    0.6986989  26.40  0.002684175    1.206    0.171
        26 -10.4456     49.6699    180.8746   1.0933799957e+02   3.0468719383e+01    0.2132907    0.1675822  68.96 0.0006177942    1.228    0.186
        27 -10.3846     85.1933    186.2059   1.0088353494e+02   2.4384450065e+01    0.3169546    0.2263159  88.42   0.00119557    1.629    0.386
        28 -10.1334     79.6874    182.6642   1.0178488637e+02   2.6062146782e+01    0.3029255    0.1935446 -88.20  0.001352867    1.934    0.483
        29  -9.3583     82.6913    182.3227   1.0094872232e+02   2.5704649706e+01     0.146364    0.1425904 -79.85 0.0004942024    1.065    0.061
        30 -11.2528    145.8531    184.1289   8.5180762233e+01   1.4639851035e+01    0.2339799    0.2074821  65.14  0.000724506    1.310    0.237
        31 -11.6509     99.2425    181.1548   9.6431268322e+01   2.3423094792e+01    0.3127514      0.28237  10.97 0.0007341341    1.223    0.182
        32 -10.9938     54.4822    206.4737   1.1100423281e+02   2.3748211900e+01    0.2725208    0.2009035  78.07 0.0006144256    1.296    0.229
        33 -10.2137     42.4959    179.8893   1.1105894067e+02   3.1534133309e+01    0.1903876    0.1849177  19.68 0.0005014466    1.236    0.191
        34 -10.1750     45.5147    176.5255   1.0989218997e+02   3.2030736783e+01     0.301329     0.224209 -24.82  0.001588624    1.830    0.454
        35 -13.2320     83.5394    157.5405   9.6600035847e+01   3.1793549587e+01     1.032189    0.6953348 -66.43  0.004783072    1.501    0.334
        36 -13.8983     72.0165    152.0338   9.8938778992e+01   3.4908020176e+01    0.7589731    0.5099173 -61.51  0.001134211    1.403    0.287
        37 -11.2302     72.7947    245.5318   1.1079353889e+02   1.3014823443e+01    0.4058261    0.3680344  39.79  0.002808135    1.200    0.167
        38 -12.5071     75.3135    165.5757   1.0030331532e+02   3.0970848004e+01    0.5207978    0.4452504 -49.55  0.001049099    1.190    0.160
        39 -10.7300    185.8266    172.7510   7.3683022124e+01   9.7045073632e+00    0.2702955    0.2410528  -9.24  0.001059731    1.044    0.042
        40 -10.7050     62.6094    250.4551   1.1330167679e+02   1.3371766821e+01    0.2661351    0.1320603  43.90 0.0007481037    1.633    0.387
        41 -10.0976     59.0038    250.7898   1.1405006779e+02   1.3759817505e+01     0.159843   0.08330179  43.78 0.0008767006    1.559    0.358
        42 -16.6166      6.0512    209.9733   1.2197429827e+02   2.8046794132e+01     3.991177    0.6777048 -65.00   0.01447358    4.374    0.771
        43 -10.5433    110.8949    168.0917   9.1003470386e+01   2.4644099419e+01    0.2399609     0.207411  76.80 0.0005939356    1.293    0.227
        44 -11.2361     33.7662    165.7551   1.1172343570e+02   3.5988939738e+01    0.4297612    0.2101609  49.77  0.001605561    2.164    0.538
        45 -12.2600     71.4725    169.7992   1.0203291016e+02   3.0444162829e+01    0.4348462    0.2988313 -29.90  0.002020507    1.914    0.478
        46 -10.5699     64.2808    157.5002   1.0210346812e+02   3.4562069029e+01    0.2702085    0.1896876 -65.64 0.0006930449    1.335    0.251
        47 -11.6728    133.7826    145.6725   8.0145471814e+01   2.5772560143e+01     1.253488    0.3125453 -54.26  0.002708751    6.285    0.841
        48 -11.6428     89.1814    152.1660   9.3969947998e+01   3.2275104471e+01    0.4448448    0.3302194  13.34 0.0005618193    1.642    0.391
        49 -11.4821     92.0121    148.7500   9.2473517318e+01   3.2682003173e+01    0.4359204    0.2953724  42.19  0.001557154    1.516    0.340
        50 -13.1879     54.5504    146.8796   1.0321975314e+02   3.8538767073e+01    0.8299609    0.7495123 -63.16   0.00477389    1.036    0.035
        51  -9.8122    111.2261    149.7816   8.7203101136e+01   2.9085839228e+01    0.2618799    0.1686434  75.84 0.0009448131    2.711    0.631
        52 -10.2036    174.9863    149.0450   7.0870085354e+01   1.6692313250e+01    0.2380221    0.1942865 -84.94 0.0007258837    1.697    0.411
        53 -11.8352     39.5934    146.5404   1.0760272610e+02   4.0302830499e+01     0.333713    0.2587615  37.32  0.001419521    1.406    0.289
        54 -11.7957    105.2922    133.2062   8.5192740812e+01   3.4265522468e+01     1.055082    0.3904259 -41.86  0.003267122    3.046    0.672
        55 -13.9537     42.5485    128.0815   1.0376284592e+02   4.4748855467e+01     1.094493    0.6540611  84.11  0.003278149    2.337    0.572
        56 -10.7522    135.7671    129.2424   7.5687520567e+01   2.9205059189e+01    0.3033308    0.1931532 -49.01  0.001268585    1.566    0.361
        57 -10.7249    112.4689    128.6945   8.2018565991e+01   3.4017408802e+01    0.3220567    0.2593959  -2.39 0.0005967963    1.495    0.331
        58 -11.0440     99.5524    124.5352   8.4839812271e+01   3.7441770351e+01    0.3033881    0.2515454 -11.58 0.0007879112    1.374    0.272
        59 -10.0159    108.3076    118.0080   8.0561858240e+01   3.7378280594e+01    0.2152917    0.1937666 -42.77 0.0002864132    1.080    0.074
        60 -13.2251     40.9059    113.8261   1.0167461341e+02   4.8543287055e+01    0.6105929    0.3115293  43.76  0.002657478    2.339    0.572
        61 -13.2043     43.3148    109.1572   9.9891803356e+01   4.9460404852e+01    0.5198338    0.4373519 -72.16  0.001132475    1.211    0.174
        62 -10.5456    231.2248    113.8252   5.2184150174e+01   1.2367756648e+01    0.2264437    0.2183692 -25.21  0.000740482    1.130    0.115
        63 -13.0442     52.1918    108.3297   9.6589092702e+01   4.8663115028e+01    0.6761195    0.3584028 -54.16  0.002588779    1.654    0.395
        64  -9.9488    205.7001    110.1025   5.5502631306e+01   1.8122920529e+01    0.2050441     0.175865 -38.81 0.0005887859    1.077    0.072
        65 -12.3378     91.2909    136.8022   9.0179013902e+01   3.5826616217e+01    0.3043386    0.2667936 -32.87 0.0004226094    1.168    0.144
        66 -11.4935     25.4559    107.8699   1.0592658194e+02   5.1439229245e+01    0.2637276    0.1667672 -18.32  0.001327107    1.903    0.474
        67 -11.5876     33.8639    100.6022   1.0149532133e+02   5.2507820917e+01    0.2598514     0.245411 -47.19 0.0006064858    1.103    0.094
        68  -9.2348     66.3286    100.2745   8.9637311421e+01   4.8760487494e+01     0.150266    0.1076894 -19.47 0.0003258233    1.589    0.371
        69 -11.3560     51.9396     93.6173   9.3156768264e+01   5.2253479330e+01    0.2920963    0.2075929  47.36  0.001298562    1.728    0.421
        70 -10.4871    155.8844     88.1237   5.9702642313e+01   3.3425973459e+01    0.3756973    0.2448013 -71.31  0.001484677    2.349    0.574
        71 -11.2631     42.9833     89.4963   9.5508616137e+01   5.4255699566e+01    0.3023904    0.1171981  33.46  0.001200127    2.758    0.637
        72 -10.2791     75.0463     85.0115   8.2247191087e+01   5.0914959696e+01    0.2145993    0.2016914 -15.52 0.0003217911    1.048    0.046
        73 -11.9170     13.2851     59.9258   1.0026524020e+02   6.3436077633e+01    0.2468548    0.2375727 -78.95 0.0005025316    1.360    0.265
        74 -10.9108     85.8812    241.1208   1.0760527058e+02   1.2111693526e+01    0.1561993    0.1482713   4.87 0.0003881586    1.289    0.224
        75  -9.9091     88.1576    208.8223   1.0331158893e+02   1.8638863503e+01    0.1763129    0.1578253 -41.82 0.0004950242    1.282    0.220
        76 -13.1785    185.9699     53.1911   4.4581880991e+01   3.2097857079e+01    0.6532317    0.4510043  40.53  0.000835059    1.765    0.433
        77  -9.4826    198.2893     23.3669   3.5602282540e+01   3.3086173015e+01    0.1202781   0.09532187  35.57  0.000590104    1.706    0.414
        78  -9.6232     73.4223    236.5027   1.0980073195e+02   1.4741368243e+01    0.1264078    0.1073561  59.16 0.0001095351    1.013    0.013
        79  -9.4694    189.6557     15.2897   3.4581260290e+01   3.5951067494e+01    0.1337621   0.08174262 -70.80 0.0007024971    1.654    0.395
        80 -10.8260     55.5678    222.1866   1.1230118927e+02   2.0081587019e+01    0.2036962    0.1740764  60.29 0.0004771962    1.047    0.045
