#   1 NUMBER                 Running object number                                     
#   2 MAG_AUTO               Kron-like elliptical aperture magnitude                    [mag]
#   3 X_IMAGE                Object position along x                                    [pixel]
#   4 Y_IMAGE                Object position along y                                    [pixel]
#   5 X_WORLD                Barycenter position along world x axis                     [deg]
#   6 Y_WORLD                Barycenter position along world y axis                     [deg]
#   7 A_WORLD                Profile RMS along major axis (world units)                 [deg]
#   8 B_WORLD                Profile RMS along minor axis (world units)                 [deg]
#   9 THETA_WORLD            Position angle (CCW/world-x)                               [deg]
#  10 FWHM_WORLD             FWHM assuming a gaussian core                              [deg]
#  11 ELONGATION             A_IMAGE/B_IMAGE                                           
#  12 ELLIPTICITY            1 - B_IMAGE/A_IMAGE                                       
         1 -12.7930    190.0594     11.1834   6.5092143778e+01   3.6293930288e+01     1.808802    0.7337493  85.15  0.006377502    3.549    0.718
         2 -12.7141    173.7464      2.1403   6.4786776405e+01   4.1148878337e+01     1.365746    0.3454265  67.58  0.004844734    3.230    0.690
         3 -14.7990    241.6844     96.1160   7.8659156691e+01   1.1594908298e+01     5.695906     1.207988 -35.46   0.01473248    5.252    0.810
         4 -14.1031    235.7132     55.4749   7.0106941475e+01   1.9555067861e+01      1.98645    0.9513434  84.72  0.002933798    3.180    0.686
         5 -14.3312    215.0075     32.2271   6.7220777114e+01   2.7735938081e+01      1.55641    0.8026923 -56.83   0.00695111    2.059    0.514
         6 -13.6558    191.3949     36.1464   7.1379592740e+01   3.3030889686e+01     2.027452     0.422823  55.36  0.003024082    3.899    0.744
         7 -15.5342    203.1648     43.2609   7.1509693892e+01   2.9147068227e+01     4.520529     1.266613 -31.76   0.01457608    3.923    0.745
         8 -15.5605    188.1532     67.2580   8.0215017939e+01   2.9248258091e+01     2.684257     1.488365 -33.18  0.006505661    1.924    0.480
         9 -15.4473      3.2598     57.5602   1.3103496678e+02   6.2827882403e+01     1.657585    0.3079616 -59.65  0.006346704    3.903    0.744
        10 -15.3493      3.5246     20.0512   1.1992905354e+02   6.9329780098e+01      1.60877    0.4396337 -51.57   0.00730237    3.495    0.714
        11 -13.7795    165.0024     39.0044   7.6483028930e+01   3.9229698135e+01      1.03101     0.493358  49.99  0.003818843    1.966    0.491
        12 -14.1476    163.6657     33.4201   7.5097332349e+01   4.0277277841e+01    0.9688095    0.7492405  81.07  0.003091102    1.329    0.248
        13 -14.1811    237.0434     27.7110   6.3719672420e+01   2.3123031361e+01       1.8715    0.8124025 -69.68  0.007057024    3.337    0.700
        14 -13.8969    227.3371     19.9000   6.2985501487e+01   2.6347056901e+01     1.837042    0.7543318 -37.86 0.0007778667    2.336    0.572
        15 -13.8104    249.6620     26.0841   6.2139564199e+01   2.0490710443e+01     1.942158    0.3977647 -41.35  0.007015511    3.615    0.723
        16 -15.7988    247.0130      3.3506   5.7723950001e+01   2.3805020894e+01     1.199771    0.7631338  67.59  0.005858156    1.537    0.349
        17 -14.7197    235.7303      2.3290   5.8421686186e+01   2.6427814191e+01    0.6939638    0.2452852  68.99  0.002866372    2.426    0.588
        18 -13.8121     32.2762     11.6772   1.0395635435e+02   6.7986643080e+01     0.665464    0.4231746  -3.41  0.002734229    1.414    0.293
        19 -12.0276    214.5189      3.7924   6.0640135034e+01   3.1173828384e+01    0.5776726    0.3381941 -44.57  0.003187742    1.695    0.410
        20 -11.5952    119.7232      8.9836   7.5836041942e+01   5.3232412216e+01    0.1787507    0.1613562  31.61 0.0007820444    1.078    0.072
        21 -12.0501    135.8244      6.0799   7.1731030294e+01   4.9846419866e+01    0.3059732    0.1532952  57.12  0.001017963    1.643    0.391
        22 -10.5154    222.9560      2.2641   5.9511932435e+01   2.9358843030e+01    0.1809652    0.1382816  85.99 0.0004070233    1.092    0.084
        23 -12.3184    154.4218      1.9479   6.7412723748e+01   4.5821864725e+01    0.6871406    0.1107167  61.18  0.002226006    3.810    0.738
        24 -10.2366     64.4469      2.4739   8.7895386492e+01   6.4528925725e+01    0.1162651   0.09242814  15.27 5.366371e-05    1.026    0.025
        25 -11.1814    210.6810    134.1526   9.2910133882e+01   1.1481692189e+01    0.3021439    0.1785661  39.26  0.001269794    1.874    0.466
        26  -9.7840    239.3426    250.6875   1.1071178913e+02  -1.2885877048e+01    0.1045238   0.09080123  54.40 0.0007046522    1.703    0.413
        27 -12.2194    172.5576    250.2650   1.2284217016e+02  -1.9955920841e+00    0.9973752    0.1503929  41.60  0.002758501    5.659    0.823
        28 -14.6320    144.8206    248.2971   1.2776635932e+02   3.0747858201e+00     3.716394    0.9315748  35.84  0.008620608    8.778    0.886
        29 -14.9404    219.3339    237.5993   1.1214309278e+02  -8.0567262536e+00     1.981694    0.8126741  32.73  0.008802742    2.385    0.581
        30 -13.3102    223.2989    215.4963   1.0752517942e+02  -5.4997042373e+00     3.455118     1.388591  31.84   0.01371017    2.813    0.644
        31 -16.1092    165.9839    220.7941   1.1964266968e+02   4.0224270399e+00     2.500026      1.55818  47.65  0.008213861    1.437    0.304
        32 -16.4173    198.3246    204.8733   1.1038224917e+02   7.5102775682e-01     2.614143     1.501833  32.37  0.009162103    1.767    0.434
        33 -11.1053    213.1729    128.3744   9.1074184559e+01   1.2041223773e+01    0.2134466    0.1445956  63.22 0.0009477795    1.716    0.417
        34 -10.8426    248.3540    225.4848   1.0478191523e+02  -1.1027732972e+01     0.317807    0.1990369  30.95  0.001279331    1.437    0.304
        35 -10.3227    243.9694    225.5040   1.0556334676e+02  -1.0349468796e+01    0.1766742    0.1445934  59.92  0.000818019    1.865    0.464
        36 -14.2683     19.3968    217.3573   1.4763743493e+02   2.7277560514e+01    0.7916852     0.578208  81.11  0.003887089    1.028    0.027
        37 -13.6536    169.9581     72.9104   8.5252175025e+01   3.2824900760e+01     1.008071    0.6652778 -41.67  0.001667487    1.536    0.349
        38 -14.2181    156.5909    195.8519   1.1734482438e+02   1.0536296688e+01     1.198589      1.12848  60.30  0.004806053    1.029    0.028
        39 -12.0354    171.7056    193.0465   1.1362092834e+02   8.1054981255e+00    0.7178629    0.3969078  22.27  0.002594696    3.159    0.683
        40 -13.2381    176.3538     66.6469   8.2233863650e+01   3.2292391496e+01     0.836611    0.4708388 -52.81  0.001314309    2.023    0.506
        41 -13.9082    168.0920     55.9548   8.0802578798e+01   3.6046967179e+01    0.8972366    0.6726943 -75.39  0.002253052    1.597    0.374
        42 -13.6470    179.2274    185.6570   1.1061500083e+02   8.0389842879e+00     1.088363     0.698035  44.41  0.003647085    1.478    0.324
        43 -10.4297    248.3415    203.4433   1.0067805051e+02  -7.9091889728e+00    0.2126582    0.1151855  35.50  0.001070662    1.792    0.442
        44 -16.4035    237.4965    182.8553   9.8548236705e+01  -2.8049361126e+00     2.167985     1.294044  23.20  0.009632066    2.026    0.506
        45 -14.2373    197.7712     64.9038   7.7928902365e+01   2.7235813537e+01     1.170751    0.7468997  42.85  0.004307194    1.801    0.445
        46 -12.4404    198.0676    119.4938   9.1851251507e+01   1.7229847872e+01    0.5554149    0.2939142  66.00   0.00197097    2.689    0.628
        47 -10.1891    249.9026    137.3400   8.6673995826e+01   2.6621427458e+00    0.1816437      0.17611  22.55 0.0004647397    1.123    0.109
        48 -12.2794    214.0363    116.5062   8.8077392151e+01   1.4112930624e+01    0.4054942    0.2545597  81.08  0.001557006    2.607    0.616
        49 -12.1038    204.6275    110.4443   8.8345951727e+01   1.7451068935e+01    0.4633119    0.2968355  25.13  0.001821967    2.417    0.586
        50 -12.6891    187.3736    107.3502   9.0951308058e+01   2.2156413325e+01    0.4684289    0.2440805 -32.21  0.001753492    2.193    0.544
        51 -11.3988    134.4496    105.7831   1.0267242877e+02   3.4816935726e+01    0.3946604     0.150055 -41.65   0.00130824    2.666    0.625
        52 -14.5170    152.8204     98.4477   9.6169866620e+01   3.2180408480e+01     1.194881     0.842006  85.72  0.003595796    2.080    0.519
        53 -14.8812    156.1797     93.6873   9.4075821218e+01   3.2335869419e+01     1.191728    0.9517641  68.68  0.005359033    1.365    0.268
        54 -11.5620    228.0458    105.0197   8.2883824604e+01   1.3054422429e+01    0.3294194     0.206073  86.80  0.001309271    2.575    0.612
        55  -9.3314     20.6584    103.7137   1.3471725013e+02   5.2175330618e+01    0.1232359   0.07487512 -40.22 0.0003426402    1.640    0.390
        56 -10.6523    225.9313     94.1070   8.0624968067e+01   1.5485308004e+01    0.2278419    0.1886756 -72.37 0.0004728526    1.247    0.198
        57 -10.3139    132.9751     93.1756   9.9580148902e+01   3.7754632765e+01    0.2323962    0.2043959  89.65 0.0006761937    1.309    0.236
        58 -11.4804    139.7129     84.1842   9.5311247971e+01   3.8011236543e+01    0.3317228    0.2896162 -59.06  0.001224768    1.222    0.182
        59 -14.2307     49.0967    190.0937   1.3961321217e+02   2.9645811770e+01    0.6460494    0.5700554 -83.55  0.001554244    1.210    0.174
        60 -14.1303     58.4930    180.7027   1.3652908035e+02   3.0555330874e+01    0.8767939    0.7398873  86.96  0.002445511    1.041    0.039
        61 -12.5618    153.0495     74.9691   8.9475237787e+01   3.6585764253e+01    0.3622524    0.2901717 -29.00 0.0007306141    1.328    0.247
        62 -10.8393     19.0588     50.4643   1.2329247067e+02   6.3149744669e+01     0.150417    0.1063315   8.75 0.0004958863    1.564    0.361
        63 -11.7623    239.6107     46.1000   6.7513463392e+01   2.0034014578e+01     0.366787    0.2033547  85.56  0.001347666    2.061    0.515
        64 -12.6810    233.0017     41.9582   6.7344169828e+01   2.2145479922e+01    0.5276747    0.3745719 -86.05  0.002195517    1.368    0.269
        65 -11.7488    151.9721     46.6909   8.1280487604e+01   4.1371399495e+01    0.3789889    0.2459431 -66.02  0.001384858    2.163    0.538
        66 -11.0405    147.7426     45.4448   8.1779544305e+01   4.2566385015e+01    0.3332782     0.230182  -5.83  0.001191723    1.922    0.480
        67 -11.8533    177.7330     43.9339   7.5653680594e+01   3.5394144849e+01    0.4100288    0.3131928  15.69  0.002055221    1.769    0.435
        68 -11.2128    190.0284    181.7770   1.0758403888e+02   6.5980452674e+00    0.3947544    0.2730186  31.84  0.001221884    1.504    0.335
        69 -12.2128    203.9275    180.1178   1.0441222764e+02   4.1040917730e+00     1.173916    0.3362848  37.63  0.003299708    4.501    0.778
        70 -10.6867    210.5112    176.6744   1.0238986634e+02   3.4222825884e+00    0.4002965    0.1836908  46.50  0.001606635    2.188    0.543
        71  -9.8655     38.2713    182.3413   1.4102129920e+02   3.2653421194e+01    0.1169238   0.08345886 -54.08 0.0002461114    1.609    0.379
        72 -10.5667    143.6124    180.2435   1.1732283552e+02   1.6348556975e+01     0.281401    0.1946976  45.73 0.0008819699    1.379    0.275
        73 -10.5617     24.0338    177.2766   1.4345238907e+02   3.5293810639e+01    0.1643981    0.1302802  87.65 0.0005729621    1.053    0.051
        74 -12.9878    198.0524    173.0357   1.0412827276e+02   6.6334512765e+00    0.9933186    0.4122196  38.92  0.002984018    2.550    0.608
        75 -12.0182    226.8216     31.4048   6.5643021805e+01   2.5021926809e+01    0.4662258    0.2474789  77.89  0.001832227    1.873    0.466
        76 -12.2423     94.5076     25.4923   8.7990039607e+01   5.6768602825e+01    0.2830875     0.156709  32.59  0.001413452    1.788    0.441
        77 -12.2227     91.9447     22.6943   8.7668540294e+01   5.7585392874e+01    0.2898843    0.1665829 -26.23 0.0005936481    1.783    0.439
        78 -10.0915     75.3061     25.2896   9.3712067387e+01   6.0260504400e+01    0.1270317   0.08370326  11.95 0.0002074245    1.573    0.364
        79 -12.5385    133.5626     37.1092   8.2221444850e+01   4.7027780328e+01    0.5019883    0.3700242  52.31  0.002353505    1.248    0.198
        80 -10.8519    212.2997    165.0549   9.9570165349e+01   5.2147798894e+00    0.4211589    0.2429727 -21.03  0.001665471    2.445    0.591
        81 -12.7380    109.2444     12.7855   7.9511587819e+01   5.5142749637e+01    0.4186911    0.1462078  54.57  0.001757228    2.437    0.590
        82 -13.4350    187.6369     55.9480   7.7258764016e+01   3.1166130757e+01    0.9263878    0.5066149  31.62  0.003372282    3.140    0.681
        83  -9.9137     11.5681    162.4924   1.4462784190e+02   3.9721535832e+01      0.11885   0.08863427 -83.92 9.269492e-05    1.009    0.009
        84 -12.1034     67.7648    144.2992   1.2897980318e+02   3.7808514301e+01       0.6093    0.3534338  63.25  0.002788284    2.188    0.543
        85 -11.0959    233.6420    139.7424   8.9968637004e+01   5.5019184126e+00    0.2350168    0.2152337  53.68 0.0009242238    1.186    0.157
        86 -13.3586    192.4587    132.9692   9.6262084104e+01   1.5829675096e+01    0.8269215    0.5769972 -48.26  0.002235983    1.438    0.305
        87 -12.5417    189.1404    124.0608   9.4786669527e+01   1.8400407159e+01    0.3962404    0.2243242 -49.33    0.0013123    1.822    0.451
