#   1 NUMBER                 Running object number                                     
#   2 MAG_AUTO               Kron-like elliptical aperture magnitude                    [mag]
#   3 X_IMAGE                Object position along x                                    [pixel]
#   4 Y_IMAGE                Object position along y                                    [pixel]
#   5 X_WORLD                Barycenter position along world x axis                     [deg]
#   6 Y_WORLD                Barycenter position along world y axis                     [deg]
#   7 A_WORLD                Profile RMS along major axis (world units)                 [deg]
#   8 B_WORLD                Profile RMS along minor axis (world units)                 [deg]
#   9 THETA_WORLD            Position angle (CCW/world-x)                               [deg]
#  10 FWHM_WORLD             FWHM assuming a gaussian core                              [deg]
#  11 ELONGATION             A_IMAGE/B_IMAGE                                           
#  12 ELLIPTICITY            1 - B_IMAGE/A_IMAGE                                       
         1 -10.3269    110.6556     40.6875   2.2616571744e+01   5.1128499066e+01    0.8680223    0.6360035 -25.44  0.004762494    1.717    0.418
         2 -11.5212     78.7326     35.6670   2.8922257948e+01   5.9157114626e+01    0.6673514    0.4520209 -32.43  0.003531339    1.723    0.420
         3 -12.0906    104.6222     11.9920   1.4233997063e+01   5.5937364650e+01    0.7201055    0.3160338 -30.38  0.003432808    2.560    0.609
         4 -10.5156    105.5436      1.8263   1.0602832777e+01   5.6650261137e+01    0.2929766    0.1793478 -81.37  0.001184278    1.583    0.368
         5 -12.5016    105.6877     20.0106   1.6786789191e+01   5.4852197008e+01    0.3927545     0.271766 -75.97 0.0003857668    1.501    0.334
         6 -11.7519    164.3278     27.6179   1.0980146016e+01   4.0809124839e+01    0.3951702      0.29601 -54.22 0.0005295147    1.197    0.164
         7 -12.4548     58.2509     29.4247   3.3439525861e+01   6.4522338473e+01    0.5863845    0.3570546 -21.18  0.001308617    2.285    0.562
         8 -11.7153     20.4171     21.5394   4.9515148887e+01   7.2701350654e+01    0.5773394     0.390191 -22.00  0.001778157    1.698    0.411
         9 -10.5240      5.6632      9.0000   5.4118646783e+01   7.6744541903e+01    0.4585306    0.4207821 -29.48  0.003253561    1.310    0.237
        10 -11.2286      9.4511     19.5533   5.6717353647e+01   7.4521397152e+01    0.6486357    0.3177059   5.05  0.002173625    3.246    0.692
        11 -12.2552     22.5324     11.3407   4.2405515298e+01   7.3909194778e+01    0.6806177    0.4866188  22.47  0.003770391    1.320    0.243
        12 -10.9971    134.2647     22.0024   1.2982112775e+01   4.8017620855e+01    0.3825805    0.3212008  86.67  0.002531278    1.061    0.058
        13 -11.0407    127.7561     11.8683   1.0864542169e+01   5.0567071771e+01    0.3629595    0.1981349 -71.30  0.001883421    1.897    0.473
        14 -11.3612    134.7142     14.9663   1.0919180362e+01   4.8669942826e+01    0.5900359    0.2213596  64.53   0.00273529    2.301    0.565
        15 -12.1704     48.9810     12.9427   2.9374590867e+01   6.8608926729e+01    0.8506064     0.241149  53.55  0.003217537    2.865    0.651
        16 -11.5108     35.5280     17.5880   3.8147194127e+01   7.0725718851e+01    0.5110443    0.3434443 -19.78  0.002824005    1.847    0.459
        17 -11.6104    246.5803     20.2027   3.7579798845e+00   2.6792092633e+01    0.1906448    0.1688848 -55.60  0.001738849    1.427    0.299
        18 -10.8536     68.6331     19.4837   2.5439641693e+01   6.3533767595e+01    0.3540777    0.3013794  69.67  0.002091423    1.099    0.090
        19 -10.7204     89.1268      8.5805   1.5817534451e+01   5.9919050498e+01    0.2950162    0.2418185 -19.66  0.001106868    1.534    0.348
        20 -10.8085     86.3117     13.5208   1.8320372174e+01   6.0097635388e+01    0.3866492    0.2471885  29.84  0.002001313    2.155    0.536
        21 -10.7262    186.8365     15.0220   6.1648975876e+00   3.7657571225e+01    0.2083001    0.1450336  80.55 0.0008569016    1.380    0.275
        22 -11.4704    192.7193      7.5895   4.1976652849e+00   3.7291460742e+01    0.3124278    0.2194555 -21.42   0.00164206    1.995    0.499
        23 -10.1084    218.9966     12.5143   3.7287033508e+00   3.2047699634e+01     0.175829    0.1398248 -28.79  0.001374017    1.667    0.400
        24 -11.9200    212.2085      9.5067   3.5049882265e+00   3.3534390528e+01    0.4143422    0.2633576 -25.42  0.002081123    2.077    0.519
        25 -10.6452    218.4482      3.7077   2.1026397010e+00   3.3029623196e+01    0.1920312    0.1447811  77.51 0.0007405302    1.528    0.345
        26 -10.8487    190.6810     12.4743   5.3574006441e+00   3.7182853595e+01    0.3169741     0.137522 -43.67  0.001627581    1.850    0.460
        27 -10.5986    120.5931     11.6776   1.1732955513e+01   5.2235705422e+01    0.2896572    0.1264245  72.85  0.001093569    1.978    0.494
        28 -11.9825    227.6871     14.9541   3.7417587423e+00   3.0333721930e+01    0.3833733    0.1706024 -70.96  0.001451729    2.052    0.513
        29 -10.1130    164.7229      4.7286   5.4041861741e+00   4.3148635848e+01     0.214641    0.1697442  38.31   0.00116222    1.917    0.478
        30 -10.9545    168.9182      9.6199   6.2532402500e+00   4.1800590967e+01    0.3150446    0.1802172  69.51  0.001813475    1.694    0.410
        31 -11.0589     64.2668     10.0760   2.2573314769e+01   6.5553585540e+01    0.4102333    0.2689562 -70.54  0.001940681    2.092    0.522
        32  -9.6572     64.5206      6.5764   2.0875442193e+01   6.5840093551e+01    0.2597041    0.1443799  76.57 0.0007693173    1.932    0.482
        33  -9.7400      1.0000      8.4213   5.8125146631e+01   7.7378354517e+01    0.3176696   0.06734023 -52.38  0.001085905    5.253    0.810
        34 -11.7383    243.6768      4.3120   1.1818001938e+00   2.8860252960e+01    0.5249572     0.176641 -62.78  0.003115843    2.374    0.579
        35 -10.2477    245.5399      1.4147   6.2650357676e-01   2.8856237948e+01    0.1529347    0.1012573  89.87 1.372949e-05    1.509    0.337
        36  -9.7004    145.5943      8.5718   7.9884363168e+00   4.6880320708e+01      0.21932    0.1475116   6.16  0.001184807    2.813    0.645
        37 -10.5993    156.7855      7.2436   6.6435698358e+00   4.4581493074e+01    0.2585951    0.2334356 -15.82  0.001889257    1.554    0.356
        38 -10.5780    153.3378      6.6810   6.7923578180e+00   4.5375573285e+01    0.1897616    0.1034601  84.79 0.0008442206    1.601    0.375
        39 -11.2991    232.2110      6.3598   1.9898866989e+00   3.0471602478e+01     0.232599    0.1438443 -78.07  0.001125043    1.369    0.270
        40 -11.2800    233.9993      2.5204   1.2404591719e+00   3.0561358819e+01    0.3007291    0.1318855 -64.01  0.002004102    1.747    0.428
        41 -11.3532    184.9125      6.3001   4.3962128924e+00   3.8921444992e+01    0.3151219    0.1538027 -59.53  0.001588585    1.664    0.399
        42  -9.7166     77.8741      7.3144   1.7732603331e+01   6.2681188905e+01    0.1947122     0.153039  89.61 0.0006036172    1.252    0.202
        43  -9.3513     76.4628      3.5064   1.6449602400e+01   6.3354155977e+01    0.2100147    0.1701382  71.58 0.0007928477    1.027    0.026
        44 -10.0671     73.4721      2.5320   1.6717132317e+01   6.4136889337e+01    0.4889981      0.13597  44.45  0.001591889    4.737    0.789
        45 -10.4593    175.9941      5.8221   4.8666958930e+00   4.0735033057e+01    0.2212461    0.1216878  78.84 0.0008406109    1.647    0.393
        46 -10.1941    122.1744      5.3491   9.5795991289e+00   5.2469220832e+01    0.1959457   0.09517021 -24.22 0.0007218499    2.568    0.611
        47 -11.6834    137.8401      4.1167   7.5238345095e+00   4.9021522547e+01    0.4894892    0.1979796  69.39 0.0003776161    2.098    0.523
        48 -12.0200    133.1906      2.5748   7.5483005933e+00   5.0205286582e+01    0.4039423    0.2833573  71.73  0.002593207    1.294    0.227
        49 -10.5850     41.7092      3.7698   2.7505639060e+01   7.1139115893e+01    0.3409772    0.1858693  34.51  0.001736973    1.965    0.491
        50 -10.7450    112.8181      1.8582   9.6361839472e+00   5.4946093151e+01    0.3700596     0.157407  82.89  0.001575073    2.219    0.549
        51 -10.9901    223.6461      2.5925   1.6712078613e+00   3.2256471684e+01    0.1994902     0.132456 -60.51  0.000209141    1.047    0.045
        52 -11.4355    206.3745      2.3107   2.3946135535e+00   3.5287536935e+01    0.4064364    0.1570093 -86.52  0.002221555    2.552    0.608
        53 -10.4302      2.0497      2.0321   5.3074702936e+01   7.8268771219e+01    0.2321993    0.1632746  -8.72  0.001046955    1.436    0.304
        54  -9.2468     33.7856      1.9595   3.0128022828e+01   7.2954643491e+01    0.1401171    0.1012211 -23.04 0.0004867158    1.641    0.391
        55 -11.3452     15.6037     15.5333   4.9748667378e+01   7.4374217925e+01    0.3734775    0.2676312 -10.37  0.001364334    1.539    0.350
        56  -9.2729    160.3331      1.3091   4.8961687354e+00   4.4388851813e+01     0.106102   0.08039084  54.66 0.0007042097    1.672    0.402
        57  -9.5333    152.0478      1.4297   5.5553892950e+00   4.6144201428e+01    0.1714184   0.09511682  81.28 0.0006240623    1.541    0.351
        58 -11.1138     13.0203      8.9633   4.7877977986e+01   7.5752989874e+01    0.3932198    0.3363242 -13.97  0.001711224    1.217    0.178
        59 -10.8876     17.1746     10.6069   4.5713618822e+01   7.4883374384e+01    0.2438862    0.2112992   4.81  0.000512624    1.119    0.106
        60 -10.6319     35.4557    102.9840   6.7743214013e+01   5.2798806236e+01    0.6241577    0.3133962  -1.98  0.001805764    3.225    0.690
        61 -12.2335     25.7299    105.8538   7.2662884914e+01   5.3093644571e+01    0.9165689    0.6710315 -60.09  0.003515999    1.334    0.250
        62 -11.2455     28.2556    112.9994   7.2794060022e+01   5.0916194612e+01    0.3591055     0.289055  13.70 0.0009821999    1.255    0.203
        63 -10.5023      7.8134    114.8289   8.2000843927e+01   5.2097488367e+01    0.2993778    0.2605732 -42.16 0.0007015438    1.125    0.111
        64 -12.1133      2.7146    111.3268   8.3852554349e+01   5.3356272967e+01    0.4868804    0.3985156 -84.53  0.001864114    1.220    0.180
        65 -11.4625      4.4281    105.4393   8.2387855878e+01   5.4864595895e+01    0.5013965    0.3876056  16.31  0.002281891    1.322    0.243
        66  -8.7393     67.3143    114.6399   5.7359947231e+01   4.5281513653e+01    0.1627714    0.1178284  69.14 0.0007042699    1.752    0.429
        67 -10.6354     12.6310    111.7802   7.9485281355e+01   5.2606128996e+01     0.454325    0.1790841 -77.50  0.001262563    2.694    0.629
        68 -11.4867     16.4309    109.5687   7.7469404811e+01   5.2919996227e+01    0.4427349    0.3883465 -48.65 0.0007525979    1.105    0.095
        69 -10.0130     48.8771    112.1268   6.3943039196e+01   4.8684651425e+01    0.2390307    0.2029757  56.22 0.0006542004    1.252    0.201
        70 -11.7109     79.8585    108.0894   5.1345255664e+01   4.4755732305e+01     0.434762     0.341797  20.74 0.0008155131    1.391    0.281
        71  -9.5806    174.2810    108.6430   2.8318446142e+01   2.6747673373e+01    0.2266934    0.1563488  69.24  0.001229789    1.813    0.448
        72 -10.0745    101.9888    108.8504   4.4507272036e+01   4.0454489193e+01     0.243851    0.1753547  11.78 0.0005921218    1.974    0.493
        73 -10.0933     85.7931    103.4272   4.8175427644e+01   4.4763431431e+01    0.2501823    0.2123945 -49.95 0.0004083091    1.202    0.168
        74 -11.1980     50.4951    100.6400   6.0710972703e+01   5.1408651835e+01    0.6265477     0.383157 -28.28   0.00256012    2.124    0.529
        75 -11.6384      9.1853     97.0760   7.8980428893e+01   5.6820083555e+01    0.5002189    0.4191566  32.63 0.0004037638    1.235    0.191
        76 -11.7022     22.4957    114.1243   7.5480416415e+01   5.1162238056e+01    0.6441237    0.3194887   3.43  0.002176974    2.440    0.590
        77 -10.9090     31.1196     97.0481   6.8477871156e+01   5.4849443485e+01    0.4875052    0.3385896  48.72  0.002306666    1.571    0.363
        78 -11.9079     67.2711     95.1366   5.2590286541e+01   5.0056027382e+01    0.4820894    0.4090476   6.53  0.001585641    1.314    0.239
        79  -9.3852    210.3084     98.0651   2.1043975442e+01   2.2451315745e+01    0.1643531    0.1225096 -47.69 0.0003866253    1.081    0.075
        80  -9.8228     80.5802     98.3110   4.8604204063e+01   4.6912839630e+01    0.2556903    0.1876962  14.27 0.0008099061    1.724    0.420
        81 -11.1030     79.4156     92.6376   4.7481229973e+01   4.8418773490e+01    0.6231347    0.5821144 -72.05  0.003411726    1.119    0.106
        82 -11.2183     23.1997     94.4718   7.1706061515e+01   5.6354069044e+01     0.410497    0.3122873   1.77   0.00167724    1.357    0.263
        83 -10.6967     35.6055     91.2718   6.5097942067e+01   5.5797484281e+01    0.6186137    0.4465132  55.40  0.002441536    1.600    0.375
        84 -11.0922     27.5875     85.6380   6.7658493788e+01   5.8163339232e+01    0.5724038    0.4971199 -13.96  0.001497299    1.146    0.127
        85  -9.7583     19.4776     91.5050   7.2946609750e+01   5.7477935519e+01    0.3681278    0.2054552 -66.26  0.001623332    1.782    0.439
        86 -10.5775     18.7864     86.2491   7.2243973321e+01   5.8898071253e+01    0.5638021     0.355791 -28.32  0.002611515    1.702    0.412
        87 -11.6989    125.9956     94.3542   3.4516734768e+01   3.8684325080e+01    0.2520987    0.2358294 -54.62 0.0003283073    1.071    0.066
        88  -9.8071    121.7228     93.3376   3.5275699633e+01   3.9760881540e+01    0.2326594    0.1975977 -58.97 0.0006247558    1.162    0.139
        89 -10.4402     42.9914     94.4703   6.2482023071e+01   5.4025008402e+01    0.3723448    0.2734476  27.21  0.001390891    1.324    0.245
        90 -10.2385     43.1584     90.8753   6.1527082179e+01   5.4898813826e+01    0.2778055    0.2203869 -47.63 0.0005720968    1.272    0.214
        91 -10.7328     49.5976     90.6931   5.8628069305e+01   5.4007814997e+01    0.4796108    0.3599115  85.96  0.002250845    1.756    0.431
        92 -10.2070     52.0838     87.1541   5.6611432234e+01   5.4475531329e+01    0.2416041    0.2108162 -50.58 0.0003503661    1.181    0.153
        93  -9.8524     98.3304     90.8759   4.0903898025e+01   4.5070560838e+01    0.2421858    0.1904163  55.69 0.0004026585    1.269    0.212
        94 -10.8264      2.0058     71.5203   7.8525324962e+01   6.3867304061e+01    0.5337686    0.2028138 -63.75  0.002158841    2.344    0.573
        95 -11.6708      6.1976     88.1249   7.9083759001e+01   5.9377010955e+01    0.7963903    0.4123409   9.54  0.003488478    1.973    0.493
        96 -11.2638      3.0062     82.1203   7.9801292035e+01   6.1123951128e+01    0.4919267     0.319791 -85.02   0.00207332    1.701    0.412
        97  -9.3410    111.6917     88.3838   3.6496758323e+01   4.2818672479e+01      0.20013    0.1345321  41.15 0.0009424725    1.564    0.361
        98  -9.8484     66.9759     88.2294   5.0820327573e+01   5.1711440220e+01    0.2681348    0.2094122  13.08 0.0008232526    1.484    0.326
        99 -10.2167     90.5052     85.9231   4.1915123264e+01   4.7696150318e+01    0.3597712     0.277853 -75.80  0.001762128    1.558    0.358
       100 -11.4641     45.0229     84.2917   5.8970898537e+01   5.6235816021e+01    0.4760738    0.4197676  28.81  0.001491465    1.092    0.084
       101 -10.2364     37.2054     85.5067   6.2936196696e+01   5.7030042417e+01    0.4252822     0.224541  14.69  0.001685873    2.216    0.549
       102 -10.1103    143.1384     84.2607   2.8297369355e+01   3.7022836188e+01    0.2169638    0.1809832 -52.71 0.0005473249    1.138    0.121
       103 -12.2007     75.3936     79.0244   4.4991825076e+01   5.2158698043e+01    0.7267962    0.5309851  77.33 0.0003489594    1.860    0.462
       104 -10.2034    112.8357     83.1387   3.4769631638e+01   4.3598725479e+01    0.4442763    0.2527871  66.17  0.001831977    2.256    0.557
       105  -9.9996     67.4300     81.4774   4.8700870067e+01   5.3142835120e+01    0.3317652    0.2536613 -34.13  0.001640437    1.461    0.316
       106 -10.0011     59.9545     83.1137   5.2160655493e+01   5.4113447677e+01    0.2709048    0.2081159  37.89  0.001353376    1.243    0.196
       107  -9.5695    103.2605     79.9497   3.6422883225e+01   4.6246147748e+01    0.2008038    0.1817157 -54.77 0.0004292227    1.131    0.116
       108  -9.2976     92.3091     71.6850   3.7143600522e+01   5.0162957754e+01    0.2066927    0.1481209 -64.94 0.0006345054    1.635    0.388
       109 -10.6784     89.2822     77.6720   3.9893425759e+01   4.9633447184e+01    0.4045263    0.2770543  52.40  0.001420339    1.421    0.296
       110 -10.3639     94.4514     76.2124   3.7868264753e+01   4.8838340204e+01    0.3476708    0.2838419  54.07  0.001056592    1.171    0.146
       111 -11.0702     53.3016     76.2648   5.2961373247e+01   5.6791956869e+01    0.4734103    0.3671892 -63.58  0.002406059    1.449    0.310
       112  -9.2491    118.8318     78.3444   3.1969771324e+01   4.3214997865e+01    0.1877468    0.1602876 -65.61 0.0002030399    1.166    0.142
       113 -10.1695     58.1898     77.5277   5.1245161013e+01   5.5674430169e+01    0.2503969    0.2098758 -53.61 0.0005157615    1.262    0.207
       114  -9.6888     38.4945     77.9834   6.0318644917e+01   5.8671890186e+01    0.2964063    0.1823047  43.55  0.001124742    1.689    0.408
       115  -8.9431    125.6629     77.6462   3.0210427054e+01   4.1874020286e+01    0.1394466    0.1129481  11.35 0.0007043419    1.799    0.444
       116  -9.9748     46.6418     75.4988   5.5732275510e+01   5.8044815129e+01    0.3180951    0.2331577 -26.68  0.001305072    1.568    0.362
       117 -11.2001     14.0432     74.1607   7.2182205151e+01   6.2359771724e+01     0.446682    0.3071066 -76.26  0.001756859    1.638    0.389
       118 -11.8294    246.8861     73.3163   1.2888285751e+01   2.0466219936e+01    0.2921863      0.15958 -37.43  0.001940648    1.570    0.363
       119 -10.7458     26.9830     73.1626   6.4859962969e+01   6.1292762768e+01    0.6809937    0.3825545  -6.40  0.002736988    2.464    0.594
       120 -10.7729     34.4920     71.4812   6.0466473106e+01   6.0741784015e+01    0.4809408     0.206692  36.08  0.001904199    2.187    0.543
       121 -10.8034     40.1665     73.0289   5.8080648344e+01   5.9588296087e+01    0.4337421    0.2404369  17.40  0.001629039    2.100    0.524
       122 -11.4841     40.6653     68.9211   5.6589263884e+01   6.0444324312e+01     0.353855    0.2823524  40.57 0.0006157026    1.243    0.196
       123  -9.5569    103.4671     74.5087   3.4788181396e+01   4.7237112775e+01    0.2605958    0.1329041  60.59  0.001033578    2.249    0.555
       124  -9.6690     82.9975     83.2354   4.3590282787e+01   4.9769963823e+01    0.3016273    0.1665156  49.31 0.0008505653    1.800    0.444
       125 -10.2513     80.9998     72.2633   4.0948655699e+01   5.2418584860e+01    0.4116833    0.2610794 -55.58   0.00169789    1.762    0.432
       126  -9.2617    154.0502     72.2079   2.3348772958e+01   3.6797988528e+01    0.1713135    0.1017219  59.92 0.0005428564    1.724    0.420
       127 -10.5874    122.6179     68.6439   2.8405124888e+01   4.4103222482e+01    0.3986045    0.2350521  51.43  0.001695346    1.682    0.405
       128 -10.2846     13.5515     67.1568   7.0814407835e+01   6.4108424790e+01    0.5042847    0.1955272  13.59  0.001505606    2.728    0.633
       129 -10.2454     96.6794     65.8991   3.4073224779e+01   5.0288098170e+01    0.2453143    0.2250735 -79.99  0.000272277    1.105    0.095
       130 -10.9824     92.5289     62.6314   3.4238394199e+01   5.1777311410e+01    0.3831125    0.2455184  64.06 0.0009381275    1.667    0.400
       131 -10.4363     13.8919     56.3687   6.7719588824e+01   6.6598694795e+01    0.3923971    0.2036004 -12.72  0.001098596    2.515    0.602
       132 -12.4296      5.9055     62.1190   7.4217938906e+01   6.5917580146e+01    0.7787688    0.5057397 -12.14  0.003564063    1.550    0.355
       133 -10.3424      9.7119     56.6721   7.0447846636e+01   6.6903422955e+01    0.2364091    0.2216476 -29.46  0.000591682    1.084    0.078
       134  -9.7521    201.5056     64.4802   1.5346755309e+01   2.8836664922e+01    0.1180506   0.09347495 -59.64 0.0008103196    1.009    0.009
       135 -10.2484    105.3149     63.2121   3.0915200148e+01   4.8856000742e+01     0.305697    0.2195822  49.16  0.001201909    1.365    0.267
       136 -10.2352     50.7673     56.4461   4.7549163005e+01   6.1402194505e+01     0.595225    0.3241178 -52.35  0.002653896    2.071    0.517
       137 -11.4746     43.3512     60.9942   5.2680625344e+01   6.1743342608e+01    0.4230762    0.2439929 -53.72 0.0007626846    1.891    0.471
       138 -11.6220     46.4888     59.4457   5.0622741169e+01   6.1545420208e+01    0.6383436    0.3056757  50.21  0.002493607    2.508    0.601
       139 -10.9233     40.7730     56.6527   5.2459823359e+01   6.3058951663e+01    0.3707603    0.2110242  39.78  0.001085842    1.657    0.396
       140 -10.1849    158.7455     62.8801   2.0322959192e+01   3.7276866958e+01    0.2449496    0.1621254  50.46 0.0004588808    1.740    0.425
       141 -10.0240     84.7536     62.2212   3.6483845854e+01   5.3534499623e+01    0.2607607    0.2313145 -52.33 0.0008526621    1.200    0.166
       142  -9.8330     57.9653     62.3237   4.6437934600e+01   5.8924010014e+01    0.2642674    0.2102075  89.68  0.001338008    1.690    0.408
       143  -9.1753    150.7727     60.9421   2.1066938679e+01   3.9237395311e+01    0.1621999    0.1019638 -41.04 0.0005163175    1.566    0.361
       144  -9.7695    113.6511     61.0242   2.8224738307e+01   4.7364764338e+01    0.1967853    0.1742595 -55.26  0.001144179    1.157    0.136
       145 -11.3841     31.6015     52.9769   5.6045917201e+01   6.5212028462e+01    0.8758495    0.2545196  27.40  0.002708774    3.912    0.744
       146 -10.1090     29.7450     59.3930   5.9273385325e+01   6.4101319658e+01    0.3420722    0.2825547 -76.44  0.001881066    1.500    0.333
       147 -11.0685     25.6590     55.5065   6.0317973413e+01   6.5479519823e+01    0.4561889    0.3117228  -2.35  0.001443375    1.651    0.394
       148 -10.6947    118.5227     56.4914   2.5795179345e+01   4.6999984668e+01    0.6351342    0.3459568 -86.63  0.002254617    3.690    0.729
       149 -10.1047    113.2851    248.1655   6.5302371189e+01   8.1432606372e+00    0.2617821    0.1166104 -59.68  0.001226165    2.815    0.645
       150 -12.1017    117.1120     45.8256   2.2888304533e+01   4.8921440609e+01    0.8071626    0.6719379  12.80  0.004595423    1.718    0.418
       151 -10.7183    120.2713     40.3961   2.0623204328e+01   4.8954693131e+01    0.2468702    0.1678096  47.32  0.000550503    1.636    0.389
       152 -11.7363    119.1741     37.1643   1.9841779610e+01   4.9638257215e+01    0.4985359    0.3341123 -78.60  0.001668143    1.627    0.385
       153 -10.0108    106.8827     58.6337   2.9116216497e+01   4.9274174273e+01    0.1990132    0.1667659  70.66 0.0005617335    1.121    0.108
       154 -11.4715     76.3609     52.9659   3.6087615724e+01   5.6965791059e+01     0.440417    0.3353203  26.52  0.001050225    1.548    0.354
       155 -11.2801     72.9413     47.6208   3.5327897705e+01   5.8598012395e+01     1.130802    0.3568171 -51.02  0.003348367    5.033    0.801
       156  -9.4074     92.1966     57.7862   3.2764260400e+01   5.2691931521e+01    0.2444445    0.1522362 -83.75  0.000959537    2.851    0.649
       157 -10.7156     88.2305     55.1174   3.3042406966e+01   5.4019281456e+01    0.6230869     0.243994 -30.23  0.001912605    4.727    0.788
       158 -10.5902    157.2578     55.5742   1.8740531387e+01   3.8661333848e+01    0.4023443    0.2453215 -50.48  0.002197018    1.501    0.334
       159 -11.4471    154.9915     48.7661   1.7355524768e+01   4.0099269647e+01    0.2670023    0.1905159 -34.53 0.0005843021    1.551    0.355
       160  -9.8705    124.7161     55.8819   2.4336975055e+01   4.5703920595e+01    0.2258955    0.1646792 -38.15 0.0008137865    1.484    0.326
       161 -10.2317     25.4932     59.3363   6.1656459164e+01   6.4660200389e+01    0.4519541    0.1971443  29.54  0.001877184    2.105    0.525
       162  -9.7654     66.9110     53.9515   3.9855420538e+01   5.8767887704e+01    0.3616172    0.1530467 -53.04  0.001327466    3.099    0.677
       163 -10.5422     60.5738     51.8313   4.1585414524e+01   6.0422396333e+01    0.4716011    0.2713489 -59.26  0.002044651    2.384    0.581
       164 -10.5888     61.5627     46.2159   3.9049737762e+01   6.1210485708e+01    0.4462666    0.3279023 -13.37   0.00225893    1.854    0.460
       165 -10.9805    244.7370     51.8482   9.3171695474e+00   2.3470499244e+01    0.3072125    0.1044795 -59.08  0.001498914    3.168    0.684
       166  -8.8158     93.5463     52.4891   3.0629370721e+01   5.3270562078e+01    0.1394038    0.1275527  66.37 0.0007249783    1.016    0.016
       167 -11.1604     45.3435     49.6402   4.7584892052e+01   6.3676611601e+01    0.4833234    0.4082521   2.10  0.002260417    1.277    0.217
       168 -11.9049     42.5991     44.0088   4.6727295025e+01   6.5204463228e+01    0.7008501    0.3065318  41.90   0.00174499    2.088    0.521
       169  -9.9250    240.0172     50.7255   9.4413037477e+00   2.4313057651e+01     0.143477    0.1085144 -62.07 0.0007342296    1.094    0.086
       170 -11.6179     20.9156     46.1789   5.9948079890e+01   6.8047268298e+01    0.5095592      0.39534 -87.09  0.002290548    1.866    0.464
       171  -9.6876     27.8460     47.4013   5.6163590518e+01   6.6885814911e+01    0.3287898    0.1824416  11.87  0.001061787    2.285    0.562
       172 -10.5896     31.0215     44.4933   5.3187977637e+01   6.7001771836e+01     0.319998    0.2032784  37.08   0.00113672    1.465    0.318
       173  -9.4210     10.5898     51.5109   6.8408136719e+01   6.7998316480e+01    0.2088412    0.1237915  17.22 0.0001912172    1.589    0.371
       174 -10.3882     13.1583     46.3674   6.5070066160e+01   6.8878896183e+01      0.48578    0.2219738 -32.37   0.00198803    2.619    0.618
       175 -10.4101     26.1919     42.7919   5.5379833622e+01   6.8035139265e+01     0.415383    0.2781509  49.46   0.00139876    1.765    0.433
       176 -10.0288     23.9407     37.4497   5.4603433172e+01   6.9380128007e+01    0.5977089    0.2086852  41.70  0.002245426    3.004    0.667
       177  -9.9238    188.9383     49.3308   1.3449384879e+01   3.3185746705e+01    0.2050547    0.1277507 -53.56 0.0004904204    1.335    0.251
       178  -9.9633    144.9805     49.8059   1.9090402984e+01   4.2110259663e+01    0.5528401    0.2809264 -16.89  0.001751737    5.991    0.833
       179  -9.7145    145.3815     42.8226   1.7178576152e+01   4.2981875001e+01     0.186902    0.1193539 -41.91 0.0002860535    1.548    0.354
       180  -9.2065    127.0000     49.9380   2.2184571753e+01   4.6081380752e+01    0.2076865   0.07433586 -37.23 0.0005949051    2.903    0.656
       181  -9.6687     55.4673     50.4322   4.3215735990e+01   6.1670062074e+01    0.2109175    0.1806662  39.03 8.803736e-05    1.064    0.060
       182 -10.1013     52.0268     48.3143   4.3928197906e+01   6.2708090363e+01    0.2420814    0.2053272 -27.11 0.0006577739    1.303    0.232
       183 -10.1205     83.1656     46.8819   3.1717669981e+01   5.6484825390e+01    0.4651994    0.2838884  -5.29  0.001655179    4.180    0.761
       184  -9.9382      1.8151     48.1766   7.3420453589e+01   6.9432337964e+01    0.3030924    0.1861091 -69.14  0.001558909    1.789    0.441
       185 -10.3987    234.1222     44.8840   8.7994551781e+00   2.5927733397e+01    0.1714047    0.1046578 -60.15 0.0009568759    1.286    0.222
       186 -10.3859    156.1244     42.0700   1.5512914105e+01   4.0758322791e+01    0.2299992    0.1908872 -43.30 0.0008054828    1.288    0.223
       187  -9.2247    139.7120     43.6093   1.8240661696e+01   4.4126255821e+01    0.1224413    0.1009179  25.59 0.0005915782    1.763    0.433
       188  -9.6335     99.2891     41.6199   2.5485087131e+01   5.3619411175e+01    0.2166903    0.1507829 -82.10  0.001091628    1.729    0.422
       189  -9.9783     56.9804     41.8838   3.9213948195e+01   6.2863704571e+01    0.2853709    0.1804246  52.39  0.001413855    1.515    0.340
       190 -10.9915     50.5196    249.1196   8.0462078109e+01   1.4267296286e+01    0.3865824    0.1027722  30.77  0.001528203    2.612    0.617
       191 -11.3957      3.8082     36.7233   6.8458469473e+01   7.1776906966e+01     0.784959    0.4597166 -22.30  0.003738931    1.753    0.430
       192  -9.8920      6.7098     30.7083   6.3972019168e+01   7.2740962279e+01    0.8840162    0.3184934   8.76  0.002835852    4.557    0.781
       193 -10.6271     60.9772     36.4481   3.5364927238e+01   6.2912437835e+01    0.3758605    0.2545623 -25.81  0.001533784    1.841    0.457
       194  -8.9396    195.2339     37.3541   1.0294943303e+01   3.3516707600e+01    0.0960851   0.08687168 -19.96 0.0002510832    1.572    0.364
       195 -10.5724    153.3285     35.8779   1.4291945266e+01   4.2151473032e+01      0.22428    0.1625283  70.79  0.000676677    1.324    0.245
       196 -11.2361    177.6544     28.6831   9.9454521127e+00   3.7954403013e+01     0.252423    0.1862387  45.35  0.001604004    1.955    0.488
       197 -10.7687    175.0456     34.0708   1.1431279994e+01   3.7837859004e+01     0.278772    0.1514468 -69.03  0.001071673    1.824    0.452
       198  -9.9953    173.3914    246.7370   5.2451247095e+01   2.4411714811e+00    0.2128026    0.1153944  -0.35  0.001196545    1.867    0.464
       199 -11.7714    126.0567    241.0309   6.1556305003e+01   8.0996756739e+00    0.3246339    0.2617229  55.47  0.002008636    1.751    0.429
       200 -10.4765     72.8118    238.2484   7.3997616557e+01   1.4287698440e+01    0.3004485    0.2003853 -29.11  0.001616757    1.733    0.423
       201 -12.2966    104.1507     32.6148   2.1348036479e+01   5.3713076681e+01     0.601064    0.2601296  54.49 7.309164e-05    2.089    0.521
       202 -12.3711    113.7954     25.2766   1.7078088010e+01   5.2359102244e+01     0.803335    0.2934258  54.76   0.00287141    2.537    0.606
       203 -11.4929    159.3555     29.4356   1.1954588434e+01   4.1644918602e+01    0.3996122    0.2277648  77.07  0.001777208    1.642    0.391
       204 -11.3436    146.9762    238.1750   5.6623549623e+01   6.4154576007e+00    0.3671692    0.3081787  32.46  0.002467164    1.423    0.297
       205  -9.4952     70.5587     33.4886   3.0677635042e+01   6.1287068448e+01    0.1356582    0.1198987  52.93 4.204814e-05    1.024    0.023
       206  -9.1336     67.6984     31.6765   3.0913430165e+01   6.2171195269e+01    0.3040485    0.2149851  18.66   0.00154501    1.953    0.488
       207 -10.3781    240.5592     31.8490   6.0785395468e+00   2.6441124912e+01    0.1644034    0.1581923 -66.08   0.00148497    1.533    0.348
       208  -9.9628    216.9975     32.0091   7.5594211188e+00   3.0255867459e+01    0.1600275    0.1204137 -60.64 0.0003131171    1.034    0.033
       209 -10.3713    167.4704    237.9559   5.2410987260e+01   4.3853393025e+00    0.1700764    0.1032413 -40.09 0.0009118336    1.576    0.366
       210 -11.5468     49.0056     30.0000   3.7599590567e+01   6.6334768663e+01    0.6543466    0.3182961  43.06  0.002690286    1.821    0.451
       211 -11.9915     26.3393     27.7501   4.8710128348e+01   7.0761699409e+01    0.5084275    0.4506621  15.32  0.002631284    1.039    0.037
       212  -9.4120     15.5146    233.4942   8.8323164590e+01   2.0667763521e+01    0.2078506    0.1050033 -62.03  0.001022705    2.209    0.547
       213 -10.0759    196.6823    232.3112   4.6187012916e+01   2.4911880074e+00   0.09243745   0.08877255  18.73 0.0004319349    1.642    0.391
       214 -11.0496     67.7745    240.6106   7.5480956014e+01   1.4317872796e+01    0.3060961     0.198641  -9.29  0.001116011    1.791    0.442
       215  -9.6019    246.5248    230.5493   3.8102323503e+01  -1.3871362020e+00    0.1004792   0.07002875 -21.32 0.0001021903    1.047    0.045
       216 -10.8196    188.9269     27.4387   8.7005529666e+00   3.5885747822e+01    0.2745138    0.2496496  12.79  0.001684629    1.740    0.425
       217 -12.2278    126.6664     28.0818   1.5835447795e+01   4.9051051158e+01    0.7357135    0.3507392  80.63  0.003312353    2.278    0.561
       218  -9.4761    197.1403     29.1246   8.4111247881e+00   3.4137356262e+01    0.1651454    0.1020328 -64.29  0.001071748    1.333    0.250
       219  -9.9162     98.2551     27.2149   2.0759664871e+01   5.5763879103e+01    0.3200073    0.1561221 -39.60  0.001513198    2.183    0.542
       220 -10.7755    230.6434     27.0539   5.7848760472e+00   2.8544946038e+01    0.2024768    0.1333985  73.85 0.0009735612    1.719    0.418
       221 -10.9910    183.0293     25.3697   8.7308099054e+00   3.7269004172e+01    0.2617911    0.1627513 -59.59  0.001212564    1.323    0.244
       222 -10.0103    150.7517     27.1432   1.2343259415e+01   4.3765845093e+01    0.2943736    0.1301011  54.16   0.00138852    2.533    0.605
       223 -11.3547    154.9282     24.0808   1.1084925425e+01   4.3212560818e+01    0.3672248    0.1779526  89.83  0.001792837    2.217    0.549
       224  -9.6087    155.3355     20.7014   1.0180915984e+01   4.3501812172e+01    0.1718224    0.1402012 -54.96 0.0004619661    1.192    0.161
       225 -10.3534    146.6625     26.3534   1.2620438984e+01   4.4753190615e+01    0.2365426     0.144235 -73.05  0.000978905    1.604    0.377
       226 -11.1799    143.3383     25.3044   1.2744496732e+01   4.5609099419e+01    0.2776194    0.1686776  65.79  0.001276208    1.544    0.352
       227  -9.7905    201.3907     24.4102   7.1244182615e+00   3.3888276848e+01    0.1962576   0.06990451  58.86 0.0009537806    3.378    0.704
       228  -9.9729    169.9493     23.2500   9.3876293084e+00   4.0140957271e+01    0.2612255    0.1284188  68.23  0.001089953    1.947    0.486
       229  -9.0127    189.7127    229.6781   4.7049572693e+01   3.5413977467e+00    0.1194357   0.06982343 -17.06 0.0004332452    1.600    0.375
       230 -10.7760    131.6854    240.5738   6.0244430432e+01   7.5895929653e+00     0.239326    0.1076196  18.59  0.001128938    2.061    0.515
       231 -10.5551    127.1534     16.6250   1.2356023421e+01   5.0220193775e+01    0.2623862     0.180859  60.51  0.000453448    1.429    0.300
       232  -9.2512    164.5056    211.5142   4.9171575335e+01   9.1744151613e+00    0.1249372    0.1045083 -11.55 -1.406554e-06    1.019    0.019
       233  -9.5517     79.0815    204.7605   6.8710860860e+01   2.0928321036e+01    0.3346628      0.19245  87.01  0.001336591    2.938    0.660
       234 -11.3716     38.9505     22.0189   3.8638292105e+01   6.9458059875e+01    0.2506182    0.2310959 -15.04  0.000334695    1.208    0.172
       235 -11.1156      5.7572    199.7813   8.9315011630e+01   2.9347109170e+01    0.3334234    0.1408637 -60.14  0.001408366    2.458    0.593
       236  -9.8548     13.8760     22.7830   5.4878279080e+01   7.3405222825e+01    0.1884888    0.1491635   7.18 0.0003515571    1.136    0.119
       237 -10.1114    224.0124     22.0260   5.2376213401e+00   3.0188881076e+01    0.1584746    0.1105239 -62.20 0.0003667372    1.043    0.041
       238 -11.0895    179.2468     20.5333   7.9579005544e+00   3.8558344690e+01    0.4762121     0.211673  52.09  0.002325634    3.189    0.686
       239  -8.9175    135.3021    196.6725   5.3179958063e+01   1.5554301957e+01    0.1266653    0.1067119  64.69 0.0002871692    1.643    0.391
       240 -11.9794      4.7027    184.1543   8.8805170198e+01   3.3395717790e+01    0.6475846    0.4034893  71.47  0.003198047    1.607    0.378
       241  -9.7598    216.5222     19.9962   5.2841304932e+00   3.1681223626e+01    0.1536653   0.08394073 -41.29 0.0004469254    1.543    0.352
       242 -10.9020    163.3329     19.2875   9.0466335397e+00   4.1954957430e+01    0.2196045    0.1759387 -89.20 0.0004123099    1.118    0.105
       243 -11.5314    165.9834     17.0000   8.2528030798e+00   4.1646314166e+01     0.374804    0.1952186  64.02  0.001592561    1.927    0.481
       244  -9.6346     46.6375     20.0847   3.3970368461e+01   6.8211163240e+01    0.2276089    0.1607114  56.30 0.0007729233    1.340    0.254
       245  -9.7484     74.7406     19.2891   2.3547727108e+01   6.2165079292e+01    0.1761162     0.136539  39.43 0.0007886636    1.357    0.263
       246  -9.5091     39.4720    173.4935   7.6867719656e+01   3.3249977304e+01    0.1468014    0.1386187  44.51 0.0008099343    1.016    0.016
       247 -10.1379     84.7139     17.6821   2.0311396109e+01   6.0032618080e+01    0.2587462    0.1579101  50.04 0.0005450178    1.544    0.352
       248  -9.2267    198.7157     17.6597   5.9190910592e+00   3.5121843459e+01   0.09028371   0.08563892  38.56 0.0004689455    1.633    0.388
       249 -11.9160    237.5340     16.2967   3.5060052685e+00   2.8603606070e+01    0.2641076    0.1276569  82.63  0.001798284    2.133    0.531
       250 -10.1805    211.0625     16.0011   4.8284052623e+00   3.3062408012e+01    0.1588402    0.1149214 -62.15  0.001206886    1.015    0.015
       251  -9.1599     85.7382     23.6839   2.2382833572e+01   5.9109785010e+01    0.1255441   0.09497951  35.11 0.0001917698    1.542    0.352
       252  -8.7463     93.5135     16.4660   1.7895760976e+01   5.8098170179e+01    0.1302648    0.1098145  73.10 0.0008094819    1.018    0.018
       253 -11.7946      9.0090    167.0319   8.6348557266e+01   3.7635878508e+01    0.4913531    0.2950155  24.68  0.002081652    1.597    0.374
       254 -12.1905     13.1398    160.1368   8.4415768505e+01   3.9210521688e+01    0.6281375    0.3487762 -45.41 0.0007190488    1.932    0.482
       255 -10.2590     18.4065    165.2029   8.3044873532e+01   3.7423466065e+01    0.2920803    0.2198994 -32.04  0.001373894    1.475    0.322
       256 -10.0711    205.1002    163.2782   3.3825042549e+01   1.2642094352e+01    0.2240695    0.1458506 -42.81 0.0007001245    1.302    0.232
       257  -9.0727    214.6027    161.5173   3.2070608305e+01   1.1756481254e+01    0.1169103   0.09098947 -34.49 9.527693e-05    1.024    0.024
       258  -9.8919     28.5123    160.9366   7.9174622957e+01   3.7708093825e+01    0.2376524    0.1992762  22.38 0.0008843919    1.177    0.151
       259 -10.5179      9.4389    155.2317   8.5308195429e+01   4.0818126821e+01    0.2793536    0.1296963 -72.05  0.001137856    2.045    0.511
       260  -9.9434    104.3600    154.6063   5.3772042933e+01   2.9363770318e+01    0.2997346    0.1829526 -52.55  0.001334705    1.634    0.388
       261 -11.6456     23.7559    148.0045   7.9454159967e+01   4.1691384660e+01    0.3539144    0.2966799 -83.08 0.0007047624    1.199    0.166
       262  -9.2245     55.4446    152.5165   6.8755733820e+01   3.7035932902e+01    0.1498763    0.1468887  33.96 0.0001206926    1.006    0.006
       263 -10.7601      4.4359    153.4628   8.6941361468e+01   4.1631634685e+01    0.3078185    0.1907296  21.87 0.0009774616    1.597    0.374
       264 -11.1486     47.6250    146.9278   7.0638597428e+01   3.9504530298e+01    0.7163522    0.4478137 -32.55  0.003040147    1.893    0.472
       265 -12.0964      4.3626    143.0410   8.6168618723e+01   4.4506236389e+01    0.8721991    0.4191499  49.60  0.002714313    2.150    0.535
       266 -11.8078     16.6072    148.4221   8.2120306881e+01   4.2168790704e+01    0.9514986    0.3351551 -89.26   0.00287748    3.895    0.743
       267 -10.6117     33.0326    144.2592   7.5573431688e+01   4.1849144918e+01    0.2987989    0.2936785  51.93 0.0008600316    1.004    0.004
       268 -11.7480     21.1626    150.6078   8.0682303713e+01   4.1195206195e+01    0.3306821    0.2711414 -45.89 0.0003770916    1.257    0.205
       269 -11.8736     12.2376    135.7237   8.2488192160e+01   4.6017535491e+01    0.6681836    0.3753715 -54.25  0.002957795    1.718    0.418
       270 -11.1276     80.4430    138.1526   5.7805634643e+01   3.7223465100e+01    0.2877429    0.2531549  30.71 0.0003980378    1.117    0.105
       271 -10.3926     40.6077    138.0722   7.1862614097e+01   4.2737028517e+01    0.3213219    0.2143697  46.57 0.0009420401    1.538    0.350
       272 -11.6173     24.0867    136.4829   7.7960286117e+01   4.4854214988e+01    0.5036362    0.3313497 -12.41  0.002259521    1.778    0.438
       273  -9.9698     20.4910    134.0175   7.9059082426e+01   4.5850343733e+01    0.3126078    0.2825069  -5.38  0.001062811    1.148    0.129
       274 -11.3011     30.3497    132.4148   7.4966852844e+01   4.5387679458e+01    0.5047943    0.2983426 -43.05  0.001900178    1.777    0.437
       275  -9.1588    103.9861    130.5274   4.8971697176e+01   3.5119393801e+01    0.2005797    0.1338699   5.75 0.0004593643    2.287    0.563
       276 -10.9324     10.4321    127.0644   8.2288164272e+01   4.8547143584e+01     0.511294    0.3078556 -79.90  0.002077345    1.662    0.398
       277  -9.5835     13.2515    122.4316   8.0585953077e+01   4.9631297649e+01     0.254155    0.1853139 -56.03  0.000667225    1.318    0.241
       278  -8.9079     93.3331    129.3115   5.1876878392e+01   3.7273731674e+01     0.157024     0.119041 -14.59 0.0007044028    1.678    0.404
       279  -9.0992     50.5693    129.4725   6.6663734068e+01   4.3854859663e+01    0.1511922    0.1474747  54.15 0.0001301656    1.034    0.033
       280  -9.2119     26.5515    127.4906   7.5775145477e+01   4.7116221718e+01    0.1462521     0.144799 -64.73 6.780865e-05    1.005    0.005
       281  -9.8642     26.0154    131.4900   7.6548786407e+01   4.6061370235e+01     0.266645    0.2335455 -42.37 0.0003353178    1.153    0.133
       282  -9.5308     22.7954    125.9083   7.7081171165e+01   4.7897876704e+01    0.3307353    0.2120359  89.19  0.001466865    1.755    0.430
       283  -9.9011      2.0292    126.0035   8.5617566237e+01   4.9354999052e+01    0.2429479    0.1529476  55.60 0.0009478327    1.684    0.406
       284 -10.7338    104.6596    122.4898   4.6979654615e+01   3.6861857462e+01    0.3249605     0.300107  41.39 0.0008485438    1.083    0.077
       285  -9.7248     49.6632    122.7278   6.5756040271e+01   4.5778223024e+01    0.2907403    0.1893437   8.44  0.001238989    1.791    0.442
       286  -8.9296     27.2715    123.6629   7.4919516842e+01   4.8101771124e+01    0.1552029    0.1086441  61.26  0.000345135    1.601    0.375
       287  -9.8443     44.5765    119.7880   6.7207098435e+01   4.7222538981e+01    0.3036613    0.2726208  50.08 0.0007474049    1.139    0.122
       288  -9.9801     43.4063    116.1872   6.6992228947e+01   4.8332101981e+01    0.3017384    0.2309661  58.55 0.0008199963    1.449    0.310
       289  -9.7109     79.2533    114.9530   5.3199808471e+01   4.3206008368e+01    0.2129308    0.2051565 -38.53  0.001144116    1.061    0.057
       290 -10.2624     15.9659     94.8383   7.5296853029e+01   5.6907736191e+01    0.3157334    0.2110543 -78.06  0.001199342    1.603    0.376
       291 -10.9991     17.1649    100.6470   7.5719563599e+01   5.5266468549e+01    0.3832855    0.3179654  39.74 0.0005280745    1.250    0.200
