#   1 NUMBER                 Running object number                                     
#   2 MAG_AUTO               Kron-like elliptical aperture magnitude                    [mag]
#   3 X_IMAGE                Object position along x                                    [pixel]
#   4 Y_IMAGE                Object position along y                                    [pixel]
#   5 X_WORLD                Barycenter position along world x axis                     [deg]
#   6 Y_WORLD                Barycenter position along world y axis                     [deg]
#   7 A_WORLD                Profile RMS along major axis (world units)                 [deg]
#   8 B_WORLD                Profile RMS along minor axis (world units)                 [deg]
#   9 THETA_WORLD            Position angle (CCW/world-x)                               [deg]
#  10 FWHM_WORLD             FWHM assuming a gaussian core                              [deg]
#  11 ELONGATION             A_IMAGE/B_IMAGE                                           
#  12 ELLIPTICITY            1 - B_IMAGE/A_IMAGE                                       
         1 -10.0228    140.5937     27.2489   7.3875453216e+01   4.7078534820e+01    0.3231412    0.3009991 -54.80  0.001346242    1.242    0.195
         2 -11.8023     76.6871     25.3551   9.2476980261e+01   6.1549598609e+01    0.3916804    0.2967913 -16.58  0.000456584    1.220    0.180
         3 -11.2558     90.3335     15.8591   8.3056492782e+01   6.0371776964e+01    0.3482161     0.230411 -16.88 0.0004930601    1.479    0.324
         4 -10.6267     87.1641     12.1484   8.2369845966e+01   6.1525682433e+01    0.3048832    0.2471905  24.09  0.001228035    1.121    0.108
         5 -10.4679     12.7319     16.0070   1.1963852087e+02   7.0850399109e+01    0.3327407    0.2016447  11.33  0.001461615    1.898    0.473
         6 -10.9615     41.3024     18.6329   1.0530356982e+02   6.7903132633e+01    0.4523565    0.2993469 -24.47  0.002594649    1.371    0.271
         7 -10.0741     38.4882      2.5118   9.8798490553e+01   7.1039945513e+01    0.2906058     0.107867 -42.49  0.001165652    2.488    0.598
         8 -11.2428     22.3006      9.2986   1.1146052035e+02   7.1509039775e+01    0.3449527    0.2233341 -11.89  0.001621821    1.556    0.357
         9 -11.6031     30.1828      7.3009   1.0596744407e+02   7.1158685242e+01    0.3319339    0.2714705  -7.82  0.001190627    1.153    0.133
        10 -11.8209     39.7687      9.3907   1.0173217847e+02   6.9738268370e+01    0.5955179    0.3208796 -25.60  0.002440506    1.804    0.446
        11 -10.6953    155.8071     14.1662   6.5865822238e+01   4.4604386007e+01    0.3948678    0.2650367  28.68  0.001829729    1.569    0.363
        12 -10.1192    119.1905     11.9252   7.2748398282e+01   5.4292601525e+01     0.208481     0.201074 -26.88 0.0004002345    1.193    0.162
        13 -10.5292    148.2863      9.9705   6.5663149874e+01   4.7028694967e+01    0.2790886    0.2384251  10.08  0.000683511    1.181    0.154
        14 -11.3184    151.2561      7.1574   6.4062332448e+01   4.6509378187e+01    0.3860419    0.3011394 -16.01  0.001084997    1.343    0.255
        15 -10.7864     92.9333      8.7555   7.8775966645e+01   6.0740652817e+01    0.4435587    0.2148323 -23.45 0.0007078978    2.042    0.510
        16  -9.5654     50.0477      2.0302   9.2486968138e+01   6.9537036402e+01    0.2352675    0.1768988  32.60 0.0007819756    1.445    0.308
        17 -11.9697     55.6083      6.0522   9.2028794653e+01   6.8097209888e+01     0.590926    0.4656744   8.12  0.002895918    1.140    0.123
        18  -9.7292     61.0093      3.2044   8.8001162680e+01   6.7629679233e+01    0.2029781    0.1511942   8.64 0.0003993808    1.212    0.175
        19 -10.1205     10.0675      1.4658   1.1546876066e+02   7.3859111729e+01    0.1991895    0.1438558 -24.38 0.0008300585    1.180    0.153
        20 -11.6120      3.9399      8.8168   1.2225605917e+02   7.2740968273e+01    0.3753463    0.3306211  59.31  0.001249679    1.633    0.388
        21 -10.3493      2.0735      2.9579   1.2127710727e+02   7.3984232746e+01    0.2138501    0.1325758 -34.87 0.0009665932    1.282    0.220
        22 -10.7567     12.7423      8.7574   1.1690547415e+02   7.2295008152e+01    0.3596856    0.1609605  10.72  0.001707338    2.637    0.621
        23 -11.1117      9.2301      5.5154   1.1774256196e+02   7.3132666166e+01    0.4689403    0.1807682  27.44  0.002376615    3.067    0.674
        24 -10.6088    210.1619      7.6147   5.6242666549e+01   3.0844802909e+01    0.2423115    0.1776846 -34.84 0.0009518406    1.345    0.257
        25 -11.4197     68.9707      6.1662   8.6208153262e+01   6.5836274611e+01    0.6683869    0.2852648  42.72  0.002927116    2.312    0.568
        26 -10.0028    144.6343      6.1991   6.4884534903e+01   4.8358137375e+01    0.2042372    0.1351849   1.69 0.0004279171    1.674    0.403
        27 -11.6172    130.7932      4.0436   6.6728395137e+01   5.2175808792e+01    0.4237955    0.2908726 -50.97  0.001716987    1.838    0.456
        28  -9.3890    202.7333      5.6386   5.6452101028e+01   3.2933304637e+01    0.1447818   0.09966538  30.19 0.0003082879    1.644    0.392
        29 -11.0419    194.6014      3.6988   5.6764774359e+01   3.5227676128e+01    0.3308762    0.1821683 -48.65  0.001460714    1.974    0.493
        30 -10.4252    160.1502      3.0815   6.1100738596e+01   4.4493514943e+01      0.36618    0.2088608 -42.44  0.001606179    1.958    0.489
        31 -10.3977    120.5853      4.2471   6.9059644659e+01   5.4747975973e+01    0.3184814    0.1772099  49.88  0.001087973    1.584    0.369
        32 -11.1623     18.1861      2.8570   1.1095046020e+02   7.3035096353e+01    0.3730048    0.2035672  -3.80  0.001096444    2.127    0.530
        33 -10.5076    172.1878      2.6710   5.9215742932e+01   4.1289432613e+01    0.2386471    0.2101465 -67.36 0.0004476604    1.229    0.187
        34  -9.8510    176.5332      1.9811   5.8404814600e+01   4.0181039259e+01    0.2115196    0.1426537 -16.73  0.001026042    1.576    0.366
        35  -9.6300    113.4196      2.4930   6.9991245239e+01   5.6687129021e+01    0.1455205    0.1258875  25.81 0.0002179651    1.018    0.018
        36 -11.6401     80.2608      1.7343   7.9506763564e+01   6.4227795405e+01    0.3782564    0.1764722  47.23  0.001084104    2.025    0.506
        37  -9.2038    204.2639      1.3297   5.5017677601e+01   3.2916827915e+01    0.1396857   0.09887114  32.61 0.0002062443    1.572    0.364
        38 -11.6024     34.9600     13.2039   1.0614595136e+02   6.9599843107e+01    0.3980997    0.2748042 -53.93  0.001387712    1.646    0.392
        39  -9.1825    236.3399    139.3118   8.7048088399e+01   8.1246342636e+00    0.1456763   0.09038879  13.28 0.0006143582    1.695    0.410
        40 -11.8554     17.4568    249.0639   1.4286143620e+02   2.3745477472e+01     0.283308    0.1341913  29.77  0.001968812    2.416    0.586
        41 -10.7834      1.6940    248.6861   1.4518675767e+02   2.5158718362e+01     0.270392    0.1065853 -86.53  0.001961638    2.409    0.585
        42 -12.9689      8.6695    245.9830   1.4409015164e+02   2.4961911616e+01    0.4665465    0.3058581  37.34  0.004109703    1.553    0.356
        43 -12.2339      5.3971    240.7382   1.4444262806e+02   2.6009249427e+01    0.3927971     0.141205  46.00  0.002794341    1.810    0.447
        44 -10.0141      3.1163    138.6560   1.4099388022e+02   4.4400506177e+01    0.2042237   0.07278289  34.64   0.00111149    2.622    0.619
        45  -9.7439      8.6317    135.2467   1.3950347636e+02   4.4760265328e+01    0.1563888     0.081244 -71.59 0.0009337857    1.631    0.387
        46 -10.9015     12.4637    130.4334   1.3825144366e+02   4.5527233728e+01    0.4010526    0.1526601  50.56  0.001957071    2.534    0.605
        47  -9.5339     29.2531    129.0489   1.3391300765e+02   4.4574222332e+01    0.2648522    0.1139932  77.59  0.001151676    3.024    0.669
        48  -9.4196     21.1703    126.1349   1.3572236331e+02   4.5841882685e+01    0.1565464    0.1121354  69.64 0.0004438274    1.288    0.223
        49 -11.7182     23.7439    121.5628   1.3463452700e+02   4.6653304703e+01    0.4385346    0.2088828  83.99 0.0007758039    2.254    0.556
        50 -10.4877      3.2870    118.9658   1.3974818358e+02   4.8557267801e+01    0.1704418    0.1498261  65.41 0.0005096117    1.203    0.169
        51  -9.5541    132.0539    114.2123   1.0351436178e+02   3.3548124487e+01     0.219583    0.1886696   7.40 0.0005320632    1.256    0.204
        52  -9.6039     33.9977    115.0000   1.3114357231e+02   4.7299413013e+01    0.1748334   0.06866184  24.97 0.0007975202    2.908    0.656
        53  -9.5536      2.2992    114.3005   1.3968345681e+02   4.9621070130e+01    0.1082497   0.06978312 -54.89  0.000257331    1.580    0.367
        54 -10.6194     65.6676    111.4120   1.2151988520e+02   4.4864549889e+01    0.3387364     0.146149 -55.22  0.001498483    2.104    0.525
        55 -10.1095    249.1825    111.8119   7.8676892626e+01   9.2651087290e+00    0.1961699    0.1422516   9.14 0.0009986601    1.323    0.244
        56 -11.6140      4.9155    108.6792   1.3857092164e+02   5.0709560596e+01    0.2872531    0.2060966   8.13  0.001977939    1.859    0.462
        57 -11.0631     58.3088    107.8264   1.2308142919e+02   4.6545689232e+01    0.2595362    0.2137049 -10.30  0.001084737    1.525    0.344
        58  -9.2554     79.4040    107.1902   1.1668612054e+02   4.4026107756e+01    0.1876349    0.1259223 -72.01  0.000498935    1.628    0.386
        59  -9.5719     34.4645    107.5086   1.3008535268e+02   4.8956722604e+01    0.1219287    0.1039001 -80.69 4.828105e-05    1.011    0.011
        60  -9.6109     93.4964    104.4980   1.1195388750e+02   4.2523110741e+01    0.1379728    0.1341894 -45.06 -0.000176576    1.018    0.017
        61 -10.1184     66.6735    102.0718   1.1952183406e+02   4.6873176396e+01    0.2649132    0.1203671 -68.30   0.00108816    2.433    0.589
        62  -9.7878    113.5013    102.5218   1.0571592371e+02   3.9518176021e+01    0.1442607    0.1405614  -1.35 0.0001427631    1.009    0.009
        63 -10.8358     57.6201    101.5955   1.2221439777e+02   4.8052335129e+01    0.2510137    0.2181813  77.75  0.001112135    1.190    0.160
        64  -9.4511     81.3346     99.6609   1.1453604213e+02   4.5453073105e+01     0.142889    0.1054679  75.61 0.0004363543    1.751    0.429
        65  -9.8153     62.2793     98.6418   1.2022506210e+02   4.8193361809e+01    0.1343078   0.09734073  79.20 0.0005296429    1.663    0.399
        66 -12.1275     17.7197     95.4378   1.3360909657e+02   5.2931108898e+01    0.4639259    0.3741303 -54.20  0.003193313    1.231    0.188
        67  -9.2254    129.4947     97.5041   1.0000192463e+02   3.7459205961e+01    0.1504737    0.1436057   7.92 -0.000191245    1.007    0.007
        68  -9.8868     37.9936     93.7551   1.2704711993e+02   5.1810537636e+01    0.2451388    0.1324065 -55.10   0.00129095    1.616    0.381
        69  -9.4061    101.0368     95.9091   1.0769750207e+02   4.3166747426e+01     0.323094    0.2040126 -79.74  0.001250498    2.882    0.653
        70 -10.7881     78.9290     94.9641   1.1424321757e+02   4.6860093479e+01    0.2037636    0.1900117 -51.10 0.0003363234    1.017    0.017
        71  -9.5291      3.5055     95.4735   1.3787321162e+02   5.3707038541e+01    0.1144197   0.09025263 -82.13 5.389713e-05    1.012    0.011
        72  -9.5561     96.9704     94.4739   1.0856309826e+02   4.4171464281e+01    0.1972386    0.1192869  60.43 0.0005884264    2.383    0.580
        73 -10.2983     84.3382     93.7957   1.1228405993e+02   4.6331083990e+01    0.2601326    0.1771871 -43.75  0.001308914    1.437    0.304
        74  -9.4135     43.6671     93.6773   1.2522262918e+02   5.1316550776e+01    0.1323356   0.08552086 -38.64 0.0003119542    1.704    0.413
        75 -11.0662     27.4650     90.9434   1.2998758615e+02   5.3297971268e+01    0.5225605    0.2530358  53.11  0.002558097    2.517    0.603
        76  -9.6124     25.3933     85.1555   1.2982533496e+02   5.4775954322e+01    0.2732659    0.1557678 -87.73 0.0009295566    1.834    0.455
        77 -11.3847     11.2383     88.2768   1.3480156609e+02   5.4933164771e+01    0.5245275    0.2161874 -73.94  0.002229158    1.937    0.484
        78 -10.3531     17.5775     88.2890   1.3279332247e+02   5.4567471896e+01    0.3814237     0.211035 -29.00  0.001694133    2.375    0.579
        79 -10.3347    108.3018     89.6411   1.0391208775e+02   4.3222516175e+01    0.2348077    0.1860805  84.95  0.001130427    1.758    0.431
        80 -11.7792     76.3242     89.3216   1.1377932775e+02   4.8505429713e+01    0.2640397    0.2266394 -53.61 0.0003193353    1.089    0.081
        81  -9.8603     43.8877     89.5947   1.2444664910e+02   5.2238933853e+01    0.2395854    0.1414875  44.91  0.001264646    1.900    0.474
        82 -10.5685      1.8208     89.7961   1.3786727318e+02   5.5052367476e+01    0.1986879    0.1261727 -79.11 0.0002791958    1.239    0.193
        83 -10.9536     98.9995     89.2679   1.0662041866e+02   4.4964437620e+01    0.2047678    0.1947602  18.87 0.0009114576    1.070    0.065
        84  -8.9905    250.6919     87.6974   7.2664756261e+01   1.2053461873e+01    0.1408751   0.09595391  13.94 0.0002233126    1.603    0.376
        85  -9.5449    124.1455     86.8590   9.8554120191e+01   4.0712863318e+01       0.2111    0.1771549  -1.83 0.0005280247    1.300    0.231
        86  -9.2698    113.6492     86.1846   1.0138255139e+02   4.2941037963e+01    0.2032729    0.1331915 -33.59 0.0004387067    1.603    0.376
        87  -9.7357     72.0908     84.3353   1.1398568753e+02   5.0218471094e+01    0.3304222    0.1422343 -41.43  0.001292356    2.535    0.606
        88 -10.3942     54.5725     84.5471   1.1991352623e+02   5.2316974595e+01    0.2512928    0.1958282 -73.64 0.0009771938    1.270    0.213
        89  -9.8239     78.0660     83.2574   1.1174143284e+02   4.9622913505e+01    0.1845315    0.1713308  34.79 0.0003254982    1.152    0.132
        90 -10.3653      3.9745     82.7843   1.3651236887e+02   5.6530242227e+01    0.2159582    0.1366234 -74.39  0.001156154    1.235    0.190
        91  -9.8678    100.4640     82.0207   1.0420619670e+02   4.6270753510e+01    0.2329145    0.1394015 -46.98 0.0006622327    1.622    0.383
        92 -11.6912     55.9647     75.6035   1.1745328209e+02   5.4211680221e+01    0.4772795    0.2748078  23.35  0.002234326    2.025    0.506
        93 -11.4075     64.0960     80.5161   1.1577436940e+02   5.2125888378e+01    0.4849877    0.4019525 -76.97  0.002566454    1.296    0.228
        94  -9.7313     65.9994     75.4732   1.1388188143e+02   5.3026743316e+01    0.2682722    0.1838353  61.85  0.001102379    2.005    0.501
        95  -9.7991    250.2509     81.0154   7.1080615687e+01   1.2988890986e+01     0.181851    0.1062788 -24.39 0.0005526842    1.539    0.350
        96 -10.3806     89.4091     80.2643   1.0723742717e+02   4.8537992860e+01     0.266907    0.2124398 -60.27  0.000690182    1.327    0.247
        97  -9.0087    124.5810     79.2679   9.6213592444e+01   4.2144243198e+01    0.1532475    0.1218155  79.56 0.0005607196    1.784    0.440
        98 -10.5005     58.3622     91.4611   1.2006949819e+02   5.0301206782e+01    0.2584001      0.18865 -14.11 0.0009116906    1.780    0.438
        99 -10.1101    176.4449     77.4077   8.2806078816e+01   3.0515389900e+01       0.3517    0.2538935  24.19  0.001600459    1.500    0.333
       100 -10.9017     14.8332     76.4225   1.3213477135e+02   5.7435908910e+01    0.3154549    0.1535712 -55.10  0.001721638    1.686    0.407
       101  -9.7602     74.9606     75.6707   1.1082323766e+02   5.1764148166e+01    0.1792974    0.1707219   8.76 0.0002264986    1.110    0.099
       102  -9.3676     70.2934     75.3499   1.1235173745e+02   5.2486184981e+01    0.1445635   0.09802879 -28.29 0.0002788276    1.675    0.403
       103 -11.5939     32.0451     73.0077   1.2549473874e+02   5.7083125625e+01    0.2439393     0.201093  42.91            0    1.412    0.292
       104 -11.1348     36.0000     71.9934   1.2386185047e+02   5.6998012383e+01    0.4641643    0.2631555 -74.10  0.001695876    1.762    0.433
       105  -9.4451    224.2025     74.3595   7.3191306994e+01   1.9555376442e+01    0.1789322    0.1403105  67.28 0.0002218132    1.512    0.339
       106  -9.5618    136.4812     74.4717   9.1467631323e+01   4.0478645058e+01    0.1560319    0.1456843   8.02 0.0002698253    1.014    0.014
       107 -10.9863      3.4349     73.7388   1.3569638094e+02   5.8592696385e+01     0.273373    0.2000959  10.02 0.0007664242    1.747    0.428
       108  -9.3455     96.1453     73.3815   1.0308158717e+02   4.8873107095e+01    0.1957298    0.1355713  49.62 0.0004560417    1.638    0.389
       109 -10.2163     81.0420     72.3713   1.0782533451e+02   5.1588065900e+01    0.2790463     0.181591 -79.55  0.001152129    2.684    0.627
       110 -10.1566    105.9032     71.6030   9.9432555771e+01   4.7445919382e+01    0.2387216    0.1959466 -24.76 0.0004781973    1.215    0.177
       111  -9.1610     92.4647     72.4570   1.0400921080e+02   4.9709651653e+01     0.142953    0.1360104 -31.25 9.640645e-05    1.045    0.043
       112  -9.7720     45.5101     68.4471   1.1958515971e+02   5.6947245558e+01    0.3993146    0.2010643  52.06  0.001740326    2.922    0.658
       113  -9.8298     10.1421     69.2012   1.3277004254e+02   5.9322141003e+01    0.1885456    0.1332752 -53.27  0.001235722    1.237    0.192
       114  -8.9941    122.2978     68.6818   9.3572992254e+01   4.4693644159e+01    0.1476667    0.1241028 -78.55 0.0002998239    1.614    0.380
       115  -9.8713    114.2664     66.5934   9.5267459081e+01   4.6784392298e+01    0.2495119    0.1805213  58.62 0.0008944562    1.693    0.409
       116 -12.0435     34.1261     65.1611   1.2314531278e+02   5.8714987271e+01    0.2703384    0.2176201 -51.29 0.0004010357    1.065    0.061
       117 -11.3825     38.9618     62.8186   1.2076208488e+02   5.8837422591e+01    0.8128639     0.212358 -44.29  0.002777897    3.827    0.739
       118 -10.3874    131.7215     64.7096   8.9624998217e+01   4.3356532027e+01    0.4104886    0.2588649  53.84  0.001765518    1.720    0.419
       119 -10.3039     17.4199     63.8529   1.2925117491e+02   6.0159005852e+01    0.2031335     0.128931 -46.90 0.0004814686    1.403    0.287
       120 -11.3938      9.1732     60.5551   1.3184430262e+02   6.1326830330e+01    0.4440896    0.1823423 -51.39 0.0009494524    1.938    0.484
       121 -11.0276      2.8302     60.3581   1.3421942384e+02   6.1632170182e+01    0.3613784    0.1823278  68.70  0.001726118    2.610    0.617
       122 -10.4492     62.7670     62.1981   1.1147147621e+02   5.6398144369e+01    0.2654563    0.1987991 -40.24 0.0009562623    1.206    0.171
       123 -11.2075      2.8572     53.8374   1.3326288955e+02   6.3094583308e+01     1.116872    0.2118496 -37.76  0.003375078    7.014    0.857
       124  -9.9413     24.0324     61.8857   1.2635479671e+02   6.0201745940e+01    0.3893866    0.1693496 -44.67 0.0007839708    2.078    0.519
       125 -11.7332     16.6529     45.1266   1.2587209610e+02   6.4416897419e+01     0.708083    0.4097569  -9.94  0.003996616    2.136    0.532
       126 -12.7031     20.7279     56.7081   1.2662919016e+02   6.1585453762e+01    0.3452431    0.3287949  80.00  0.001263703    1.237    0.192
       127  -9.2464     67.2131     60.5986   1.0933056536e+02   5.6158161103e+01    0.1765035    0.1297351  11.23   0.00041904    1.573    0.364
       128 -10.8515     54.1102     57.7089   1.1350964670e+02   5.8438918334e+01    0.3925228    0.3486063 -81.05  0.002418186    1.327    0.247
       129  -9.6789    118.9171     58.9559   9.1319114085e+01   4.7251332097e+01    0.2271988    0.1895365 -74.64 0.0004849717    1.646    0.392
       130 -11.8129     83.4778     56.8786   1.0217527787e+02   5.4481558572e+01    0.3032353    0.2408213 -39.11 4.648923e-05    1.172    0.147
       131 -11.9523     87.9986     53.8612   9.9537576559e+01   5.4318689375e+01    0.5930886    0.3236792  41.23  0.002550025    1.936    0.484
       132 -10.3868     60.4873     57.6887   1.1101758544e+02   5.7673279287e+01     0.254961    0.2261382  77.12 0.0008855126    1.439    0.305
       133 -10.1541    224.7795     55.8204   6.8078390929e+01   2.1858930252e+01    0.3540809    0.2002138  31.53  0.001495533    2.152    0.535
       134 -10.0724     99.7011     56.0657   9.6314798417e+01   5.1733823321e+01    0.2109998    0.1718686 -29.83 0.0004455177    1.166    0.142
       135 -10.5231     20.5359     51.0628   1.2552529526e+02   6.2867489303e+01    0.3463619     0.216935 -58.44  0.001064764    1.259    0.206
       136 -10.9401    114.7010     53.9572   9.0826752810e+01   4.9073998686e+01     0.337135    0.2881943  12.92  0.001232817    1.160    0.138
       137  -9.5734    164.9788     54.3164   7.8073240252e+01   3.7021840154e+01    0.3075378    0.1481873  62.44  0.001095007    2.427    0.588
       138 -10.1820    106.3564     53.3223   9.3187200196e+01   5.0936671289e+01    0.2991323    0.2532845 -79.63  0.001155556    1.664    0.399
       139  -9.8761     34.5642     53.2058   1.2018348065e+02   6.1377034318e+01    0.2611091     0.140581 -41.04 0.0008494753    1.694    0.410
       140 -12.0290     66.4164     52.4681   1.0707623823e+02   5.8002987098e+01    0.6198412    0.2515707  30.02   0.00159707    2.826    0.646
       141  -8.9131    176.2927     52.2977   7.5107927566e+01   3.4429870919e+01    0.1592306     0.113501  22.74 0.0001806385    1.563    0.360
       142  -8.8363    169.7121     52.6886   7.6550913389e+01   3.6058719092e+01    0.1606889    0.1146378  20.59 0.0002029335    1.580    0.367
       143 -10.4531     78.3012     45.7866   1.0017662098e+02   5.7558184795e+01    0.3144675    0.2235905  33.22  0.001045622    1.475    0.322
       144  -9.2694    212.0184     48.9686   6.8003128337e+01   2.5817347384e+01    0.1692273    0.1619225  35.92 0.0009517694    1.055    0.052
       145 -10.0687     38.0909     48.9805   1.1757956967e+02   6.2005966629e+01    0.1972783    0.1517831 -40.72 0.0005785434    1.118    0.105
       146  -9.7946     71.3257     57.7359   1.0690487098e+02   5.6193051971e+01    0.1857905    0.1409449 -27.04  0.000365637    1.303    0.232
       147  -9.5467     52.8211     48.6942   1.1131060590e+02   6.0543139986e+01    0.2443217    0.1223463  18.01  0.001073246    2.595    0.615
       148 -10.2177    104.3158     47.0812   9.1554801958e+01   5.2495105573e+01    0.3012109    0.1928114  33.58  0.001375308    1.608    0.378
       149  -9.2263     47.3102     47.2979   1.1317512381e+02   6.1460031462e+01    0.1356418   0.08733916 -28.30 0.0003296538    1.597    0.374
       150  -9.4984     65.0172     46.4074   1.0557327826e+02   5.9455919124e+01    0.2350663    0.1307388  38.86 0.0003604984    2.011    0.503
       151  -9.7649     30.8436     46.0819   1.1990203447e+02   6.3255880351e+01    0.1861345    0.1567972 -69.77 0.0006333267    1.246    0.197
       152  -9.4367     91.2192     44.7605   9.5085272763e+01   5.5486017458e+01    0.1984949    0.1575425  -4.87 0.0004906005    1.295    0.228
       153 -10.9323     19.4604     31.8889   1.2117881512e+02   6.7138060150e+01     0.722737    0.3173735 -16.56  0.002989399    3.337    0.700
       154 -10.1099     30.7634     30.7913   1.1531224200e+02   6.6538626741e+01     0.216603    0.1772737  10.60  0.001413794    1.369    0.269
       155 -11.0374     25.5564     43.5711   1.2156274601e+02   6.4201525535e+01    0.3117249    0.2330897 -82.38  0.001304661    1.561    0.359
       156 -11.2404     23.7660     38.6321   1.2104547951e+02   6.5403837429e+01    0.2521741     0.216054  21.43 0.0007090779    1.407    0.289
       157 -11.0984     26.4042     35.7721   1.1899088621e+02   6.5832249210e+01    0.3713959    0.1952078 -44.96  0.001608079    1.527    0.345
       158 -10.6681     70.3276     41.3601   1.0161408539e+02   5.9688701350e+01     0.379489    0.2509192 -34.93  0.001050933    1.376    0.273
       159 -10.3299     36.0885     41.1290   1.1615682601e+02   6.3891014572e+01    0.2862302    0.1624673 -43.59   0.00133452    1.467    0.318
       160  -9.8011      2.3364     42.4205   1.3158459422e+02   6.5653589939e+01    0.1717447    0.1101395  -5.77 0.0007054685    1.900    0.474
       161  -9.9746    181.4498     40.8173   7.0463532015e+01   3.4666883753e+01    0.2845529    0.2180259  68.89 0.0005887953    1.397    0.284
       162 -10.8314    139.5776     40.4104   7.9057033974e+01   4.5514826110e+01    0.3164562    0.2453721 -41.89  0.001529818    1.411    0.291
       163  -8.9241     43.2754     40.6798   1.1280670096e+02   6.3294060056e+01    0.1176716          0.1 -86.16 0.0002696578    1.574    0.365
       164  -9.3553    134.3325     39.7131   8.0108231588e+01   4.6911978400e+01    0.2421446    0.1567343  57.20 0.0005382061    1.618    0.382
       165  -9.8667    131.0007     37.6894   8.0201950191e+01   4.8026469963e+01    0.2297229    0.2201391 -69.54  0.001240905    1.244    0.196
       166 -12.0037    121.6355     36.8600   8.2402887888e+01   5.0385422896e+01    0.5055906    0.4804348  40.66  0.002302674    1.142    0.124
       167  -9.4561    101.5311     39.4837   8.9531666775e+01   5.4398728889e+01    0.1511234    0.1321593   1.91 2.305994e-05    1.062    0.059
       168  -8.7330     51.2974     39.6862   1.0894075942e+02   6.2611775092e+01    0.1202087    0.1045853 -88.01 0.0004227076    1.604    0.376
       169 -10.2946     12.8727     38.1565   1.2596144053e+02   6.6152412916e+01    0.3172862   0.04970973 -64.01  0.001068277    4.079    0.755
       170  -9.1997    236.6919     37.6954   6.1657864964e+01   2.1228884883e+01    0.1396426    0.1003514  24.92 0.0002891572    1.607    0.378
       171  -9.5640    229.5066     36.9672   6.2304225822e+01   2.3004400822e+01    0.2039052    0.1305936 -25.24 0.0004383296    1.480    0.325
       172 -10.1201     69.5674     36.0783   9.9869873650e+01   6.0821540095e+01     0.326559    0.1807383 -17.77  0.001330712    2.579    0.612
       173 -10.6056      2.2373     35.7927   1.3036323100e+02   6.7113717730e+01    0.2871424    0.1755149 -57.24   0.00183189    1.212    0.175
       174 -11.0573    134.1276     34.0008   7.8000248212e+01   4.7795584788e+01    0.2347323    0.2003512  31.63 0.0003054284    1.098    0.089
       175 -11.0230     50.8062     33.7780   1.0699351388e+02   6.3867242083e+01    0.3815742    0.2223998  37.10  0.001740738    1.991    0.498
       176 -10.7129    145.0323     32.9862   7.5029505679e+01   4.5188881161e+01    0.2247425    0.2067562  23.98  0.001193963    1.007    0.007
       177 -10.2244    127.2733     31.2423   7.8675177008e+01   4.9867215073e+01    0.4449502    0.2850522  22.53   0.00192868    1.791    0.441
       178  -9.4008    166.4705     31.0481   6.9926575156e+01   3.9847174705e+01    0.2233891    0.1495403 -22.41 0.0004285615    1.529    0.346
       179 -11.5404     43.8806     29.4158   1.0850970506e+02   6.5539127037e+01    0.4915437    0.3131834 -32.26  0.001608797    1.395    0.283
       180  -9.7695    205.3316     30.6587   6.3596355381e+01   2.9708595936e+01    0.1558982    0.1049927 -58.54 0.0007051351    1.748    0.428
       181 -10.1649    148.9741     29.2436   7.2777727325e+01   4.4664084228e+01     0.499548    0.3215605 -63.28  0.002024464    2.345    0.574
       182 -10.5915     34.0362    247.2325   1.4025299268e+02   2.2460317160e+01    0.1346285   0.08709132  52.48 0.0004523081    1.092    0.084
       183 -10.4307     68.9732     27.6100   9.6584127872e+01   6.2464892664e+01    0.3047729    0.2569538 -81.47  0.001654229    1.974    0.493
       184 -10.2655      7.3250     27.9542   1.2611903004e+02   6.8618648308e+01    0.2279271      0.17593  41.20  0.001062724    1.719    0.418
       185  -9.3986    224.6861    246.6536   1.0802684091e+02  -2.1111572075e+00    0.1140457   0.06185014  16.18 0.0007047111    1.716    0.417
       186 -10.8827     74.6981     21.6774   9.1589687048e+01   6.2503893901e+01    0.3256572    0.2279087 -15.70 0.0007979457    1.380    0.275
       187  -9.7467    218.8323     25.8015   6.0477334268e+01   2.6841328581e+01    0.1962266     0.154897 -57.52 0.0004121142    1.342    0.255
       188 -10.1320    114.0406     25.3148   7.9867829982e+01   5.3845131885e+01    0.2714135    0.2101299 -29.40 0.0006601012    1.318    0.241
       189  -9.0567    101.3180     26.6279   8.4278425309e+01   5.6505823466e+01    0.1442148    0.1156631 -62.68  0.000703343    1.796    0.443
       190  -9.3679     18.3382     26.3183   1.2005352559e+02   6.8387338937e+01    0.1321619   0.06881391 -35.55 0.0007049173    1.706    0.414
       191  -9.5505    181.4868     25.5122   6.5484391901e+01   3.6519916953e+01    0.1481792    0.1417434  37.81 -0.0001028347    1.000    0.000
       192  -9.8088    153.4027     25.5773   7.0511997817e+01   4.3962550805e+01    0.2782384    0.1496959  66.79  0.000726596    2.016    0.504
       193 -10.0510     59.0803     24.3697   9.9410355298e+01   6.4553893085e+01    0.2640145     0.159174 -27.02 0.0009280886    1.582    0.368
       194  -9.6386     52.4680     24.9762   1.0267644397e+02   6.5355173614e+01    0.1731423    0.1141828 -64.62 0.0008093441    2.515    0.602
       195  -9.6762     89.3722     22.1455   8.6304908578e+01   5.9662413396e+01    0.3994979    0.1228215 -34.08  0.001366895    3.099    0.677
       196  -8.7695    170.6848    246.6882   1.1714742513e+02   5.4965802873e+00    0.1088736    0.0689081  19.30 0.0004774547    1.637    0.389
       197  -9.1873    136.3236    245.6592   1.2300607511e+02   1.0454426478e+01    0.1089723   0.06716996  57.03 0.0006197769    1.726    0.421
       198  -9.7907    217.4598    245.0000   1.0899484048e+02  -9.6025690254e-01    0.2486497   0.04561694  39.47 0.0009397428    3.975    0.748
       199 -10.0926      1.9128     21.9274   1.2735646143e+02   7.0109671996e+01    0.2524379    0.1353484 -69.80  0.001141124    1.636    0.389
       200 -10.3619    124.9273     21.1961   7.5224380927e+01   5.1781789811e+01    0.2400048    0.2071475 -14.13  0.000358359    1.161    0.138
       201 -10.5804    174.6178     20.8402   6.5025745568e+01   3.8867105252e+01    0.3633816    0.1192604  50.48  0.001219669    2.717    0.632
       202  -9.7505     85.1650     20.9552   8.7265842029e+01   6.0673759169e+01    0.2766702    0.1608621  20.87 0.0009429929    2.081    0.519
       203  -9.8034    146.3320    244.3196   1.2112243661e+02   9.2288749685e+00    0.1069219    0.0723049  18.72 0.0007048682    1.694    0.410
       204 -10.2974     31.0408     20.4749   1.1136407101e+02   6.8602419780e+01    0.2396429    0.1450402 -45.19 0.0005534852    1.343    0.256
       205  -9.3911    104.2153     29.6101   8.4628594417e+01   5.5428814976e+01    0.2217101    0.1246963  37.37 0.0009556358    1.772    0.436
       206 -10.3162    100.4524     19.2071   8.1279066041e+01   5.7756364943e+01    0.3244506    0.2227901 -54.61  0.001230841    2.145    0.534
       207  -9.3374    148.5958     18.7988   6.8955068151e+01   4.6016180533e+01    0.1942893    0.1373434 -34.08 0.0002416195    1.496    0.331
       208  -9.4591    227.3213     18.3333   5.7472006779e+01   2.5534565702e+01    0.1430602   0.09835319  30.49 0.0005035189    1.701    0.412
       209 -10.2152    199.6960     17.1498   6.0270804442e+01   3.2619839989e+01    0.2299378    0.1944378 -87.00 0.0004799504    1.251    0.201
       210 -10.1197     26.4832     16.4257   1.1215378614e+02   6.9795264182e+01    0.1872882    0.1643628 -57.07 0.0008764532    1.366    0.268
       211 -10.7782     19.9002     16.7873   1.1591805216e+02   7.0235855841e+01    0.1946506    0.1569346   1.14 0.0003884139    1.346    0.257
       212  -9.4893     74.2177    243.7674   1.3354423786e+02   1.8674380765e+01    0.1215056   0.09676868  41.21 0.0002942532    1.274    0.215
       213 -11.0846     38.0850    242.2523   1.3940474805e+02   2.2792881940e+01    0.2977805   0.07705188  53.19  0.001622211    2.733    0.634
       214  -9.4267    202.4503    240.3229   1.1089688789e+02   1.6255277820e+00    0.1603434     0.102907 -21.21 0.0007569694    1.902    0.474
       215  -9.2735     60.5348    241.0000   1.3566950277e+02   2.0627235528e+01    0.2154411   0.04350726  35.92   0.00092983    3.895    0.743
       216 -12.3243     26.3312    235.9034   1.4102840455e+02   2.4880949966e+01    0.2746709    0.2023945  89.84  0.001671401    1.390    0.280
       217 -10.6246    190.3732     13.9103   6.0466231481e+01   3.5391293962e+01    0.2382744    0.1963445  86.64 0.0005500707    1.272    0.214
       218 -10.4532    144.0287     14.3273   6.8158544406e+01   4.7705048764e+01     0.207743    0.1830368  49.70 0.0007099815    1.075    0.070
       219 -11.8134      4.1140    232.5796   1.4442302229e+02   2.7344407929e+01    0.3015788     0.139143  65.58 0.0003907798    1.591    0.371
       220 -13.3109      9.7692    229.1561   1.4343802963e+02   2.7398757663e+01     0.593771    0.2998061  58.66  0.004499875    1.390    0.281
       221  -9.7493    249.1739    234.1267   1.0226375177e+02  -4.3324297549e+00     0.167229    0.1030512  18.59 0.0005013077    1.155    0.134
       222  -9.7813    140.0844    227.0396   1.2037249928e+02   1.2383261899e+01    0.1807376    0.1143259  56.89 0.0008460677    1.717    0.418
       223  -9.2449    110.0000    226.9401   1.2591122735e+02   1.6639777614e+01     0.145726   0.06372679 -60.06 0.0007981541    2.913    0.657
       224 -10.0591     32.8845    225.2200   1.3950244268e+02   2.5921451442e+01    0.2426173   0.09767401  39.96  0.001554777    1.910    0.476
       225 -10.1717     25.6885    225.0121   1.4070018053e+02   2.6636424660e+01    0.1357976   0.09836795  71.48 0.0007128094    1.124    0.111
       226 -11.9599      7.8584    217.6022   1.4338550810e+02   2.9394977830e+01    0.2427424    0.1798194  61.87  0.001666086    1.091    0.084
       227  -9.4773    246.4682    216.5289   9.9965490796e+01  -2.3559918297e+00    0.1183178   0.08103482  16.89 0.0001424611    1.036    0.034
       228 -10.9770     16.1697    211.9724   1.4178887620e+02   2.9617272864e+01    0.1690659    0.1149634  48.80  0.001141518    1.235    0.190
       229  -9.4072    209.5318    211.5500   1.0551253027e+02   3.6991463743e+00    0.1220906   0.09078503  24.15 0.0004253619    1.015    0.015
       230  -9.8543     20.7809    209.7940   1.4090220296e+02   2.9577478070e+01    0.1416356   0.08039011  61.95 0.0004172252    1.338    0.253
       231  -9.7009    246.9595    207.2760   9.8361275011e+01  -1.5259806477e+00    0.1657863    0.1176938  15.09 0.0006782869    1.014    0.014
       232 -11.4029     13.2319     20.7591   1.2096228788e+02   6.9847722618e+01    0.3048123    0.2314991 -56.37  0.001077584    1.174    0.148
       233  -9.3609    197.2421    204.0315   1.0656638909e+02   6.5529055111e+00    0.1374137    0.1006291 -24.21 0.0005598096    1.561    0.359
       234 -11.3891      9.1762    203.4312   1.4267876586e+02   3.1649888915e+01    0.2059947     0.145081  52.46 0.0009202834    1.189    0.159
       235  -9.5361    180.8099    199.3247   1.0892882906e+02   9.8546572360e+00    0.2696882   0.09312104  45.24  0.001104156    2.699    0.629
       236  -9.5214     23.0605    197.4923   1.3993694316e+02   3.1499397600e+01    0.1468597   0.08473507  38.71 0.0006110173    1.584    0.369
       237 -10.0113      6.7086    191.7685   1.4268631210e+02   3.3884315087e+01    0.1881455   0.07614426  55.39 0.0007102907    1.889    0.471
       238  -9.5819     15.3853    185.2043   1.4079306102e+02   3.4374527448e+01    0.1447771   0.07505716  81.33 0.0009403881    1.668    0.400
       239  -9.4968      1.3073    183.2051   1.4336278513e+02   3.5836014738e+01    0.1357085   0.06924062  83.60 0.0004993172    1.603    0.376
       240 -10.8278      4.6566    167.3689   1.4208181955e+02   3.8557372904e+01    0.2928681    0.1316426  48.90  0.001522886    1.843    0.457
       241  -9.1070     41.7513    158.0408   1.3352980547e+02   3.7289549332e+01    0.1464651   0.08694267 -78.67 0.0008772925    1.558    0.358
       242  -9.1358    247.4769    155.5258   8.8604404568e+01   4.0961159910e+00     0.132529    0.1035102   8.27 8.174351e-05    1.005    0.005
       243 -10.2804      2.7716    153.4793   1.4183328666e+02   4.1408289314e+01    0.2494759   0.05115958  35.60  0.001188809    3.475    0.712
       244 -10.0734     14.8472    150.4166   1.3902991175e+02   4.1175190293e+01    0.1874355    0.1208294  81.84 0.0007094896    1.294    0.227
       245 -10.2192     21.9377    143.3382   1.3692269419e+02   4.2098298595e+01    0.2020968    0.1291815  86.12  0.001227893    1.352    0.260
