#   1 NUMBER                 Running object number                                     
#   2 MAG_AUTO               Kron-like elliptical aperture magnitude                    [mag]
#   3 X_IMAGE                Object position along x                                    [pixel]
#   4 Y_IMAGE                Object position along y                                    [pixel]
#   5 X_WORLD                Barycenter position along world x axis                     [deg]
#   6 Y_WORLD                Barycenter position along world y axis                     [deg]
#   7 A_WORLD                Profile RMS along major axis (world units)                 [deg]
#   8 B_WORLD                Profile RMS along minor axis (world units)                 [deg]
#   9 THETA_WORLD            Position angle (CCW/world-x)                               [deg]
#  10 FWHM_WORLD             FWHM assuming a gaussian core                              [deg]
#  11 ELONGATION             A_IMAGE/B_IMAGE                                           
#  12 ELLIPTICITY            1 - B_IMAGE/A_IMAGE                                       
         1 -13.4587    191.4940     32.9115   6.1702473407e+01   3.3601596728e+01    0.9895535    0.8920904 -81.33  0.003305147    1.129    0.114
         2 -13.9734    200.6152     21.1618   5.8064253382e+01   3.2967882014e+01      1.22949     1.000796 -17.14  0.002032783    1.798    0.444
         3 -11.7806     58.6759      4.4511   7.9791571218e+01   6.4584734538e+01    0.4122937    0.3018555 -24.07  0.002899841    1.561    0.359
         4  -9.7983     84.0395      2.4926   7.1899752003e+01   6.0156293520e+01    0.1861721   0.09463658  54.21 0.0007295744    1.620    0.383
         5 -10.5936     93.2251    236.7003   1.2694071235e+02   1.1788811480e+01    0.2844402    0.2381309  76.26 0.0007151604    1.123    0.109
         6 -19.1567      9.6775    144.0730   1.3518827208e+02   4.4298552287e+01     19.73215     4.462188 -72.27   0.06160878    4.387    0.772
         7 -10.7913    195.9481    171.1634   9.2553774608e+01   7.5695173955e+00    0.4727576    0.3249893 -45.31  0.001373098    1.381    0.276
         8 -10.5700     65.8960    175.6299   1.2486939976e+02   3.0346552323e+01    0.2436903    0.1868942 -56.59 0.0007938942    1.258    0.205
         9  -8.3629    111.6412    235.0125   1.2274230054e+02   9.1998230399e+00    0.2233951   0.09442533 -38.87 0.0007031924    4.671    0.786
        10  -9.2438    228.3274    171.3330   8.6377795896e+01   1.6363462890e+00    0.1428491    0.1033287 -10.47 0.0007051603    1.716    0.417
        11  -9.1959    124.4989    171.5073   1.0904455839e+02   2.1548469232e+01     0.154652    0.1488352 -87.01 0.0008106054    1.015    0.015
        12  -9.4720    145.9575    168.3351   1.0310286243e+02   1.8111235007e+01    0.2188138     0.200688  43.88 0.0005195056    1.106    0.096
        13  -9.2751     78.9436    231.9739   1.2942908628e+02   1.4994836446e+01    0.1615918     0.138629  68.01  0.000376862    1.014    0.013
        14 -11.6894     93.6600    157.6694   1.1432676413e+02   3.0563176013e+01     0.668038    0.4311909 -33.38  0.002845187    1.966    0.491
        15  -8.5837    141.5422    158.5140   1.0206786818e+02   2.1311322269e+01    0.1568454     0.151132 -76.56 5.503893e-05    1.030    0.029
        16 -10.5419    183.8177    215.8078   1.0388570140e+02   7.1818528423e-01    0.1883035    0.1720556  73.14  0.001082803    1.357    0.263
        17  -8.6099    113.2905    151.6540   1.0780066806e+02   2.8528707741e+01    0.1602686    0.1219353  86.25 0.0002509358    1.659    0.397
        18  -9.2754    174.9988    148.9949   9.2155283910e+01   1.6541306538e+01    0.1877328    0.1803244 -52.90 0.0004062238    1.002    0.002
        19 -10.3322    133.6033    143.8510   1.0075882485e+02   2.6398809776e+01     1.109221    0.2694928 -54.25  0.002436964    6.001    0.833
        20 -10.3910    106.1056    141.5656   1.0751563153e+02   3.2338982460e+01    0.5808223    0.3322729 -29.18   0.00210206    2.659    0.624
        21 -12.0260    194.0985    194.0593   9.7599470564e+01   3.2137748938e+00    0.9684415    0.6516188 -67.09  0.004327617    2.197    0.545
        22 -11.4341     93.8862    142.0694   1.1102189809e+02   3.4404381697e+01    0.3093647    0.2685848 -37.31 0.0003646789    1.190    0.159
        23 -12.1047    167.4340    234.5290   1.1060959362e+02  -7.9065199572e-02    0.6036577    0.3045917  24.04  0.002463473    2.539    0.606
        24  -9.9486    114.0021    131.5782   1.0303508125e+02   3.3233283680e+01    0.3478696    0.2767221  -0.55 0.0009727766    1.642    0.391
        25  -9.5598    105.9379    130.7180   1.0505543715e+02   3.4980730288e+01    0.3060732    0.2691515 -85.90  0.001327933    1.258    0.205
        26 -10.4120    101.3359    127.9738   1.0569719001e+02   3.6485954703e+01    0.3242318    0.2510294 -34.41 0.0005855499    1.365    0.267
        27 -11.1406    119.1656    126.1620   1.0032145983e+02   3.3475175560e+01    0.7612162    0.3660986 -39.78  0.002780885    2.268    0.559
        28  -9.8835    135.7131    126.8536   9.6168823122e+01   2.9893990934e+01    0.3838133    0.1379805 -49.05  0.001219708    2.789    0.641
        29  -9.0873    125.6851    127.3416   9.8876608541e+01   3.1877966313e+01    0.1617133    0.1243688  89.78 0.0004958624    1.706    0.414
        30  -9.3160    109.4421    120.0330   1.0146549358e+02   3.6804245218e+01    0.2145889    0.2062583  34.96 0.0003049385    1.070    0.066
        31  -9.2891    167.6508    112.6211   8.5155109143e+01   2.5936558164e+01    0.2982982    0.2090533 -80.07 0.0009025939    1.948    0.487
        32 -10.5586    120.1209    109.8987   9.5926667761e+01   3.6922360282e+01    0.5175495    0.1938081 -51.27  0.001680587    2.934    0.659
        33 -15.2487     73.9235    155.7485   1.1935135478e+02   3.4200693349e+01     8.597036     4.252907 -84.89   0.01089656    5.145    0.806
        34  -9.3644    205.5490    110.0538   7.7244809550e+01   1.8058091835e+01    0.2501903    0.2062112  35.73 0.0008076145    1.488    0.328
        35  -8.8954    102.8030    110.2024   1.0083217860e+02   4.0288387762e+01    0.2210053    0.2021705  86.95 0.0005202202    1.237    0.191
        36 -10.5963     81.7106    195.8519   1.2400529413e+02   2.2982937546e+01    0.5225351    0.3700367 -31.91  0.002485907    1.977    0.494
        37  -9.4556    134.5296    103.8503   9.0585110317e+01   3.5138234762e+01    0.4626489    0.1460317 -46.45   0.00142447    3.224    0.690
        38 -10.2226     72.6494    105.8906   1.0885665333e+02   4.6422377115e+01    0.2506944    0.1969829  16.78  0.001111627    1.399    0.285
        39  -9.6157    100.9267    235.1239   1.2508204618e+02   1.0909829409e+01    0.2156779    0.1644471  67.74 0.0005195674    1.294    0.227
        40  -9.0282     83.0000     83.9445   9.9555376115e+01   4.9347546755e+01    0.2316778   0.07717048 -45.32 0.0006981684    2.944    0.660
        41 -10.7593    209.3633    181.8792   9.2079707182e+01   2.9120359499e+00    0.6908167    0.3852245 -25.10  0.002826434    2.360    0.576
        42  -9.4094     99.4850    180.7395   1.1712822382e+02   2.3808978720e+01    0.2635599    0.2043685  40.66 0.0006627549    1.318    0.241
        43 -11.1897    182.7840    234.2674   1.0735207126e+02  -2.5667755651e+00    0.3850297     0.205912  49.14  0.001733703    2.205    0.547
        44  -8.8173     66.8188     70.8646   1.0093918215e+02   5.4436850753e+01    0.1653932     0.160008  56.33 0.0004128651    1.310    0.237
        45  -9.9924    164.1758     64.9167   7.3721976176e+01   3.5442260130e+01    0.2699206    0.2120217 -72.45 0.0004270522    1.361    0.265
        46  -8.6778    163.6458     56.2815   7.1580467410e+01   3.6875689088e+01    0.1428575    0.1009162 -82.38 0.0007015511    1.659    0.397
        47 -12.9965    181.5376     40.9911   6.4911245468e+01   3.4842196671e+01    0.8411202    0.6711693 -14.82  0.001240943    1.746    0.427
        48  -9.5605    173.5052    247.5237   1.1144205493e+02  -3.4247008582e+00    0.2170179    0.1292685 -59.93  0.001035452    2.394    0.582
        49 -10.1615    196.0061    245.7325   1.0658889908e+02  -6.6340920622e+00     0.183062    0.1523023  19.19 0.0005166607    1.065    0.061
        50  -8.7496     94.6659     46.3203   8.4200276073e+01   5.3461412620e+01    0.1248763    0.1051724 -87.12 0.0007049495    1.701    0.412
        51 -10.4336    170.0166    240.0094   1.1096243831e+02  -1.5207705109e+00    0.2149671    0.1570937  -4.51 0.0007277584    1.687    0.407
        52  -9.5207    193.7634    165.6404   9.1833138913e+01   9.1477549277e+00    0.3506258    0.2393854 -57.87  0.001615931    1.614    0.380
