#   1 NUMBER                 Running object number                                     
#   2 MAG_AUTO               Kron-like elliptical aperture magnitude                    [mag]
#   3 X_IMAGE                Object position along x                                    [pixel]
#   4 Y_IMAGE                Object position along y                                    [pixel]
#   5 X_WORLD                Barycenter position along world x axis                     [deg]
#   6 Y_WORLD                Barycenter position along world y axis                     [deg]
#   7 A_WORLD                Profile RMS along major axis (world units)                 [deg]
#   8 B_WORLD                Profile RMS along minor axis (world units)                 [deg]
#   9 THETA_WORLD            Position angle (CCW/world-x)                               [deg]
#  10 FWHM_WORLD             FWHM assuming a gaussian core                              [deg]
#  11 ELONGATION             A_IMAGE/B_IMAGE                                           
#  12 ELLIPTICITY            1 - B_IMAGE/A_IMAGE                                       
         1 -12.8253     37.5940     50.8662   1.0181333381e+02   6.1927759121e+01    0.7539775    0.5562192 -17.37  0.003611952    1.426    0.299
         2 -12.2391     84.6606     20.6528   7.2473684206e+01   6.0242523296e+01     0.759968    0.5431793 -20.29  0.002796754    1.313    0.238
         3 -11.4504      4.7311     18.5816   1.0527983396e+02   7.0679095436e+01    0.3696822    0.2813952  22.63  0.002633887    1.681    0.405
         4 -11.7110     20.9034     18.2253   9.7193575761e+01   6.9561169325e+01    0.5476393    0.4496355 -66.56  0.003215549    1.837    0.456
         5  -9.8139     15.3421     14.1635   9.8188506872e+01   7.0710684498e+01    0.1818607    0.1370211 -60.87 0.0008539901    1.823    0.452
         6 -12.0460     60.4272     22.7308   8.1962972131e+01   6.4111540796e+01    0.5175159     0.325251 -51.96  0.002624256    2.321    0.569
         7 -11.7276    129.3826     22.2619   6.1149068435e+01   5.0273425689e+01    0.5921217    0.4774511  -8.63  0.001882354    1.282    0.220
         8  -9.7501     34.9202     15.8358   8.9540204777e+01   6.8549231835e+01    0.3898786    0.1816743 -26.77  0.001944829    2.137    0.532
         9 -11.6374     74.1292      7.0712   6.9649605805e+01   6.3860656126e+01    0.2718431    0.2113252 -16.61 0.0003107147    1.215    0.177
        10 -12.0863     81.4619      6.1946   6.6873925722e+01   6.2572474622e+01     0.490945    0.2754324  31.62 0.0002739597    1.721    0.419
        11 -11.5186     75.6502     15.7781   7.3249565164e+01   6.2545020500e+01     0.611595    0.3545637  -7.21  0.002985484    1.983    0.496
        12 -11.1906     70.4492     14.7160   7.4560221951e+01   6.3599806896e+01    0.4106051    0.2040839 -21.82  0.001604934    2.008    0.502
        13 -10.7421     64.8883     14.1641   7.6313418235e+01   6.4610870483e+01    0.4199453     0.194362  21.78  0.001654766    3.368    0.703
        14 -10.3868     55.0179     13.3387   7.9718541097e+01   6.6272449088e+01    0.2243752    0.1763705 -15.92  0.000676348    1.086    0.079
        15 -10.3241    157.4634     12.4288   5.2262565244e+01   4.4277651853e+01    0.3687511     0.187634 -49.50  0.001516381    2.370    0.578
        16 -10.4759    100.0622     12.9816   6.4562896861e+01   5.8041658352e+01    0.3037176    0.1851843  -9.70  0.001022059    1.746    0.427
        17 -10.5276     30.8428     13.0200   9.0113362435e+01   6.9437728105e+01    0.2050684    0.1440159 -24.51 0.0003825955    1.116    0.104
        18  -9.9802    138.3795     12.2682   5.5551177408e+01   4.9153944578e+01    0.3097974    0.1911555 -71.35  0.001315607    2.479    0.597
        19 -10.3323    133.0234     11.5190   5.6311360883e+01   5.0557498528e+01    0.2695242    0.1866632  10.42 0.0007800949    1.634    0.388
        20 -11.6044    116.7448      8.7269   5.8653574134e+01   5.4740632882e+01    0.6322522    0.2874486 -37.58  0.002121152    2.446    0.591
        21  -9.8705     50.7864     11.2630   8.0425509550e+01   6.7175592713e+01    0.2248543    0.1315666  -7.31 0.0008875332    1.899    0.473
        22  -9.9362      5.5095     11.4618   1.0208132505e+02   7.1878432244e+01    0.1866257   0.06843342 -42.72 0.0005328212    1.926    0.481
        23  -9.7089      6.4935      8.0000   1.0006966695e+02   7.2393852754e+01    0.1773417    0.1458396 -55.58 0.0005880742    1.579    0.367
        24 -12.4091     13.3680      3.0722   9.4051153441e+01   7.2648599677e+01    0.6387165    0.3906235  16.51  0.002814141    1.741    0.425
        25 -11.8249     24.7610      5.8756   8.9569093176e+01   7.1157236730e+01    0.5622741    0.3117203 -10.48  0.002771837    1.995    0.499
        26 -13.0711     32.1116      2.0619   8.3991621240e+01   7.0873357482e+01    0.2905564    0.1906901  20.45 0.0006167243    1.500    0.333
        27 -10.7621    235.8296      9.9826   4.2249207510e+01   2.4534444963e+01     0.207085    0.1501589  18.92  0.001082809    2.023    0.506
        28 -10.8060    127.5837      8.7123   5.6329844436e+01   5.2162218338e+01    0.3568097    0.2395606 -61.20  0.001255517    2.048    0.512
        29 -10.0904     59.4591     10.1832   7.6436191436e+01   6.6003514217e+01     0.213658    0.1594318  27.70 0.0007872076    1.295    0.228
        30  -9.3826    107.8929      9.1345   6.0900759398e+01   5.6727085442e+01    0.1913665    0.1417829  19.52  0.001046437    1.317    0.241
        31 -10.3763     91.9029      6.7873   6.4069321483e+01   6.0417194581e+01    0.4052492    0.2578887  11.87  0.002085646    1.661    0.398
        32 -10.5360    146.3738      6.4473   5.2012074677e+01   4.7700790505e+01    0.3705515    0.2052006 -46.49   0.00165962    2.116    0.527
        33  -9.6838     59.8494      5.5862   7.3991348821e+01   6.6503320979e+01    0.2341933    0.1068997  40.80  0.001160769    2.137    0.532
        34 -10.5625    167.9485      2.3470   4.7391306525e+01   4.2515251115e+01    0.2295299     0.200911 -27.66 0.0002837694    1.242    0.195
        35 -10.1586    125.8020      1.9772   5.4063712978e+01   5.3204153351e+01    0.2991645    0.1757313 -78.42  0.001233393    2.899    0.655
        36 -10.1144    236.9745      2.0000   4.0219605599e+01   2.5111558399e+01     0.211331   0.06862384  74.39 0.0008058626    2.966    0.663
        37  -9.7882    228.5539      5.4988   4.1768943987e+01   2.6764801955e+01    0.2290245    0.1162436 -88.77  0.001020236    2.136    0.532
        38 -10.1076    174.4540    219.2968   1.0145856811e+02   4.6783293212e+00    0.2846781     0.133923  33.48  0.001317746    2.142    0.533
        39 -10.8358    250.3913    245.5652   9.2315520840e+01  -1.0604438752e+01     0.332404    0.1467595 -25.23  0.001894114    2.507    0.601
        40  -9.7517     72.6424    249.9699   1.2294816524e+02   1.5681021132e+01    0.1414835    0.1205135 -71.76  0.001132915    1.560    0.359
        41 -10.2363      5.7681    235.2593   1.3259804108e+02   2.5807789340e+01    0.2349543     0.138913  62.63  0.001225941    1.192    0.161
        42 -12.0219     17.1312    238.3003   1.3100938518e+02   2.4157853338e+01    0.8808203    0.1754577  39.28   0.00417363    3.953    0.747
        43 -13.1712     19.1406    247.6925   1.3113189371e+02   2.2380847645e+01     1.037778    0.3138663  45.64  0.006161689    2.357    0.576
        44 -12.5854      6.2429    244.6022   1.3289826044e+02   2.4193066463e+01    0.6126286    0.3587269  63.32  0.003732048    1.161    0.139
        45  -9.4616    249.3100    227.3085   8.9552908674e+01  -8.5862069073e+00    0.1203411   0.07167551  13.02 0.0004242185    1.619    0.382
        46 -10.8180      9.6946    217.0222   1.3117393169e+02   2.8650497533e+01     0.262672    0.1303045  63.28  0.001174905    1.514    0.340
        47 -11.3633    236.0866    214.8858   8.9660332085e+01  -5.1356649165e+00    0.4285982    0.2609759  19.39  0.001787429    1.573    0.364
        48  -9.5590     38.0075    217.5022   1.2646435324e+02   2.5595980142e+01    0.1518558   0.09087559  46.01 0.0005829608    1.545    0.353
        49 -10.5338     31.0751    215.8405   1.2754594376e+02   2.6676594584e+01    0.2313181    0.1345784  45.97  0.001570478    1.584    0.369
        50  -9.5470    201.5497    215.5363   9.5876981479e+01   5.3111892075e-01    0.1281922    0.1023854  24.01  0.000312274    1.089    0.082
        51  -9.8228    194.5395    215.4789   9.7148504168e+01   1.7485792781e+00    0.1271385    0.1051683  30.49 -3.333895e-05    1.004    0.004
        52  -9.4103    136.9491    216.0000   1.0807069375e+02   1.1651378613e+01    0.2101998   0.06124447  42.51 0.0007948769    2.890    0.654
        53  -9.6587    170.3004    213.3185   1.0133134768e+02   6.3126878300e+00    0.1248386    0.0933326  14.07 0.0003726078    1.620    0.383
        54 -11.2053     21.2280    212.1217   1.2899942406e+02   2.8412375669e+01    0.3283074    0.1391854  60.14  0.001951159    1.902    0.474
        55 -10.1617    208.9680    212.0809   9.3956284780e+01  -2.7077109287e-01    0.1921858    0.1567867  23.96 0.0004739013    1.025    0.025
        56  -9.3237     76.3389    212.3048   1.1915496435e+02   2.1737054584e+01    0.1002904   0.09514472 -13.13 0.0007040322    1.676    0.403
        57  -9.4718      2.2895    212.3452   1.3215610836e+02   3.0199904748e+01    0.1093449    0.0977462  59.38 0.0005887196    1.545    0.353
        58 -11.8583      4.9085    207.5328   1.3149945018e+02   3.0854742769e+01    0.4832219    0.1975403  83.43  0.002826457    2.070    0.517
        59  -9.8460    124.0068    205.9740   1.0924166340e+02   1.5587995630e+01    0.1823252    0.1548029  55.59  0.001167514    1.033    0.032
        60 -11.4921     18.7501    202.9575   1.2888793173e+02   3.0403664786e+01    0.3083978    0.2229392 -84.60   0.00109074    1.247    0.198
        61 -10.2505    175.2907    202.7083   9.8688974593e+01   7.0954722219e+00    0.2154621    0.1791775  54.73 0.0005214291    1.229    0.186
        62  -9.2307     68.0228    203.7631   1.1990567167e+02   2.4508669444e+01    0.1462702   0.08608165  46.09 0.0004088882    1.535    0.349
        63  -9.5017    223.5939    201.7921   8.9525142840e+01  -1.3933260893e+00    0.1571805    0.1177946 -42.03 0.0005525537    1.667    0.400
        64 -10.1313     10.9508    208.3476   1.3052924504e+02   3.0137284619e+01    0.1709211    0.1196968 -70.20 0.0008143137    1.591    0.371
        65  -9.6193     34.4903    201.1034   1.2595116532e+02   2.9117292464e+01    0.1528574   0.09049817 -80.12 0.0005321554    1.461    0.315
        66  -9.3122    227.1378    196.8719   8.7992751131e+01  -1.3390883648e+00    0.1831368    0.1313855  12.62 0.0006678999    1.348    0.258
        67  -9.3633      7.0000    195.9681   1.3054675321e+02   3.2872882420e+01    0.1686957    0.0471687 -78.43 0.0005998899    2.915    0.657
        68 -10.3479    215.5313    194.7211   8.9687700764e+01   1.0041252333e+00    0.2185109    0.1242723 -28.54 0.0006506625    1.919    0.479
        69  -8.9848    202.7076    195.6955   9.2242361963e+01   3.1783482307e+00    0.1323309   0.09384368  11.97 0.0005030052    1.575    0.365
        70 -10.7148    187.2747    189.5994   9.4087408946e+01   6.9958967562e+00    0.3400701    0.1169414 -35.93   0.00121145    3.661    0.727
        71  -9.6145    211.3883    188.8115   8.9346087180e+01   2.6203395565e+00    0.1865785    0.1195039 -19.71 0.0009476137    1.787    0.440
        72  -9.4960      1.5906    188.2437   1.3108597085e+02   3.4861591607e+01    0.1398921   0.07629832 -75.42 0.0005561148    1.548    0.354
        73  -9.4546     61.6483    184.8379   1.1927045237e+02   2.9173490581e+01    0.1769544   0.09848968 -84.06 0.0009455021    1.767    0.434
        74  -9.1274    246.3094    184.3242   8.2253517272e+01  -2.9423067453e+00    0.1345105   0.08670511   8.32 0.0002795632    1.652    0.395
        75  -9.6003    166.7018    183.6522   9.7115212523e+01   1.1929115014e+01    0.1377019    0.1061643   5.38 0.0007035717    1.681    0.405
        76 -11.2643     16.0334    182.6741   1.2809254306e+02   3.4692224256e+01    0.3770044    0.1690028  81.25  0.002040136    2.052    0.513
        77  -9.7959      1.9966    180.3017   1.3057174649e+02   3.6412962124e+01    0.1485897    0.1073634  74.69 0.0004974041    1.094    0.086
        78 -10.0529    244.1546    178.5397   8.1473444006e+01  -1.7904916130e+00    0.2589698    0.1517124 -12.78   0.00103801    1.913    0.477
        79 -10.9179    224.3082    178.5039   8.4965548992e+01   1.7747757898e+00    0.2622356    0.2285472  28.57 0.0004714477    1.124    0.110
        80  -9.7550     70.1756    177.7274   1.1670195382e+02   2.9540851688e+01    0.1485534     0.144134 -74.38 0.0005105573    1.347    0.258
        81  -9.2385     36.4535    178.4590   1.2377348231e+02   3.3508344316e+01    0.1178068   0.09109568  83.48 0.0001872202    1.016    0.016
        82 -10.0737    200.2542    176.5809   8.9091732994e+01   6.6355568636e+00    0.2354557    0.1647829  -9.22 0.0009168906    1.756    0.431
        83  -9.9394     46.5236    177.2026   1.2160382598e+02   3.2642729245e+01    0.2134378    0.1543453  50.29  0.001390989    1.364    0.267
        84 -11.1044     18.2029    173.1444   1.2699403968e+02   3.6461676185e+01    0.3647576    0.1570328  67.86  0.001892428    2.302    0.566
        85  -9.4358     75.2280    170.7765   1.1475059601e+02   3.0336537458e+01    0.1660913    0.1484961 -50.19  0.001059039    1.408    0.290
        86 -10.9222     50.8698    164.9724   1.1940227386e+02   3.4776747129e+01    0.3431634    0.2058928 -50.49  0.001485011    2.000    0.500
        87 -11.6115     46.0315    161.3114   1.2006099912e+02   3.6147646804e+01     1.011454    0.6053956 -35.10  0.004876609    3.158    0.683
        88 -11.2358     36.2413    162.7906   1.2235704553e+02   3.6896119536e+01    0.3392019    0.2631708 -75.53  0.002099473    1.185    0.156
        89 -11.8003     36.9343    157.8465   1.2170266293e+02   3.7911399662e+01    0.2274969    0.1677921 -89.52 0.0002699931    1.095    0.086
        90 -10.9074     12.8220    170.1546   1.2784356526e+02   3.7575740286e+01    0.3124588    0.1202028 -89.46  0.001526648    2.446    0.591
        91  -9.7276     67.1848    165.1425   1.1580974422e+02   3.2677610564e+01    0.1853747    0.1303572  73.39 0.0007945442    1.347    0.258
        92  -9.4732    200.2693    162.6203   8.6237605929e+01   8.9653791581e+00     0.193444    0.1262732  36.13  0.000544386    1.480    0.325
        93  -9.8210    237.9962    159.0033   7.8483769910e+01   2.1318814507e+00    0.2123433     0.142019   8.42  0.001050552    1.723    0.420
        94 -10.1506    247.4850    158.4930   7.6753968960e+01   4.4774518032e-01    0.1334655    0.1181202  -5.19 0.0001151437    1.071    0.066
        95 -11.3739     22.5141    156.3986   1.2472083657e+02   3.9652003090e+01    0.4137914    0.3067481  57.34  0.002869275    1.335    0.251
        96  -9.0257    147.6800    156.3421   9.5988549081e+01   2.0911554428e+01    0.1508168     0.113854  83.80 0.0007049859    1.720    0.419
        97  -9.0598    235.7023    154.6625   7.7945221176e+01   3.2257185704e+00    0.1441448   0.09929734   5.63 0.0004406724    1.656    0.396
        98 -10.3660     12.2449    153.2651   1.2666523563e+02   4.1233153476e+01    0.2341283     0.158747  20.83  0.001037916    2.135    0.532
        99 -10.4104    178.1652    151.4883   8.8337853164e+01   1.5558187899e+01    0.2777936    0.2525787  80.97   0.00100908    1.267    0.211
       100 -10.3176     17.4397    146.7527   1.2495554641e+02   4.2224398795e+01    0.2442618    0.1980039  -5.89  0.001495266    1.972    0.493
       101 -11.8414     10.9714    145.2752   1.2626863292e+02   4.3081850520e+01    0.3356164    0.2477857  55.48  0.001899678    1.400    0.285
       102 -10.3671     22.5181    144.4374   1.2357900466e+02   4.2296749371e+01    0.1327667    0.1178018  17.60 2.667753e-05    1.596    0.373
       103 -11.8683     18.4921    140.4599   1.2411058260e+02   4.3534439460e+01    0.4959599    0.2159843  49.21  0.002617359    2.356    0.576
       104 -10.0892    206.9899    146.0657   8.1306824906e+01   1.0428064950e+01    0.2243383    0.2091099  11.79 0.0007174914    1.013    0.012
       105  -9.5714     50.1662    141.0594   1.1661313582e+02   4.0248978281e+01    0.2121124    0.1231428 -45.64  0.001075094    2.079    0.519
       106  -9.5981    240.1659    140.6413   7.4060991405e+01   4.5217728304e+00    0.1944038    0.1207535  34.70 0.0005621507    1.680    0.405
       107 -11.1857      3.4813    135.7375   1.2713702363e+02   4.5738542138e+01    0.4409955    0.1461376 -58.77  0.002148687    2.594    0.614
       108  -8.6990    143.6965    137.3168   9.2864026120e+01   2.5701699259e+01    0.1523604    0.1186364  87.96 0.0005480312    1.623    0.384
       109 -11.1442      9.1495    136.7646   1.2592279371e+02   4.5101080219e+01    0.1951777    0.1429794 -75.00 0.0002486021    1.133    0.117
       110 -10.2239     55.4683    136.4571   1.1464410267e+02   4.0687000581e+01     0.231599     0.130278  72.79  8.23016e-07    2.238    0.553
       111  -9.5682     53.3504    132.9079   1.1465031192e+02   4.1763708954e+01    0.2728872    0.1237523 -57.72  0.001276329    1.922    0.480
       112 -10.2674     21.0310    135.7931   1.2303086348e+02   4.4367152658e+01    0.2142898     0.139701 -77.96 0.0006530399    1.204    0.169
       113  -9.4324    137.8249    135.4021   9.3824611550e+01   2.7323851681e+01    0.2170376    0.1416871  33.87  0.000950399    1.721    0.419
       114  -9.3615    250.0169    134.2263   7.0978122876e+01   3.5813704859e+00    0.1730368    0.1128318  45.50 0.0008714976    1.638    0.390
       115 -10.0773    106.9717    133.2443   1.0095836813e+02   3.3737542850e+01    0.2463587    0.2090283 -58.53  0.001034579    1.138    0.121
       116 -11.8020     37.5925    130.4465   1.1830838036e+02   4.4053242944e+01    0.4172581    0.2423416 -70.11  0.001449546    1.415    0.293
       117 -11.1501     33.1789    125.8528   1.1882053593e+02   4.5544235100e+01     0.242146    0.1883752  67.33 0.0003154772    1.310    0.237
       118  -9.3749    124.0100    130.6842   9.6133860784e+01   3.1128194203e+01    0.2324082    0.1238529  22.39 0.0007026778    4.140    0.758
       119 -10.4002     73.9354    129.3852   1.0873854790e+02   3.9921268337e+01    0.2544676    0.1812635 -57.75 0.0006968379    1.291    0.225
       120  -9.1706    243.4216    128.4787   7.0726546857e+01   5.7712533931e+00    0.1411843    0.1256122 -16.77 0.0001021653    1.022    0.022
       121 -11.3433     10.5728    122.4303   1.2415871705e+02   4.8201931543e+01    0.3676387    0.2237658  72.55  0.002239995    1.652    0.395
       122  -9.2980      6.6091    126.1795   1.2552153516e+02   4.7640335447e+01    0.1588489   0.08183177 -68.64 0.0007197536    1.486    0.327
       123 -11.2725      2.3541    123.4342   1.2629261556e+02   4.8536962140e+01    0.5237828     0.124973 -68.02  0.002280606    2.765    0.638
       124  -9.5949     81.8527    125.1747   1.0585796202e+02   3.9747874912e+01    0.1861711    0.1579921 -40.17 0.0004593081    1.316    0.240
       125  -9.9541    226.0103    124.2263   7.2671652478e+01   1.0089153183e+01    0.1904551    0.1205316  48.61 0.0008746393    1.649    0.394
       126  -9.9059    219.9554    124.3326   7.3774152667e+01   1.1383929833e+01    0.2023832    0.1898576  18.66 0.0005591522    1.065    0.061
       127 -10.3537     20.4509    121.7044   1.2156725136e+02   4.7614075261e+01     0.182617     0.134011 -36.45    0.0011607    1.749    0.428
       128  -9.0744     64.6938    120.2621   1.0954869641e+02   4.3315725233e+01    0.1311678   0.09599267  76.45 0.0003071717    1.524    0.344
       129  -9.7377     32.8357    118.9146   1.1795128175e+02   4.7179910031e+01    0.1869765    0.1383424 -59.10 0.0004741756    1.234    0.190
       130 -11.7693     23.5373    106.9695   1.1877095772e+02   5.0742058495e+01    0.4710156    0.2585812  71.46  0.002392913    2.332    0.571
       131 -11.8495     17.0919    115.8331   1.2172085279e+02   4.9216457536e+01     0.454033    0.2119817 -58.01  0.002195933    1.777    0.437
       132 -12.5850     15.5262    109.3450   1.2131632828e+02   5.0810891194e+01    0.5136787    0.4077412  81.20 0.0009412293    1.237    0.192
       133  -9.6503    220.4414    116.9665   7.1885427612e+01   1.2531007692e+01    0.2252687    0.1390089 -34.82 0.0004768574    1.539    0.350
       134 -10.2980     51.1694    116.2510   1.1254561663e+02   4.5907942729e+01    0.3140357    0.1452153 -61.24 0.0007862183    1.799    0.444
       135  -9.6079    166.1945    115.6774   8.2439367541e+01   2.5258361619e+01     0.215982    0.1910997 -52.03 0.0004858467    1.159    0.137
       136  -9.2620    214.1764    115.5831   7.2669250211e+01   1.4173916931e+01    0.2046434    0.1373092  37.38 0.0005637163    1.591    0.371
       137 -10.2995     35.0610    114.3283   1.1667181701e+02   4.8033985984e+01    0.2215104    0.1527542 -71.25  0.000556703    1.183    0.155
       138 -12.1380     35.4088    108.3581   1.1563421550e+02   4.9386517917e+01    0.4414937    0.2630349  82.84  0.001585102    2.039    0.510
       139 -10.9828    249.0372    111.8521   6.5920605663e+01   7.2226337232e+00    0.2575851    0.1885501 -31.54 0.0006536281    1.228    0.186
       140  -8.9801    223.3569    111.7363   7.0076145249e+01   1.2766961498e+01    0.1446739    0.1169301 -75.79 0.0006983134    1.628    0.386
       141  -9.3852     94.2990    111.6472   9.9587959876e+01   4.0903182561e+01    0.1492155    0.1106406  88.92   0.00070365    1.695    0.410
       142 -10.1896     56.2162    109.3762   1.0987584041e+02   4.6928559747e+01    0.1890261     0.150065 -59.30 0.0009367192    1.103    0.094
       143  -9.0106    103.7120    107.6619   9.6035555050e+01   4.0165121142e+01    0.1483151    0.1145767 -21.37 0.0003103481    1.636    0.389
       144 -10.4882     62.8605    106.2209   1.0733096806e+02   4.6842171067e+01    0.2410514    0.1737417 -50.86  0.000545649    1.271    0.213
       145 -11.0429      6.1715    105.8361   1.2342695116e+02   5.2235704698e+01    0.3356167    0.1697284 -63.27  0.001933542    1.504    0.335
       146 -10.7118      2.5217    105.5328   1.2438150212e+02   5.2524686614e+01    0.2293226     0.135444 -60.00 0.0005461281    1.394    0.283
       147 -12.4185      2.7922    100.4563   1.2370854887e+02   5.3645565775e+01    0.2653283    0.1978263 -78.85 0.0003955607    1.060    0.057
       148 -11.0547      1.4785     96.0081   1.2353053515e+02   5.4713528346e+01    0.3349395      0.12003 -70.41 0.0003819795    2.011    0.503
       149 -10.2222    243.5002    104.5170   6.5003677339e+01   9.5333713899e+00    0.1442666     0.129969 -17.04 0.0001316139    1.045    0.043
       150  -9.8165    223.3212    103.9931   6.8135802033e+01   1.4076929413e+01    0.2137387    0.1781856 -30.50 0.0003960561    1.129    0.115
       151 -10.8018    247.6468    102.2760   6.3831743115e+01   9.0029936798e+00    0.2405709    0.1829524  71.81 0.0008484483    1.664    0.399
       152 -10.5230     36.4585    101.7203   1.1420867025e+02   5.0825628563e+01    0.3543873    0.1869567  45.34   0.00173808    2.222    0.550
       153  -9.5597    119.5050    101.5036   9.0152384489e+01   3.8503542648e+01    0.1522783     0.144789 -27.45 0.0001135686    1.079    0.073
       154  -9.7309    145.4054    100.2164   8.3164773871e+01   3.3191666811e+01    0.2295226    0.1450478 -51.44 0.0009538094    1.667    0.400
       155 -10.8516     92.6869     96.7691   9.6393888118e+01   4.4571009267e+01    0.5566454    0.1323999 -45.31  0.001555771    4.193    0.761
       156 -10.5382     94.5052     91.4850   9.4456665218e+01   4.5438386511e+01    0.2499528      0.18802   8.94  0.001203805    1.789    0.441
       157  -9.6852     72.6747    100.6796   1.0324011363e+02   4.6803535671e+01    0.1413102    0.1018281 -29.29 0.0007046605    1.680    0.405
       158 -10.9704     62.3024     98.4519   1.0583536899e+02   4.8718963201e+01    0.4195649    0.3126032 -35.00  0.002323152    1.473    0.321
       159 -10.8238     66.7265     97.8522   1.0436766146e+02   4.8277623368e+01    0.4865262    0.1569469 -52.45  0.001810894    2.597    0.615
       160  -9.6706     50.3222     99.6959   1.0970280396e+02   4.9866722728e+01    0.2113617    0.1277062 -35.10  0.001043986    2.014    0.503
       161 -11.6043     20.0482     97.0188   1.1827126059e+02   5.3289703598e+01    0.3696396    0.2044822 -76.98  0.002041047    1.593    0.372
       162  -9.8032     41.0564     96.9862   1.1196426041e+02   5.1473711792e+01    0.1996305    0.1308389 -39.90 0.0005085301    1.624    0.384
       163  -9.6600    249.5525     95.5233   6.1914239371e+01   9.6444940473e+00    0.1422746    0.1269605 -29.03 6.786794e-05    1.005    0.005
       164 -10.1181     31.4478     93.6753   1.1427210364e+02   5.3133515865e+01      0.37264    0.1584531 -76.05  0.001558619    2.710    0.631
       165 -11.3625     25.5246     91.6579   1.1572897921e+02   5.4089542617e+01    0.2510686    0.2153017 -33.66 0.0001791214    1.331    0.249
       166  -9.8797    162.5899     92.1987   7.6861846212e+01   3.0764303452e+01    0.2191676    0.1513828 -24.91 0.0004496209    1.623    0.384
       167 -10.8949    103.9801     91.5804   9.1733432854e+01   4.3704090938e+01    0.3682867    0.2000394 -47.22 0.0003160233    1.729    0.422
       168 -10.1733     47.8789     91.2131   1.0868468971e+02   5.2092061052e+01     0.268737    0.1317333 -42.17  0.001234376    2.110    0.526
       169 -11.3904     10.2545     90.8674   1.2025254905e+02   5.5352156644e+01    0.2500139    0.2246722  38.64 0.0009296518    1.419    0.296
       170 -10.8028    158.0226     90.2189   7.7330956190e+01   3.2247564452e+01    0.2956464    0.2299641 -37.04  0.001385425    1.272    0.214
       171 -10.8285     22.8854     87.0099   1.1572306315e+02   5.5350526385e+01     0.260729    0.1687219 -65.04  0.000394608    1.214    0.176
       172  -9.3806    139.1919     87.6178   8.1093900016e+01   3.7180475878e+01    0.2070329    0.1465881  38.69 0.0009205648    1.493    0.330
       173 -10.4347    112.4626     86.2779   8.7807628640e+01   4.3202589081e+01    0.3053998     0.249249 -65.51  0.001238468    1.372    0.271
       174 -12.5992     17.7667     66.3172   1.1333695219e+02   6.0312628480e+01    0.7613096    0.3940987 -50.01  0.001253501    1.508    0.337
       175 -10.9278      4.4629     86.5169   1.2136734642e+02   5.6665942528e+01    0.4889067    0.1684428 -65.34  0.002409065    2.012    0.503
       176 -10.6791     14.9510     83.3164   1.1758635534e+02   5.6745811060e+01    0.5323733    0.1495818 -50.13  0.002275473    2.809    0.644
       177 -12.3826     13.4984     77.3229   1.1699686422e+02   5.8175795064e+01    0.4787803    0.2507573 -42.84  0.001653937    1.811    0.448
       178 -10.9139     21.0956     81.2138   1.1522669398e+02   5.6789124745e+01     0.316202    0.2044486 -13.95  0.001842384    2.123    0.529
       179 -12.0247     21.2842     76.9010   1.1432747879e+02   5.7738126167e+01    0.3079572    0.2476128 -70.13 0.0002507858    1.125    0.111
       180 -11.4689      3.8746     77.4735   1.2016917766e+02   5.8700697712e+01    0.5827784    0.2141744 -71.39  0.002030708    2.168    0.539
       181 -10.8778      7.9565     73.7020   1.1818821570e+02   5.9307755896e+01    0.2487566    0.2349415  -7.48 0.0009620559    1.354    0.262
       182 -10.8840     67.2863     84.7793   1.0101009438e+02   5.1176483321e+01    0.3144307    0.2003475 -32.73  0.001474615    1.765    0.433
       183 -10.4920    167.0855     84.1158   7.3521087114e+01   3.1202381789e+01    0.4331942    0.2656002  74.94   0.00160263    2.469    0.595
       184 -10.9285     40.0642     80.8080   1.0890175300e+02   5.5260785446e+01    0.5926826    0.3922526  51.12  0.002186091    1.921    0.479
       185 -10.1354     87.9653     83.3665   9.4156459285e+01   4.8341054314e+01    0.2296896    0.1806348 -56.51  0.000302272    1.246    0.197
       186  -9.5027     56.2088     83.7895   1.0431747384e+02   5.2825071106e+01     0.168937    0.1364213 -33.92 0.0003004734    1.261    0.207
       187  -8.9564    188.2891     83.6652   6.9036111332e+01   2.6007984408e+01    0.1610766    0.1200509 -65.81 0.0002238278    1.632    0.387
       188 -10.2225     46.3423     83.6816   1.0749726845e+02   5.3971007967e+01    0.3082832    0.1848905 -72.37  0.001555398    1.794    0.443
       189 -10.3299    117.9484     82.8588   8.5261951923e+01   4.2797556117e+01    0.2830315     0.211248 -38.52  0.001292164    1.295    0.228
       190  -9.8696     29.9340     81.8034   1.1245414092e+02   5.5960523496e+01    0.1905333     0.143346 -45.28  0.001204716    1.229    0.186
       191 -10.4357     71.2302     79.4302   9.8310398826e+01   5.1808897839e+01    0.1767172    0.1308798  50.20 0.0005774769    1.608    0.378
       192 -10.7562     92.4039     77.4604   9.1062616858e+01   4.8845776562e+01    0.2774354    0.2376036   2.73 0.0009388731    1.311    0.237
       193 -11.6120     58.2853     74.5769   1.0124230706e+02   5.4613661735e+01    0.4841965    0.3283541  86.04 0.0009572578    2.518    0.603
       194 -11.3706     62.0685     72.1098   9.9276603720e+01   5.4662956821e+01    0.4753037    0.2397606 -39.31  0.001657816    1.941    0.485
       195  -9.7177    150.7752     77.2187   7.5133275337e+01   3.6478788503e+01    0.2135477    0.1832082  12.06  0.000444182    1.306    0.234
       196  -9.6538    121.9646     76.4503   8.2186971771e+01   4.3244970861e+01    0.2285419    0.1510413  49.10  0.001020251    1.582    0.368
       197 -12.3977     44.7071     75.2720   1.0602716355e+02   5.6023701808e+01    0.2378752    0.2315933  84.59 0.0003600577    1.214    0.176
       198 -11.0937     37.8360     70.3715   1.0717816293e+02   5.7790205596e+01    0.5383029    0.3639288  83.12   0.00265439    2.274    0.560
       199 -11.2704     30.2515     66.5128   1.0891202599e+02   5.9315268544e+01     0.497765    0.2525006 -36.35   0.00252706    2.043    0.510
       200 -10.0127    145.4466     74.1585   7.5448824412e+01   3.8331072096e+01    0.3033675    0.1538474 -32.12  0.001134698    2.080    0.519
       201 -10.4797    138.9835     74.9408   7.7277079956e+01   3.9711292104e+01    0.2546456    0.2202692 -34.08 0.0003690502    1.136    0.120
       202  -9.3180     33.1923     75.6432   1.1003745007e+02   5.7056002066e+01    0.1473391    0.1153568  -6.88 0.0004014003    1.572    0.364
       203 -10.8918    102.5333     73.0069   8.6622868882e+01   4.7903499076e+01    0.2805113    0.2386845  29.33 0.0005990185    1.246    0.197
       204 -10.7945    102.7582     68.0209   8.4945974860e+01   4.8857453261e+01    0.2827934    0.2483279  62.15 0.0009188938    1.332    0.249
       205 -10.7846     99.7526     65.0534   8.4866498191e+01   5.0018879353e+01    0.2996629    0.1905629 -31.46  0.001107197    1.585    0.369
       206  -9.2974    150.6375     72.2839   7.3632509151e+01   3.7423991343e+01    0.1593401    0.1242209 -80.52  0.000701889    1.683    0.406
       207 -10.3312    128.9009     71.7162   7.8828715517e+01   4.2637828799e+01    0.2633634    0.2104565 -45.56 0.0002407106    1.258    0.205
       208 -10.6597     81.4738     66.9291   9.1238929103e+01   5.2890276438e+01    0.2082794    0.1744294 -37.37 0.0005572858    1.074    0.069
       209 -10.4900     77.2175     63.7305   9.1608720334e+01   5.4224637854e+01    0.6531227    0.2856057 -36.26  0.002577574    2.409    0.585
       210 -10.6990     77.9527     71.9634   9.3958083076e+01   5.2407689488e+01    0.3426715    0.2135808  39.04 0.0007297031    1.777    0.437
       211 -10.5337     75.3196     69.3256   9.4013198111e+01   5.3368557620e+01    0.4046977    0.2017345 -32.85  0.001650875    2.365    0.577
       212  -9.9984    116.4115     71.2622   8.2062318871e+01   4.5451198220e+01     0.275878    0.1791756  35.53 0.0007356243    1.679    0.404
       213 -12.2426     94.2536     68.4384   8.7666163656e+01   5.0375657087e+01    0.3986117    0.2498339 -38.42 0.0003175161    1.499    0.333
       214 -10.4576     68.7665     67.8012   9.5735955984e+01   5.4658720017e+01    0.4263054    0.1544824 -46.95  0.001284483    2.390    0.582
       215 -10.8420     50.8529     67.8472   1.0193516944e+02   5.6965399287e+01    0.4181436    0.2114234 -34.63  0.001559477    2.192    0.544
       216 -10.9865     51.1565     63.1490   1.0047476338e+02   5.7928319173e+01    0.6373839    0.2440615 -38.18  0.002486283    2.870    0.652
       217  -9.4483    160.7507     69.6645   7.0533642123e+01   3.5395139391e+01    0.1550583    0.1218062   6.61 0.0002332531    1.559    0.359
       218 -10.0255    145.3937     69.2496   7.3907487398e+01   3.9245888714e+01    0.2534543     0.184588  10.85  0.001092575    1.823    0.451
       219 -10.0267    123.0374     68.4554   7.9328444493e+01   4.4562462264e+01    0.2396447    0.1891184 -36.67 0.0006566098    1.229    0.186
       220 -10.3955      6.6571     67.7360   1.1754066770e+02   6.0682829248e+01    0.1798636    0.1511676 -51.80 0.0006634443    1.150    0.131
       221 -12.2074      3.8848     64.7537   1.1794961536e+02   6.1473464397e+01     0.288352    0.2352739 -68.64 0.0005618174    1.131    0.116
       222  -9.9943     83.9875     72.3347   9.2127982281e+01   5.1359560528e+01    0.1831143    0.1744616  -2.09 0.0002884228    1.101    0.092
       223 -11.6138     62.7089     60.4226   9.5519427153e+01   5.7031395777e+01    0.6829405    0.3907019  15.47  0.003107606    2.530    0.605
       224 -10.8232     57.7275     59.0083   9.6842536991e+01   5.7979718301e+01    0.3072451    0.2089258  26.91  0.001699119    1.679    0.404
       225  -9.7942    215.9333     64.3298   5.8855966662e+01   2.2281407245e+01    0.2108728    0.1851874  73.34 0.0009950994    1.185    0.156
       226  -9.5477     41.4560     64.2521   1.0428455993e+02   5.8755612374e+01    0.1617384     0.109527 -63.25 0.0004077264    1.440    0.306
       227 -10.9383     84.6824     61.8155   8.8514991243e+01   5.3381471477e+01    0.4261154    0.2900898  38.95  0.002169555    1.590    0.371
       228 -10.5620     86.8206     57.2108   8.6242412395e+01   5.3903653083e+01     0.385806    0.2565415 -26.30  0.001235736    1.553    0.356
       229 -11.5878     87.0844     52.3009   8.4411057065e+01   5.4774491463e+01     0.411744     0.321712  66.13 0.0003696556    1.807    0.446
       230 -10.4419     11.0245     62.7036   1.1498450426e+02   6.1522594659e+01    0.1878211    0.1316105 -61.52 0.0003676511    1.109    0.099
       231 -10.4166    201.0966     61.9681   6.0539394231e+01   2.6376231874e+01     0.219992    0.2146321 -44.21 0.0003100237    1.023    0.022
       232  -9.5161    140.6595     61.9028   7.2653576606e+01   4.1690916589e+01    0.2184249    0.1343328 -44.72 0.0003859575    1.686    0.407
       233 -10.8792     45.5644     49.7617   9.8368205036e+01   6.1305980857e+01    0.3817892    0.1945455 -42.23  0.001186501    1.637    0.389
       234 -11.5526     29.6767     60.8047   1.0767566110e+02   6.0589987598e+01    0.5923125     0.265009  11.26  0.002645006    3.508    0.715
       235 -12.2328    226.5571    245.8327   9.6260834689e+01  -7.1686451242e+00    0.5529149    0.3338263   9.15  0.003371973    1.853    0.460
       236 -10.7739      5.7597     58.2508   1.1597439642e+02   6.2768540278e+01    0.2932878    0.1449681 -65.68  0.001666864    1.584    0.369
       237  -9.9491     47.7000     58.3651   1.0029636956e+02   5.9323143760e+01    0.2275036    0.1575985 -58.24  0.001288417    1.412    0.292
       238 -10.2429    147.0133     57.0175   6.9537085808e+01   4.0974890499e+01    0.2256847    0.2195686 -46.31            0    1.064    0.060
       239 -10.5193    123.0434     56.3730   7.5240994775e+01   4.6756051634e+01    0.2680422    0.2086309 -41.16 0.0004012647    1.295    0.228
       240 -11.0622    101.1446     56.1357   8.1374922541e+01   5.1431997688e+01    0.5576571    0.2501941  53.21  0.002093209    2.787    0.641
       241 -10.1168    129.8009     55.9210   7.3324850155e+01   4.5288458037e+01    0.2289177    0.1991868  -1.28 0.0004891884    1.196    0.164
       242 -12.6960    128.4905     50.3923   7.1726788017e+01   4.6515447224e+01     0.431253    0.3335513   4.25 0.0005170791    1.490    0.329
       243 -10.5832     75.1265     55.9832   8.9714405738e+01   5.6089623979e+01    0.2015731    0.1766076 -29.36 0.0003301134    1.016    0.016
       244 -10.1110     61.9524     54.0762   9.3696293962e+01   5.8407083738e+01    0.2397543    0.1883376 -54.79  0.001075731    1.350    0.259
       245 -11.0671     12.7672     51.6282   1.1177850657e+02   6.3761506626e+01    0.2437575    0.2140077 -65.25 0.0008932512    1.221    0.181
       246 -11.0830     69.9521     50.3350   8.9524517961e+01   5.7971003768e+01    0.3804081    0.3231923  83.05  0.001825925    1.773    0.436
       247 -10.7423    103.6385     48.3370   7.7802599534e+01   5.2306562238e+01    0.5663815    0.2670653 -35.14  0.002324133    2.045    0.511
       248 -11.0993     82.0273     46.9782   8.4121818012e+01   5.6624113363e+01    0.2370288    0.1796137  35.11 0.0004157592    1.392    0.282
       249  -9.9610     77.4458     50.4967   8.6974289071e+01   5.6756634518e+01    0.2671918    0.1939116   0.39  0.001220299    1.627    0.385
       250 -10.0217     78.4887     47.4717   8.5504588695e+01   5.7137232175e+01     0.212153    0.1236579 -37.84 4.910746e-05    1.562    0.360
       251  -9.5721    220.6291     48.8115   5.3969019851e+01   2.3401009257e+01    0.1998253     0.122843 -42.08 0.0002359791    1.526    0.345
       252  -9.0461    166.6798     49.2626   6.2838517284e+01   3.7219050867e+01    0.1515069    0.1175576 -74.06 0.0003068262    1.551    0.355
       253 -11.6562    152.0457     47.9819   6.5399376920e+01   4.1156365723e+01    0.6858005    0.3497744  47.56  0.001987871    1.925    0.481
       254  -9.6140     94.1271     49.5015   8.1134533706e+01   5.3980489805e+01    0.1898604    0.1391539  41.84 -0.0004406135    1.432    0.302
       255 -10.4920     43.9272     57.0307   1.0129183751e+02   6.0014309624e+01    0.1968429    0.1770771  -9.69 0.0003376238    1.197    0.164
       256  -9.4017    114.6973     48.4268   7.4670962596e+01   4.9954187582e+01    0.2836053    0.1456436  55.37  0.001144758    2.182    0.542
       257  -9.7700    120.2633     47.1437   7.2695906373e+01   4.8928573663e+01    0.2050052    0.1808374 -25.09 0.0007653784    1.110    0.099
       258  -9.5218     61.5683     46.3289   9.1109275909e+01   5.9948114054e+01    0.2699599    0.1885794 -73.76   0.00127446    2.663    0.624
       259 -10.3059      4.5474     46.8418   1.1386436496e+02   6.5216129738e+01    0.2937978    0.1260725 -39.16  0.001592729    2.048    0.512
       260 -10.0421      7.0012     41.3313   1.1144462735e+02   6.6205674312e+01    0.2834514    0.1067586 -53.92 0.0009438204    1.827    0.453
       261 -10.2740    142.6632     45.7040   6.6684592836e+01   4.3846783243e+01     0.298224     0.238472 -65.39 0.0007095183    1.519    0.341
       262  -8.9353     54.3233     46.2499   9.3801200069e+01   6.0935230457e+01    0.1270173   0.08919837 -14.73 0.0002532931    1.537    0.349
       263  -8.9542     18.2917     46.2975   1.0814950184e+02   6.4491362686e+01    0.1223372   0.06888907 -36.95 0.0002427838    1.560    0.359
       264 -10.9620     11.6523     44.1809   1.1028190068e+02   6.5359223833e+01    0.3517869    0.1878665 -43.48  0.001300674    1.464    0.317
       265  -9.1717    233.4248     45.5285   5.1476004564e+01   2.0729266783e+01    0.1390239    0.1302726 -49.96 0.0001012444    1.051    0.048
       266  -9.6233     51.1923     44.8706   9.4509396895e+01   6.1591724975e+01    0.1830969    0.1409779 -35.24 0.0003657052    1.083    0.077
       267 -10.9450     52.0831     40.8119   9.2678000334e+01   6.2239046211e+01    0.3324555    0.2593687  44.35 0.0007294744    1.661    0.398
       268 -10.1422    121.5127     41.4785   7.0287611041e+01   4.9532143988e+01    0.1458464    0.1380887   8.37  5.65043e-05    1.017    0.016
       269  -9.8317    110.5450     41.8271   7.3371379269e+01   5.1919087506e+01    0.2111671    0.1977339 -88.02 0.0004184751    1.313    0.238
       270 -11.0294     97.1259     40.9083   7.6947126611e+01   5.4847328539e+01     0.331441    0.2856996  25.58 0.0008333605    1.141    0.124
       271 -10.5674     96.4825     36.9501   7.5590318731e+01   5.5600608168e+01    0.2684695    0.2340261 -55.97 0.0009742898    1.429    0.300
       272 -11.3039     97.9480     31.7940   7.3077548961e+01   5.6078920010e+01    0.3766864    0.2395008  27.07 0.0003809025    1.711    0.415
       273 -11.1227    101.0861     28.7760   7.0926705843e+01   5.5858953516e+01    0.2491904    0.2378139 -33.71 0.0004824829    1.211    0.174
       274 -11.2813     89.2814     39.4718   7.8844801945e+01   5.6594592002e+01    0.4935698    0.2860048 -29.81   0.00234813    1.657    0.396
       275 -10.5995     34.2277     34.2092   9.7502805446e+01   6.5485598900e+01    0.4707178    0.1600067  36.68  0.002047443    3.614    0.723
       276 -10.4087     23.5034     41.0293   1.0440879045e+02   6.5151584413e+01      0.23053    0.1972273 -85.54 0.0009286713    1.610    0.379
       277 -11.4953     20.0910     37.9403   1.0486799773e+02   6.6021672969e+01    0.3199933     0.188013 -40.46  0.001093288    1.338    0.253
       278 -11.8868     27.7369     38.0177   1.0162747763e+02   6.5380688350e+01    0.3574605    0.2380065 -53.93  0.001598143    1.384    0.277
       279 -12.4682     24.0501     35.2221   1.0225121597e+02   6.6229879848e+01    0.3370577    0.2272669  -1.50 0.0003365348    1.679    0.404
       280  -9.7875    215.7061     40.6921   5.2413381959e+01   2.5752373171e+01    0.1979888    0.1523634 -60.14 0.0007823769    1.301    0.231
       281 -10.3041    184.1291     41.0994   5.7157057415e+01   3.3846712188e+01    0.2123165    0.1696284 -58.57 0.0005175264    1.319    0.242
       282 -10.2118     66.8212     41.0556   8.7192402018e+01   6.0141781374e+01    0.2944754    0.1796232  -9.10  0.001360932    2.253    0.556
       283 -10.3177     69.9148     37.0937   8.4506520742e+01   6.0346810663e+01    0.2531874    0.1527372 -16.06 0.0008986086    1.965    0.491
       284 -11.2156      5.3260     51.8960   1.1474576186e+02   6.4129392584e+01    0.3396901    0.1984862 -46.86  0.001909093    1.336    0.251
       285 -10.0966     44.0000     38.9915   9.5216933666e+01   6.3551673141e+01    0.4688859     0.327373 -86.36  0.002012827    3.628    0.724
       286  -9.7735    226.2153     40.2219   5.0962452798e+01   2.3199071649e+01    0.1970481    0.1519446 -62.53 0.0004696812    1.282    0.220
       287 -10.6074     78.6437     31.2361   7.9027151473e+01   5.9832664041e+01     0.632343    0.3326972 -14.46  0.002595941    2.688    0.628
       288 -12.1021    232.7776    245.7244   9.5212751268e+01  -8.0823484151e+00    0.5891426    0.3256409 -21.59  0.003635739    2.085    0.520
       289 -11.0417     82.4189     39.4918   8.1106417250e+01   5.7843952489e+01     0.327458    0.2062048  32.48  0.001233538    1.669    0.401
       290 -11.5898     81.0907     36.1093   8.0200540391e+01   5.8632620285e+01    0.5282435    0.3659855  21.32  0.001589124    1.552    0.356
       291  -9.5171    199.6357     37.9917   5.3853792160e+01   3.0225087423e+01    0.1982213    0.1859959 -46.41 0.0006395376    1.064    0.060
       292  -9.7830     61.8620     37.8435   8.7778335804e+01   6.1441036485e+01     0.189113    0.1492321 -18.74 0.0002913122    1.126    0.112
       293 -10.3248    167.0953     36.5482   5.8644594587e+01   3.8923018506e+01     0.453936    0.1635207  57.13  0.001588522    2.516    0.603
       294 -10.4757    101.6672     36.9279   7.4027545296e+01   5.4551795016e+01    0.2705371    0.2096816  26.72 0.0005789764    1.285    0.222
       295 -10.5989    105.1236     34.1404   7.1926102909e+01   5.4244229499e+01    0.2693269    0.2651536 -79.19 0.0002632104    1.228    0.186
       296  -9.3633    127.4659     36.4455   6.6926471791e+01   4.8885718499e+01    0.2045142    0.1341039 -38.38 9.865513e-05    1.577    0.366
       297  -9.6961    125.7063     33.0106   6.6070506300e+01   4.9780510838e+01    0.1969307    0.1800244 -10.94 0.0003378494    1.084    0.078
       298  -9.2547    155.6334     35.6665   6.0501035816e+01   4.2009607109e+01    0.1644713    0.1073289  28.95  0.000703319    1.826    0.452
       299 -10.4771    150.9709     34.6715   6.1084562004e+01   4.3335757405e+01    0.2121521    0.1849385  52.46 0.0005155758    1.103    0.093
       300 -10.0579     56.1706     30.9318   8.7168951213e+01   6.3430319366e+01    0.2666484    0.1469399 -29.31  0.001243483    1.683    0.406
       301  -9.7253     57.3339     35.2838   8.8491091972e+01   6.2528594636e+01    0.1770926    0.1000588 -39.94 0.0009113392    1.558    0.358
       302  -9.6900     60.2598     33.4338   8.6615084736e+01   6.2429506960e+01    0.1730226    0.1245578  29.98 0.0002786914    1.482    0.325
       303 -10.7527      9.8841     25.1732   1.0516205089e+02   6.9158733847e+01    0.2769389     0.210023 -25.53  0.001066886    1.179    0.152
       304  -9.4953    115.5132    244.5140   1.1528358660e+02   1.0462678810e+01    0.1155113   0.08881872  54.43  0.000161512    1.025    0.025
       305 -10.8264     10.1107     15.5242   1.0139225176e+02   7.0871006693e+01    0.2097307    0.1352997 -27.56 0.0006212962    1.263    0.208
       306 -11.0447     10.2066     34.7491   1.0816648339e+02   6.7321128905e+01    0.3630962    0.2194346   6.43  0.002009077    1.995    0.499
       307 -10.7487      7.3326     30.2924   1.0806158550e+02   6.8353126125e+01    0.3199638    0.1665948 -40.95  0.001127638    1.464    0.317
       308 -10.1593    129.7927     32.5761   6.4933946443e+01   4.8867395857e+01    0.2368126    0.1909447  -7.75 0.0005803516    1.290    0.225
       309 -11.2106    177.1582     29.7735   5.4768812713e+01   3.7165350596e+01    0.4780771    0.2403758 -35.11  0.001993752    1.965    0.491
       310 -10.3449     48.9985     31.4902   9.0268791607e+01   6.4291322119e+01    0.2469106    0.1861342  27.18  0.001069861    1.462    0.316
       311 -10.1581     50.5927     28.1672   8.8240720211e+01   6.4646637888e+01    0.2390995    0.1749354 -18.81 0.0003335451    1.203    0.169
       312 -10.9092     42.6320     31.8483   9.3040279004e+01   6.5002258453e+01    0.1921686    0.1648575   3.94 0.0004902368    1.219    0.180
       313 -10.8063     17.3907     31.0116   1.0374041888e+02   6.7549742602e+01    0.4440807     0.259446  48.70  0.002396313    3.052    0.672
       314  -9.4965     16.5007     26.5622   1.0256348022e+02   6.8442301170e+01    0.1176762   0.08709554 -35.24  8.14583e-05    1.025    0.025
       315 -10.3868    207.5303     30.0364   5.0516594107e+01   2.9217415250e+01    0.2125857    0.1871769  81.17 0.0003126956    1.099    0.090
       316 -10.0327    139.7900     29.6752   6.1634229828e+01   4.6805904160e+01    0.3269189    0.1741768  -6.62  0.001222092    2.751    0.636
       317 -10.2078    153.5615     28.8842   5.8582679319e+01   4.3422569608e+01    0.2326465    0.2016753 -78.37 0.0006960539    1.291    0.225
       318  -9.5993    109.4781     28.8917   6.8628430578e+01   5.4042341003e+01    0.1997785    0.1339899 -27.06 0.0003386284    1.473    0.321
       319 -11.1666    214.4310     27.2616   4.8900930824e+01   2.7803544548e+01    0.3023968    0.2258901 -66.91   0.00034671    1.350    0.259
       320  -9.2082    120.0743     27.9823   6.5528755078e+01   5.1769432466e+01    0.1628219    0.1495971  25.42 0.0009257678    1.018    0.017
       321 -10.1991     24.8933     26.9841   9.8868697807e+01   6.7680929590e+01    0.2007033    0.1349889 -41.16 0.0005733057    1.180    0.152
       322  -9.8240     21.3667     28.2584   1.0095374980e+02   6.7750475476e+01    0.2256199   0.09594812 -56.23  0.001041581    2.362    0.577
       323 -10.0906    109.6171    243.0724   1.1616039477e+02   1.1573496612e+01    0.2506059    0.1547896  72.57  0.001021673    1.755    0.430
       324  -9.3737     63.1672    243.8158   1.2404885353e+02   1.7913873766e+01     0.129409    0.1114511  64.48 0.0004258225    1.333    0.250
       325 -11.1894     70.2994     25.7088   7.9596076490e+01   6.2097109406e+01    0.3742294    0.2639635  36.97  0.001481317    1.475    0.322
       326 -11.1638     37.3489    242.6922   1.2810758645e+02   2.1223108576e+01    0.2393949    0.1209744  62.53  0.001622295    1.474    0.322
       327 -10.8519     65.0876     20.7192   7.9285977726e+01   6.3678401168e+01    0.2380927    0.2073955 -36.47  0.000893882    1.365    0.267
       328 -10.6245    237.4606     25.4267   4.5919759306e+01   2.2359984774e+01    0.2332958    0.2054306 -68.56 0.0005891147    1.026    0.026
       329 -11.1782    197.3124     24.9428   5.0386435679e+01   3.2479143897e+01    0.2651913    0.2407621 -42.02 0.0003885521    1.119    0.106
       330 -11.3527     35.5138    239.5044   1.2821790555e+02   2.1969974218e+01    0.3175445    0.1799894 -54.78  0.002025024    2.805    0.643
       331 -10.2098    134.9164     22.7045   6.0115698688e+01   4.8870470023e+01    0.2765413     0.177457  44.22 0.0008309043    1.476    0.323
       332  -9.4319      1.3295     25.2998   1.0925354444e+02   6.9629267185e+01    0.2419776   0.06860743 -55.08 0.0008156187    2.377    0.579
       333  -9.7859    112.0120     24.9966   6.6396076684e+01   5.3992194546e+01    0.2124217    0.1892044   8.52 0.0004525267    1.048    0.046
       334 -10.0685    107.6812     24.3258   6.7270334120e+01   5.5037959592e+01    0.3623304    0.1762865 -46.80  0.001227278    2.806    0.644
       335  -9.3350    188.7361     24.3670   5.1378801369e+01   3.4785078266e+01    0.1528647    0.1009061 -57.76 0.0006985396    1.650    0.394
       336 -10.1473     96.9839     23.9594   7.0122195674e+01   5.7361706706e+01    0.3138995    0.1717119  48.71 0.0006886513    1.801    0.445
       337 -10.0996     54.2798     23.8358   8.4875368061e+01   6.4841830419e+01    0.2202745    0.1658482  14.11 0.0006616985    1.315    0.240
       338 -10.4558    120.2687     21.4512   6.2929338774e+01   5.2538057019e+01    0.2593102    0.2018714   3.01 0.0004328757    1.334    0.250
       339  -9.6271     28.7205     21.5314   9.4911709747e+01   6.8276004486e+01    0.3187701    0.1330192 -25.15  0.001326782    3.312    0.698
       340 -10.2493    235.5746     21.1205   4.5029086423e+01   2.3327362317e+01     0.225847     0.168466 -80.91 0.0005657884    1.311    0.237
       341  -9.5742    146.1051     26.1153   5.9061420582e+01   4.5666059375e+01    0.1884246     0.167785 -73.13            0    1.265    0.210
       342 -10.2725     45.5509     20.5550   8.7014586165e+01   6.6528760803e+01    0.2404841    0.1524449  38.30  0.001401547    1.868    0.465
       343 -10.8718    161.5822     20.1215   5.4177491700e+01   4.2387149255e+01    0.3338367    0.1863038  57.37 0.0002743235    1.634    0.388
       344  -9.5030    113.4697     19.9337   6.3983379314e+01   5.4285641351e+01    0.2076995    0.1328126 -25.18  0.001022688    1.575    0.365
       345 -10.0949    226.9621     19.0435   4.5352516398e+01   2.5659224575e+01    0.2087213    0.1817547 -78.67 0.0005388887    1.056    0.053
       346 -10.2746    170.6018     18.9890   5.2361982828e+01   4.0158358506e+01     0.220191    0.1793641  68.69 0.0001072159    1.163    0.140
       347 -10.9216    156.2157    240.7388   1.0771698855e+02   4.6178036239e+00    0.2044468    0.1530909  86.45  0.001295647    1.884    0.469
       348  -9.9604    217.7855     16.4200   4.5609073340e+01   2.8234410828e+01    0.2835716    0.1272825  68.62 0.0009958718    2.114    0.527
       349  -9.6701    108.3402     17.5969   6.4329776853e+01   5.5712240203e+01    0.1928646    0.1167612  43.92 0.0007931399    1.530    0.346
       350  -9.8214     88.8431    240.9753   1.1953778112e+02   1.4931147515e+01    0.1505643    0.1249763 -39.04  0.001062046    2.008    0.502
       351  -9.6828     46.9982    241.4719   1.2650817480e+02   2.0303270659e+01    0.1454397   0.08231462  47.51 6.544434e-05    1.486    0.327
       352 -10.3792    195.6063    238.4251   1.0045798790e+02  -1.4822698223e+00    0.2487918    0.1698117  25.24  0.001553164    1.342    0.255
       353 -10.5510    181.0278    248.4743   1.0436971001e+02  -4.0293554907e-01    0.2407501    0.1222191 -26.57  0.001206599    3.349    0.701
       354  -9.8938    174.3277    238.2972   1.0418820054e+02   2.0017813493e+00    0.1180904   0.08148093  20.77 0.0002464365    1.633    0.388
       355  -9.7283     50.2653     15.4224   8.2654179941e+01   6.6668034360e+01    0.2226876    0.1103942  32.28  0.001143034    2.116    0.528
       356  -9.8755     24.0450    232.4461   1.2964929137e+02   2.4443040222e+01    0.1752172    0.1089896  64.90 0.0007929703    1.145    0.127
       357 -10.6865     29.3534    232.9965   1.2883531058e+02   2.3775168483e+01     0.273781    0.1403384  66.75  0.001682378    1.492    0.330
       358 -10.3419    159.9277    235.8636   1.0643448193e+02   4.7072018100e+00    0.1846127    0.1425824  29.85 0.0006607377    1.275    0.216
       359 -10.4145     26.5458     13.8873   9.2560811281e+01   6.9748627178e+01    0.1878962    0.1281111 -11.25 0.0003743421    1.350    0.259
       360 -12.0325     74.4137    238.5582   1.2178846857e+02   1.7319917572e+01    0.4274031    0.3146877  89.61  0.003161682    1.302    0.232
       361 -10.2484    169.1213     13.4207   5.0789818120e+01   4.1143161916e+01    0.2706339    0.1221408  62.06 0.0007538698    1.969    0.492
       362 -10.0045    177.5347    234.9812   1.0316310865e+02   1.9237858900e+00    0.2286623    0.1419231  30.65 0.0008850882    1.504    0.335
       363 -11.1026    153.5378    233.9690   1.0734002014e+02   6.0353822783e+00    0.2273601    0.1979173 -25.88  0.001005965    1.498    0.332
       364  -9.4148    143.3032    245.3345   1.1053860967e+02   6.0304169329e+00     0.108538   0.08395983  19.36  0.000256632    1.662    0.398
       365 -10.0858    167.0369    233.7275   1.0487341202e+02   3.8372777072e+00    0.1740696    0.1328061  41.53 0.0007581653    1.046    0.044
       366 -10.0172     85.9519    232.9513   1.1933090911e+02   1.6682591865e+01    0.1867516    0.1064383  66.78 0.0006362703    1.629    0.386
       367  -9.5741     12.8694    231.1940   1.3133826226e+02   2.5812258212e+01    0.1254186   0.09847685  84.79  0.001063138    1.305    0.234
       368  -8.9944    151.4351     18.5409   5.5391445706e+01   4.5185141844e+01    0.1444094     0.131489  42.12 7.922522e-05    1.052    0.049
       369 -10.1383    190.5129    227.2754   9.9720249863e+01   8.0590876458e-01    0.3250932    0.1223287 -40.84  0.001483254    3.223    0.690
       370  -9.9410    129.7445    226.7196   1.1078168242e+02   1.1062040215e+01    0.2676201    0.1146105  56.78  0.001180742    2.619    0.618
       371 -10.8934    120.1970    226.6537   1.1253194997e+02   1.2604758563e+01     0.192394    0.1214395  56.04 0.0005967111    1.357    0.263
       372  -9.8908     79.9089    231.4907   1.2025871807e+02   1.7777798308e+01    0.1679856   0.09025634  46.91 0.0004834069    1.524    0.344
       373 -10.4020     66.7170    226.6905   1.2216062862e+02   2.0399691893e+01    0.2791875    0.1413474  54.96  0.001052057    1.574    0.365
       374 -10.6392      4.9967    225.6266   1.3231285849e+02   2.7554011812e+01    0.2940498    0.1712757  82.95  0.002233156    1.263    0.208
       375  -9.9536     25.7414    225.4087   1.2899994517e+02   2.5505859652e+01      0.18957    0.1442748 -47.17  0.001370141    2.350    0.574
       376  -9.8959    181.0000    224.9330   1.0109394451e+02   2.7371471629e+00    0.1732233   0.07177777 -42.98 0.0008014024    2.935    0.659
       377  -9.1118    156.3159    224.3374   1.0555406590e+02   7.0247786290e+00    0.1204081   0.09112582  14.73 0.0007047943    1.698    0.411
       378 -10.4799    123.4500    222.2171   1.1140795419e+02   1.2829252193e+01    0.2450397    0.1754867 -44.82 0.0009543051    1.841    0.457
       379 -10.2940     13.4485    221.9172   1.3080670225e+02   2.7397042170e+01    0.1527797      0.10594  65.06 0.0009139163    1.131    0.116
       380 -10.0762    141.8471    220.8764   1.0778991115e+02   1.0017263232e+01    0.1893871    0.1532537  35.01 0.0007714271    1.238    0.192
       381  -9.4853    250.5010    219.4334   8.8020089424e+01  -7.9036654271e+00    0.1200822   0.09045473  15.07 8.880814e-05    1.026    0.025
