#   1 NUMBER                 Running object number                                     
#   2 MAG_AUTO               Kron-like elliptical aperture magnitude                    [mag]
#   3 X_IMAGE                Object position along x                                    [pixel]
#   4 Y_IMAGE                Object position along y                                    [pixel]
#   5 X_WORLD                Barycenter position along world x axis                     [deg]
#   6 Y_WORLD                Barycenter position along world y axis                     [deg]
#   7 A_WORLD                Profile RMS along major axis (world units)                 [deg]
#   8 B_WORLD                Profile RMS along minor axis (world units)                 [deg]
#   9 THETA_WORLD            Position angle (CCW/world-x)                               [deg]
#  10 FWHM_WORLD             FWHM assuming a gaussian core                              [deg]
#  11 ELONGATION             A_IMAGE/B_IMAGE                                           
#  12 ELLIPTICITY            1 - B_IMAGE/A_IMAGE                                       
         1 -13.2337    249.3412     12.6467   3.1238321969e+01   2.3568108752e+01     1.360362    0.4169563 -34.98  0.006138168    3.112    0.679
         2 -13.8107    246.5797     33.6458   3.5524613365e+01   2.1535641611e+01     1.228321    0.3143369 -43.58  0.005145599    2.873    0.652
         3 -14.2947    242.9609     23.8536   3.3869875041e+01   2.3497439787e+01     1.206873    0.4866796 -31.72  0.005624552    2.825    0.646
         4 -14.3061    242.6339      5.4314   3.0299330316e+01   2.5712925272e+01     1.281963    0.8686314  -2.72  0.006886506    3.394    0.705
         5  -9.9752    189.7057      7.0183   3.4808483133e+01   3.6984298315e+01    0.1687267    0.1410676 -65.20 0.0004981885    1.138    0.121
         6  -9.8447    153.5297      4.0037   3.8048381702e+01   4.5764919729e+01    0.1698512    0.1248327 -31.43 0.0009434742    1.560    0.359
         7 -11.9122    226.9591     56.4748   4.2208975464e+01   2.2408936042e+01    0.2892817    0.1850713 -37.97  0.001219223    1.527    0.345
         8 -10.9656    193.9674    249.5290   8.6803022201e+01  -5.0426997093e+00    0.2001659    0.1794671 -57.98  0.001379221    1.609    0.379
         9  -9.7729    240.3669    240.6899   7.6979481771e+01  -9.9180910968e+00   0.09814078   0.09141874  45.06 0.0007037502    1.759    0.432
        10  -9.9525    220.1520    240.2078   8.0476314052e+01  -7.2770332199e+00    0.1459459    0.1345459  12.61 0.0008455415    1.338    0.253
        11 -10.4385    244.4622    237.0292   7.5683796599e+01  -9.9318050111e+00    0.2999869    0.1285635 -44.59  0.001466802    2.954    0.661
        12 -10.8708    230.7462    237.0828   7.8071864798e+01  -8.2244754562e+00    0.2626021    0.2188797 -73.28  0.001535989    2.510    0.602
        13 -10.5670    207.3527    237.5419   8.2413367782e+01  -5.1483205548e+00     0.239964    0.1864878  56.04  0.001342297    1.964    0.491
        14 -10.9299    191.7120    236.9466   8.5309439742e+01  -2.8179119695e+00    0.4273345    0.2680181  65.98  0.001684522    4.599    0.783
        15 -10.7486    216.4716    234.6129   8.0244796000e+01  -5.9782918063e+00    0.2353725    0.2026681  40.71  0.001216665    1.492    0.330
        16 -10.4802    203.4349    232.8272   8.2394770879e+01  -3.8814356826e+00    0.1975372    0.1529752  33.00 0.0005056177    1.281    0.219
        17 -10.7085    235.6867    229.4474   7.5942072505e+01  -7.7954197637e+00    0.2622357     0.151708 -44.01  0.001485242    2.027    0.507
        18 -10.1947    229.9957    228.6841   7.6817056127e+01  -6.9415480269e+00    0.2033918    0.1500822 -61.33  0.001012135    2.561    0.610
        19 -10.0550    184.9811    227.9934   8.5210354616e+01  -3.6643759236e-01    0.1870806    0.1581428  66.96 0.0009134264    1.685    0.406
        20 -10.3794    199.0475    227.0144   8.2285376405e+01  -2.3305550754e+00    0.1851816     0.160341  70.08  0.001136292    1.773    0.436
        21 -10.5163    247.2410    226.4274   7.3451550542e+01  -8.8389867743e+00    0.2102639     0.101138  28.90  0.001140797    2.055    0.513
        22 -10.6179    206.0556    225.5734   8.0701222899e+01  -3.1344582788e+00    0.2251995    0.1752162 -52.30  0.001330061    1.703    0.413
        23 -10.0006    190.5123    226.0286   8.3792018368e+01  -8.8687834257e-01    0.1850732    0.1230222 -39.86  0.001032226    1.589    0.371
        24 -10.3420    217.3732    223.5723   7.8241943731e+01  -4.4525840983e+00    0.2032772    0.1540722 -65.83  0.001122758    2.403    0.584
        25 -11.1033    241.3231    222.0009   7.3705819225e+01  -7.4680013424e+00    0.2967329    0.2386356  57.67   0.00185865    2.185    0.542
        26 -10.7306    193.6573    219.6414   8.2106701338e+01  -3.0852473623e-01    0.2404123    0.1948452  77.60  0.001336511    2.073    0.518
        27 -10.9782    248.4326    218.2808   7.1861442242e+01  -7.8498698481e+00    0.2642543    0.2133765 -44.35  0.001780976    1.631    0.387
        28 -10.1602    232.9642    213.4839   7.3682749518e+01  -5.0976540731e+00    0.1513159    0.1067224  56.91 0.0008093074    2.477    0.596
        29 -11.0392    217.6550    212.3404   7.6246875590e+01  -2.7373044435e+00    0.1768886    0.1628904  88.08  0.001128151    1.688    0.407
        30 -11.1240    226.3464    212.6241   7.4709997056e+01  -4.0387377686e+00    0.5457616    0.2370507 -52.10  0.002077497    4.154    0.759
        31  -9.8855    193.5092    210.5244   8.0566197695e+01   1.2698139698e+00    0.1308885    0.1187437   8.12 0.0001896927    1.051    0.048
        32 -10.0894    247.5278    207.0068   7.0038314573e+01  -6.0975090977e+00    0.1845813    0.1032079 -35.95  0.001033143    1.604    0.376
        33  -9.9247    217.4808    204.9915   7.4967664598e+01  -1.5213344849e+00    0.1907834    0.1173787 -37.89  0.001022145    1.563    0.360
        34 -10.2184    197.4944    204.0035   7.8616218460e+01   1.7694419465e+00     0.203181    0.1261109 -40.54  0.001040786    1.614    0.380
        35  -9.7395    172.9965    203.4997   8.3539819652e+01   5.9292328419e+00    0.1778503    0.1152444  59.65 0.0005120073    2.199    0.545
        36  -9.9625    250.5682    201.8031   6.8604764407e+01  -5.7267150824e+00    0.1591659    0.1024029 -41.21 0.0005799999    1.570    0.363
        37 -10.2929    228.4680    201.2536   7.2290881628e+01  -2.5497700756e+00    0.1716838    0.1135333 -45.64 0.0009482736    1.665    0.399
        38 -10.5009    237.9798    198.5063   7.0123390984e+01  -3.4882660389e+00    0.1548189    0.1109211  61.60 0.0008098733    2.552    0.608
        39  -9.6551    176.4746    197.5078   8.1731484188e+01   6.4754836085e+00    0.1367839    0.1297042  15.78 8.114687e-05    1.052    0.050
        40 -10.7800    231.3409    194.4789   7.0535830072e+01  -1.8795693845e+00    0.2227338    0.1073681 -39.04  0.001072988    1.905    0.475
        41 -10.4630    224.5813    192.7760   7.1421628938e+01  -5.7908498512e-01    0.1767475    0.1153393 -45.74 0.0004029025    1.626    0.385
        42  -9.7494    241.5047    191.5219   6.8236461679e+01  -2.8893666163e+00    0.1250577    0.1061332 -18.15 0.0001532789    1.052    0.050
        43 -10.1680    198.8389    190.5853   7.5869918689e+01   3.9505553346e+00     0.260258    0.1766515 -55.97  0.001153674    1.843    0.457
        44 -10.2323    210.4047    188.2140   7.3179829542e+01   2.4545789304e+00    0.1888309    0.1216121 -48.87 0.0009523875    1.702    0.412
        45 -10.2155    237.3835    187.1939   6.8126815200e+01  -1.5919389725e+00    0.1797465    0.1081185 -44.94 0.0007030413    1.698    0.411
        46 -10.0256    215.3541    187.0980   7.2037198418e+01   1.8446797006e+00      0.18763     0.116183 -48.80 0.0007930716    1.775    0.437
        47 -10.2216    224.0420    184.0630   6.9867692884e+01   9.7820255374e-01    0.1940923    0.1634201 -69.59 0.0007957267    1.710    0.415
        48 -10.5427    241.8650    181.7736   6.6346663013e+01  -1.3750651456e+00    0.2292949    0.1601258 -58.16  0.001026838    2.050    0.512
        49 -10.0817    219.4070    178.2597   6.9581925371e+01   2.7346582186e+00    0.1875014    0.1188335 -47.39 0.0009466916    1.640    0.390
        50 -10.6758    205.4556    176.9074   7.1927585719e+01   5.3342288207e+00    0.2428129    0.2204819 -78.65 0.0008872016    1.422    0.297
        51 -10.1896    197.7820    176.9221   7.3428925628e+01   6.6742671115e+00    0.2181673    0.1607493 -66.73 0.0009001412    1.908    0.476
        52  -9.8144    169.3335    177.6842   7.9517394180e+01   1.1701591104e+01     0.145088      0.11679  80.76 0.0004779666    1.689    0.408
        53 -10.4680    101.0177    175.9976   9.5572726951e+01   2.4521960910e+01    0.2080686    0.1965262  75.80            0    1.008    0.008
        54 -10.1406    227.6972    175.6893   6.7597103240e+01   1.8346965730e+00    0.1340984   0.09509431  -7.57 0.0004507659    1.609    0.378
        55  -9.7423    228.3105    171.6724   6.6701412625e+01   2.4310203833e+00    0.1256281    0.1041902 -68.66 0.0007040669    1.662    0.398
        56  -9.6654    197.6812    170.2988   7.2119602510e+01   7.9550219392e+00    0.1345245    0.1139306 -86.96 0.0006501001    1.617    0.382
        57 -10.7423    245.8269    168.6598   6.3182175440e+01   1.8072206797e-01    0.2597914    0.1655626 -41.55   0.00144337    1.415    0.293
        58 -10.4382    218.8521    168.3443   6.7717476790e+01   4.5946640299e+00    0.2478775     0.175819 -46.55  0.001324711    1.410    0.291
        59 -10.0669    212.1544    169.0069   6.9079575211e+01   5.6277317401e+00     0.219161    0.1511233 -61.13 0.0009969614    1.952    0.488
        60 -10.9584    191.4950    165.5245   7.2379849126e+01   1.0020047272e+01    0.3034507    0.1360335 -43.39  0.001205256    2.145    0.534
        61 -10.5516    240.9828    164.4863   6.3149434526e+01   1.6302293643e+00    0.2536474    0.1638515 -49.83  0.001123924    1.648    0.393
        62 -10.5833    213.1044    163.1900   6.7721430833e+01   6.5332158102e+00    0.3182574    0.1844109 -44.33  0.001512697    1.635    0.388
        63  -9.8989    199.4902    164.4766   7.0572240819e+01   8.7447987119e+00    0.1415772     0.131302 -21.02 0.0002284157    1.003    0.003
        64 -10.8062    205.4897    161.5107   6.8801232397e+01   8.2147945730e+00    0.3053748    0.1304667 -42.10  0.001217548    2.188    0.543
        65 -10.6780    237.5256    158.6902   6.2563244123e+01   3.1750724577e+00    0.2585613    0.2014025 -49.27  0.001164206    1.327    0.246
        66 -10.2321    245.6274    157.8175   6.1090862535e+01   2.0203019197e+00    0.1908421    0.1047931 -45.98 0.0009476774    1.719    0.418
        67 -10.4621    197.1066    157.6694   6.9619270082e+01   1.0509755477e+01     0.266391    0.1894773 -50.07  0.001326017    1.428    0.300
        68 -10.1420    216.5309    156.5256   6.5724485693e+01   7.1547680416e+00    0.2463359     0.120232 -49.98   0.00102473    2.198    0.545
        69 -10.0237    188.0000    155.0496   7.0887114516e+01   1.2774191144e+01    0.2437993   0.08013403 -43.81 0.0007982075    2.913    0.657
        70  -9.9069    205.5313    153.5103   6.7117798068e+01   9.7317751235e+00    0.1418442    0.1306609 -31.41 0.0002782966    1.011    0.011
        71  -9.9070    221.3818    152.1344   6.3953438301e+01   7.0949142662e+00     0.199441    0.1172125 -48.87 0.0009388672    1.699    0.411
        72 -10.7584    244.8428    149.6311   5.9583414912e+01   3.5313152579e+00    0.2682649    0.1514101 -51.30  0.001312507    1.894    0.472
        73  -9.8217    202.5179    151.4949   6.7260406152e+01   1.0686634543e+01    0.1431123     0.132311 -29.76 0.0008103966    1.006    0.006
        74 -11.1515    235.2188    147.0878   6.0588151641e+01   5.5795843218e+00    0.3549973    0.2093204 -48.57  0.001419007    1.652    0.395
        75 -10.1685    207.6331    145.2246   6.4956282917e+01   1.0918920057e+01    0.2082321    0.1249806 -33.50 0.0008032718    1.660    0.398
        76  -9.6751    219.3362    144.6627   6.2741938146e+01   8.8348988035e+00    0.1402407    0.1071975 -72.25 0.0007051641    1.750    0.429
        77 -10.2275    223.9609    146.9762   6.2432738952e+01   7.5728944988e+00    0.2165959    0.1673866 -72.69  0.001137475    1.749    0.428
        78  -9.6624    214.3182    142.6472   6.3193355761e+01   1.0141225391e+01    0.1431701    0.1080986 -71.10  0.000578992    1.743    0.426
        79 -10.0631    182.2179    142.2205   6.9267617053e+01   1.6539732986e+01    0.2431863    0.1114905 -52.64 0.0008735256    2.464    0.594
        80 -10.0179    147.5268    142.5077   7.7114759693e+01   2.3643473874e+01    0.1529825    0.1506571 -55.00 0.0008100035    1.012    0.012
        81 -10.0222    218.6158    137.7799   6.1398298719e+01   1.0239257321e+01    0.2033948    0.1197877 -47.45 0.0009509584    1.600    0.375
        82 -10.0271    172.5919    137.7937   7.0302566562e+01   1.9449671108e+01    0.2229753    0.1397103 -54.15 0.0009543183    1.684    0.406
        83 -10.6568    235.0185    136.0029   5.8328156371e+01   7.5642212712e+00    0.2144172    0.1574188 -66.73  0.001044361    1.714    0.416
        84 -10.1527    188.0000    135.9535   6.6677300221e+01   1.6632770420e+01    0.2482815   0.08097937 -42.95 0.0007968342    2.904    0.656
        85 -11.0271    242.4694    134.0425   5.6779196034e+01   6.6018725368e+00    0.3068111    0.1065304 -44.76  0.001194057    2.549    0.608
        86 -10.1163    225.4038    133.6728   5.9379092386e+01   9.7238787359e+00    0.2686162    0.1171881 -44.42  0.001113642    2.056    0.514
        87 -10.3919    198.3873    131.7571   6.3711104352e+01   1.5343185811e+01    0.2062128    0.1320046 -33.81 0.0005667123    1.584    0.369
        88 -10.6548    249.2634    130.4465   5.5049273900e+01   6.0536332927e+00    0.2888225    0.1323896  52.94  0.001322519    2.696    0.629
        89 -10.7505    143.0000    130.9882   7.5547965640e+01   2.7186546928e+01    0.2659129   0.08774848 -47.02 0.0008083304    2.983    0.665
        90 -10.0842    192.3621    129.1796   6.4275394372e+01   1.7087220706e+01    0.2214239    0.1282972 -51.18 0.0009458561    1.746    0.427
        91 -10.7247    240.8116    126.1697   5.5397173127e+01   8.2514343296e+00    0.4126095     0.144448 -46.82  0.001580099    2.668    0.625
        92 -10.5685    179.6069    124.0289   6.5615572823e+01   2.0817579664e+01    0.3464099    0.1402462 -43.05  0.001235563    2.359    0.576
        93  -9.5402    164.6836    124.3366   6.8871392177e+01   2.3982349285e+01    0.1591457    0.1212116 -82.13 0.0007048072    1.698    0.411
        94  -9.7636    188.2859    122.6505   6.3555171037e+01   1.9239279183e+01    0.1529669    0.1137443 -72.14 0.0007021126    1.657    0.397
        95 -10.1085    231.4977    119.9704   5.5483373927e+01   1.1036966237e+01    0.2128277    0.1190602 -41.79  0.000656537    1.552    0.356
        96 -10.0551    227.6058    124.8297   5.7129677715e+01   1.0905267028e+01    0.2082526    0.1126769 -49.05 0.0009497487    1.748    0.428
        97  -9.8674    209.3345    118.1801   5.8669751196e+01   1.5708309403e+01    0.2068135    0.1189164 -48.38 0.0004649797    1.636    0.389
        98 -10.2282    140.4920    117.9989   7.2994672937e+01   3.0623012480e+01    0.2280407    0.1350628 -68.19 0.0008105066    2.569    0.611
        99  -9.5511    199.3274    116.3027   6.0000388917e+01   1.8137837393e+01    0.1430082    0.1159607   3.21 0.0004222604    1.644    0.392
       100 -11.3558    218.7852    110.3864   5.5358979497e+01   1.5219922747e+01      0.51948    0.1347434 -46.18  0.001602775    3.683    0.728
       101  -9.2912    247.6617    112.6871   5.1632420983e+01   9.3263405403e+00    0.1256408   0.09972078  -5.57 0.0007046311    1.693    0.409
       102  -9.6916    189.6836    108.3395   5.9889758027e+01   2.1736038799e+01    0.1551477    0.1121361 -73.60 0.0007048409    1.705    0.413
       103  -9.7780    205.6348    104.8539   5.6240079593e+01   1.8946266535e+01    0.2121325    0.1199127 -49.56 0.0009047005    1.681    0.405
       104  -9.9307      7.6600    105.3232   1.1167820464e+02   5.3549522067e+01     0.127512   0.08707998  68.42 0.0006293288    1.723    0.420
       105  -9.8857    195.0000    113.0415   6.0025273593e+01   1.9681540239e+01     0.248814   0.07926845 -41.12 0.0008019706    2.939    0.660
       106 -10.6662    229.8232    102.4325   5.1937894116e+01   1.4421151206e+01    0.3174865    0.1668416 -43.84  0.001062417    1.648    0.393
       107  -9.7025    200.7615    103.0109   5.6635149042e+01   2.0328547221e+01    0.1935555    0.1141263 -41.82 0.0006197619    1.574    0.365
       108 -10.5600    141.4100    102.7136   6.8810767281e+01   3.3712633082e+01    0.3121459    0.1454856 -48.08  0.001145882    2.169    0.539
       109 -10.2401    160.0000     99.9795   6.3788514853e+01   3.0054547500e+01     0.252856   0.08548294 -41.81 0.0007974299    2.908    0.656
       110  -9.5917    209.3289     99.3040   5.4345641580e+01   1.9167208309e+01    0.1362049    0.1132797   7.14 0.0003490525    1.651    0.394
       111 -10.2699    221.5224     97.7421   5.2110374999e+01   1.6898892665e+01    0.2495449     0.126588 -36.65 0.0006907515    1.888    0.470
       112 -10.3225    194.6441     97.1927   5.6304540186e+01   2.2737132149e+01    0.2074522    0.1328274 -33.11 0.0007065896    1.658    0.397
       113  -9.9803    176.2214     96.9659   5.9656183491e+01   2.6928630181e+01    0.1977685    0.1185269 -42.61 0.0005406364    1.609    0.378
       114  -9.5660    135.6781     97.3146   6.8773745137e+01   3.6118553403e+01    0.1579288    0.1217752 -85.80 0.0007040672    1.659    0.397
       115 -10.1780    235.4367     95.2522   4.9602411643e+01   1.4539636841e+01    0.1949278    0.1069508 -49.47 0.0008847587    1.617    0.382
       116  -9.5245    206.6896     94.2912   5.3600697123e+01   2.0625486220e+01    0.1446192    0.1035767 -71.74 0.0004233894    1.585    0.369
       117 -10.8740    242.1367     92.8960   4.8224358239e+01   1.3636539422e+01    0.2580555    0.1292286 -46.32  0.001238141    1.690    0.408
       118  -9.8800    164.4800     93.4918   6.1134044058e+01   3.0293921432e+01    0.1503603     0.144425 -73.91 9.616603e-05    1.014    0.013
       119 -10.4019    236.8255     89.8213   4.8252443785e+01   1.5168843936e+01    0.2534816    0.1684512 -52.38 0.0008511369    1.321    0.243
       120 -10.4889    235.3773     86.1858   4.7657627675e+01   1.6050169509e+01    0.3941006    0.1351613 -45.96  0.001550551    2.507    0.601
       121 -10.2244     24.9503     90.2659   1.0286371783e+02   5.5857813892e+01     0.177307    0.1556022 -37.08 0.0004173404    1.098    0.089
       122 -11.0926    226.2852     87.6521   4.9182979258e+01   1.7641132783e+01    0.3974364    0.2042163 -32.83  0.001405932    2.076    0.518
       123 -11.9010    229.8915     80.4167   4.7108817494e+01   1.8092725015e+01    0.5915563    0.2028986 -44.93  0.002334237    2.488    0.598
       124  -9.9679    249.3515     88.1580   4.6348012207e+01   1.3041341071e+01    0.1937182   0.09560866 -47.49 0.0006512057    1.696    0.410
       125 -11.2280    240.2680     86.1903   4.7040832992e+01   1.5088705164e+01    0.3929075    0.1832189 -63.69  0.001494372    3.305    0.697
       126  -9.8012    197.7640     86.7468   5.3248645299e+01   2.3918476848e+01    0.2389675   0.09738148 -48.53 0.0008856665    2.419    0.587
       127 -10.4966    243.0130     82.9919   4.6029720612e+01   1.5069843881e+01    0.1699665     0.125015 -47.08 0.0008978568    1.151    0.131
       128  -9.8699    170.5091     83.4836   5.7287308302e+01   3.0759025937e+01    0.1494941    0.1387739 -76.95 0.0001887305    1.026    0.025
       129  -9.4298    200.3164     82.6793   5.1855190845e+01   2.4054209335e+01    0.1498083    0.1023442 -70.52 0.0004998073    1.660    0.398
       130 -10.2590    159.3005     81.5040   5.9007790576e+01   3.3751882819e+01    0.2725794    0.1333176 -40.04  0.001074651    2.041    0.510
       131  -9.4563    215.0000     79.9426   4.9012644725e+01   2.1294466404e+01    0.2263894   0.07219401 -38.47 0.0007949053    2.890    0.654
       132 -11.7653    248.0347     73.9334   4.3564974179e+01   1.5520213788e+01    0.2672954     0.152256 -42.53 0.0009200157    1.485    0.327
       133 -11.7889    246.5116     78.5325   4.4687582639e+01   1.5099822986e+01    0.2959596    0.1250019 -49.72  0.001332255    2.073    0.518
       134 -11.1368    243.4408     76.0178   4.4515846273e+01   1.6086073804e+01    0.2450664     0.112704 -36.67  0.000899408    2.034    0.508
       135 -10.2221    150.5785     79.2049   6.0232879484e+01   3.6224178676e+01    0.2094514    0.1460768 -28.30 0.0005339087    1.659    0.397
       136 -10.3467    166.6730     77.5081   5.6443926426e+01   3.2729946039e+01    0.2626032    0.1342421 -39.38  0.001014494    1.950    0.487
       137  -9.7986    174.4727     77.4930   5.4963387916e+01   3.0894153232e+01     0.146616    0.1368316 -77.43 4.223485e-05    1.003    0.003
       138 -10.1430    211.3890     75.8119   4.8567779300e+01   2.2758132683e+01    0.1937229    0.1274967 -30.29  0.000950139    1.708    0.414
       139 -10.7813    195.8012     72.2161   5.0015984445e+01   2.6835109862e+01    0.2957433    0.1908411 -37.10 0.0009294965    1.558    0.358
       140  -9.7998    185.3505     72.7944   5.1840359728e+01   2.9150343579e+01    0.1941352    0.1338226 -30.83 0.0006342497    1.618    0.382
       141  -9.8598    221.7868     71.0205   4.6065824059e+01   2.1286933322e+01    0.1806426   0.09808834 -40.78 0.0006834139    1.670    0.401
       142 -11.1022    237.3126     79.6559   4.6013055451e+01   1.6719235846e+01    0.3219627    0.1813881 -85.28  0.001412294    2.730    0.634
       143 -10.2102    163.4490     71.0087   5.5307935698e+01   3.4621795137e+01    0.2270649    0.1415369 -39.91 0.0009624493    1.612    0.380
       144 -11.7928    249.0321     63.4309   4.1304929715e+01   1.6911349046e+01    0.4756125    0.2022138 -29.38  0.001920606    3.255    0.693
       145  -9.7270    214.3024     69.6492   4.6736942437e+01   2.3115803478e+01    0.1469459   0.09225726 -66.01 0.0005929883    1.698    0.411
       146  -9.2748    212.3150     66.2940   4.6226466352e+01   2.4079925736e+01    0.1244742    0.1082385  23.77 0.0003187343    1.600    0.375
       147 -10.0767    203.4722     66.0309   4.7379391326e+01   2.6091071386e+01    0.2136646    0.1266049 -41.12  0.001031333    1.592    0.372
       148 -10.1516    138.7124     66.3585   5.9174812353e+01   4.1286151159e+01    0.1520095    0.1120851 -72.83 0.0007024005    1.682    0.405
       149 -13.5539    239.9193     60.5139   4.1653327163e+01   1.9139798138e+01     1.196972    0.6561826 -18.47  0.004693738    3.997    0.750
       150 -14.0731    249.7118     53.2373   3.9170533866e+01   1.8256243115e+01     1.596677     0.390768 -51.36  0.005470785    4.085    0.755
       151 -11.1343    250.3939     25.9787   3.3719671703e+01   2.1758516973e+01    0.3291627    0.1319192 -36.47  0.001542466    2.345    0.574
       152  -9.4490    242.3234    248.3179   7.7862777704e+01  -1.1140921053e+01    0.1181824   0.07052669  -1.47 0.0004855541    1.670    0.401
       153  -9.8496    218.6710    248.3378   8.2027816948e+01  -8.2091481807e+00    0.1025936   0.09251941  52.37 0.0007051906    1.733    0.423
       154  -9.6094    233.3315    247.6550   7.9311392990e+01  -9.9714757370e+00   0.09731863   0.09199689  47.32 0.0007050235    1.758    0.431
       155 -10.2514    225.7451    243.1737   7.9942491655e+01  -8.4187004593e+00    0.1604039     0.132596  76.46 0.0009464176    2.744    0.636
       156 -12.4198    232.7226     47.1726   3.9581027122e+01   2.2533315427e+01    0.3821214    0.1554775 -37.18  0.001731441    2.290    0.563
       157  -9.7333    162.6780     45.3395   4.8336501756e+01   3.8803123977e+01    0.1488315    0.0999963 -71.29 0.0007050587    1.719    0.418
       158  -9.9349    169.0000     44.0246   4.6937133541e+01   3.7463167094e+01    0.2173405   0.07797921 -33.61 0.0008000972    2.926    0.658
       159 -12.7504    237.9828     40.8644   3.7744432801e+01   2.2313913073e+01    0.4498572    0.1671853 -37.22   0.00201921    2.462    0.594
       160  -9.6258    208.6683     39.3003   4.0410966006e+01   2.8826625980e+01    0.1396317   0.08533224 -69.32 0.0004787032    1.649    0.393
       161 -10.7618    228.4616     37.0021   3.7833114576e+01   2.4812985158e+01    0.1858919    0.1104117 -40.88 0.0007221315    1.569    0.362
       162  -9.6475    208.4667     63.4836   4.6085398366e+01   2.5369922021e+01    0.1375889    0.1198208 -69.10 0.0002051575    1.002    0.002
       163 -10.1839    216.3233     30.6628   3.7639790421e+01   2.8255083529e+01    0.1391277   0.07884925 -66.14  0.000705092    1.716    0.417
       164 -10.2323    125.5968     29.7433   5.0585423071e+01   4.9723373938e+01    0.2357428    0.1359782 -24.09  0.001125147    2.040    0.510
       165 -10.6747     30.3139     28.3352   8.1860383449e+01   6.7734765612e+01    0.2020191    0.1474754  -9.85 0.0004509657    1.227    0.185
       166 -11.4766    226.2988     31.0455   3.6764741823e+01   2.6047729368e+01     0.291097    0.1634398 -17.25  0.001287357    3.373    0.704
       167 -11.7609    223.5817     21.7471   3.5025528234e+01   2.7782840070e+01    0.2221624    0.1307229  65.01  0.001051858    1.722    0.419
       168 -10.3798    206.5825     58.7293   4.5215866894e+01   2.6519825286e+01    0.2531532    0.1298058 -32.98  0.001131378    2.102    0.524
       169  -9.7545    147.7461     19.9934   4.3495786961e+01   4.5564344553e+01    0.1587258    0.1147181 -30.79 0.0008845713    1.558    0.358
       170 -10.3730    202.4845    242.9856   8.4189057947e+01  -5.2727795274e+00    0.1443246    0.1106286 -69.89 0.0006825181    2.496    0.599
       171 -10.5939    183.9956    240.6026   8.7384175736e+01  -2.2571014245e+00     0.332074    0.1842154  54.99  0.001483212    3.039    0.671
