#   1 NUMBER                 Running object number                                     
#   2 MAG_AUTO               Kron-like elliptical aperture magnitude                    [mag]
#   3 X_IMAGE                Object position along x                                    [pixel]
#   4 Y_IMAGE                Object position along y                                    [pixel]
#   5 X_WORLD                Barycenter position along world x axis                     [deg]
#   6 Y_WORLD                Barycenter position along world y axis                     [deg]
#   7 A_WORLD                Profile RMS along major axis (world units)                 [deg]
#   8 B_WORLD                Profile RMS along minor axis (world units)                 [deg]
#   9 THETA_WORLD            Position angle (CCW/world-x)                               [deg]
#  10 FWHM_WORLD             FWHM assuming a gaussian core                              [deg]
#  11 ELONGATION             A_IMAGE/B_IMAGE                                           
#  12 ELLIPTICITY            1 - B_IMAGE/A_IMAGE                                       
         1 -14.1740     70.0227    148.5422   4.9031460482e+01   3.5743385750e+01     3.504106     1.771016 -89.84  0.001940878    4.010    0.751
         2 -13.6184    229.8167     47.4070   3.5293878541e+02   2.5250680728e+01    0.8368065    0.8089627  54.49  0.005194805    1.457    0.314
         3 -13.4718    215.3191     56.4340   3.5609073049e+02   2.6652889757e+01     1.213803     1.034817 -10.10  0.005643711    1.589    0.371
         4 -11.2206      2.1225     23.3301   5.0044248798e+01   7.5339133938e+01    0.4510207    0.1787674 -57.52  0.002028294    2.368    0.578
         5  -9.6570    227.3334      9.6904   3.4524139936e+02   2.9994794349e+01    0.1936387    0.1536001 -55.65 0.0007421553    1.127    0.112
         6  -9.6416    193.6213      4.7906   3.4585348798e+02   3.6940401958e+01    0.1644159   0.08149747 -43.43 0.0003029842    1.591    0.371
         7  -9.2798    108.5229      5.4966   3.5372132713e+02   5.6368368527e+01    0.1315755    0.1126712 -84.65 -2.737905e-05    1.054    0.052
         8 -10.3496      2.3448      2.7101   3.7516671333e+01   7.9176941227e+01    0.3005514    0.1792617 -42.32  0.001737077    1.677    0.404
         9 -11.3451     54.8084    232.3636   6.3019778582e+01   1.7605500189e+01    0.3189159    0.2290749  80.23 0.0004377521    1.588    0.370
        10  -9.5966     74.9919    248.5120   5.9631256866e+01   1.2359215160e+01    0.3484455    0.1358283 -53.39  0.001658341    2.908    0.656
        11 -12.6886     53.5753    218.4507   6.2210919878e+01   2.0671738549e+01     1.811237     1.105409 -75.91  0.001552981    1.838    0.456
        12 -15.1226     23.8078    179.6005   6.7173765777e+01   3.2895522356e+01     13.37006     3.487334 -89.11   0.03109882    7.626    0.869
        13  -9.7806     72.7906    233.1944   5.8808656370e+01   1.5519701856e+01    0.2461612    0.2023147 -76.63 0.0009288375    1.429    0.300
        14 -11.9859    108.1785    229.0480   5.0113850231e+01   1.2281564503e+01    0.5397782    0.3656019  23.82  0.003142847    1.282    0.220
        15  -9.7493     47.0761    229.3806   6.4657683692e+01   1.9012523725e+01    0.2102841    0.1624748  65.62 0.0006516225    1.304    0.233
        16  -8.1828    194.6702    229.2889   3.2492841124e+01   2.4793623750e+00   0.09560096   0.08680706  28.64 0.0004670848    1.620    0.383
        17 -11.5224     98.0040    224.9534   5.1997835261e+01   1.4268500213e+01    0.5250049    0.4832277  78.42  0.003068303    1.302    0.232
        18 -11.0014     90.6292    225.8463   5.3841622817e+01   1.4959772835e+01    0.5375064    0.2390603  31.35   0.00180332    1.884    0.469
        19 -11.7030     84.1131    222.0666   5.4997957141e+01   1.6482170527e+01     1.109087    0.3559084  34.68  0.004473276    2.506    0.601
        20  -9.2413     63.6349    237.1661   6.1307444666e+01   1.5717613507e+01    0.1499664    0.1457315 -82.79 0.0003616287    1.201    0.167
        21  -9.8646    154.7882    227.6288   3.9831077331e+01   7.0710715674e+00    0.1703825   0.09795804  32.67 0.0009507571    1.677    0.404
        22  -9.1206     72.4943    225.7279   5.8186715248e+01   1.7060296095e+01    0.2222918    0.1557215  26.39 0.0006666713    1.251    0.201
        23 -10.6552    163.3127    222.8621   3.7437495517e+01   6.8744067177e+00    0.3186654    0.2662626  47.16  0.002098866    1.678    0.404
        24  -9.7272    174.6856    223.8602   3.5367504881e+01   5.4272189299e+00    0.2053282    0.1376346   8.40 0.0007328761    1.354    0.261
        25 -12.6642    126.2190    229.4288   4.6117578834e+01   1.0087351206e+01     1.054672    0.4710209  14.43  0.004472664    2.768    0.639
        26 -14.4133     10.0807    206.8661   7.2566612313e+01   2.7402161971e+01     1.251512    0.6479285  21.47  0.003790157    1.874    0.466
        27  -8.3086    132.0207    211.9243   4.2461571331e+01   1.2592239133e+01    0.1499295    0.1310467   5.80 0.0002944332    1.005    0.005
        28  -9.4192     95.6225    209.8938   5.0771914806e+01   1.7615605248e+01     0.246426    0.1738989 -83.53  0.001286911    1.904    0.475
        29  -9.8350     72.5596    207.8709   5.6359542613e+01   2.0869829544e+01    0.3489855    0.2060083  87.06  0.001418169    2.387    0.581
        30 -10.8813    103.6114    202.7340   4.7862605387e+01   1.8104739691e+01    0.3212516    0.2688183 -29.60  0.001765336    1.253    0.202
        31  -9.4324    210.8902    199.0489   2.5015286189e+01   5.1982092283e+00    0.1923463    0.1423668  -6.62  0.000504789    1.172    0.146
        32 -10.4566    114.4781    195.0126   4.4081852927e+01   1.8286151464e+01    0.3857483    0.1879892 -22.31  0.001218123    4.584    0.782
        33  -9.4061    191.9780    193.4578   2.7343443339e+01   8.2790297384e+00    0.2515841    0.1427698 -64.63 0.0008103448    6.864    0.854
        34  -9.4398     53.2169    187.1690   5.9363024509e+01   2.7978070104e+01    0.4655092    0.2485852  59.95  0.001992966    2.160    0.537
        35 -11.4339     65.4344    186.2025   5.5806683844e+01   2.6770408075e+01    0.3017657    0.2413057  89.50 0.0009803667    1.356    0.263
        36  -8.7982     70.8401    183.6636   5.3973585582e+01   2.6713039070e+01    0.1912426    0.1702452  45.31 0.0005023596    1.069    0.065
        37  -9.9117    120.1353    175.8004   3.9588609728e+01   2.1619559819e+01    0.1976795    0.1605115 -18.98  0.001058504    1.299    0.230
        38 -12.9750     57.1111    144.6277   5.2605230150e+01   3.8550602313e+01    0.7924573    0.5654178 -45.29 0.0008352243    1.477    0.323
        39 -10.4517    125.3765    246.3798   4.8352002427e+01   7.2692032386e+00    0.3984597    0.1158259 -55.25  0.001625171    4.114    0.757
        40 -11.3179     59.8790    156.8750   5.3576044441e+01   3.4924543671e+01    0.4720746    0.3051059 -45.50 0.0007218132    1.662    0.398
        41 -10.6431     38.1321    149.4314   5.9685333107e+01   3.9503408297e+01    0.3375052    0.3208221  83.46 0.0006476123    1.017    0.016
        42  -8.2762    112.2139    150.3844   3.6932495046e+01   2.8660143160e+01    0.1940776    0.1358562  46.09 9.950975e-05    1.506    0.336
        43  -9.6196    134.3386    148.1318   3.0834111633e+01   2.5420018259e+01    0.5440439    0.1360589 -52.63  0.001469227    4.664    0.786
        44 -10.4670    240.1255    148.1572   1.1800809858e+01   9.3795317509e+00    0.1819717    0.1309896 -20.43  0.001245605    1.261    0.207
        45 -10.0140     46.9962    147.4066   5.6423990791e+01   3.9057351021e+01    0.3072306    0.2463242  79.46  0.001472755    1.284    0.221
        46 -10.1943    108.8954    145.5400   3.6858837956e+01   3.0362653510e+01    0.2688248    0.2620352  89.78 0.0006643069    1.074    0.069
        47 -10.0923     36.7211    142.6646   5.9304587892e+01   4.1509627185e+01    0.3076697    0.2421031  87.03 0.0007018074    1.269    0.212
        48 -14.3251     35.1727    172.9343   6.3210076815e+01   3.3532282330e+01     7.028891     1.125532  34.38   0.02118057    3.895    0.743
        49 -10.3267     95.7852    133.6969   3.8141544867e+01   3.5483660065e+01    0.5495065    0.4046059 -10.61  0.002445277    1.843    0.457
        50 -11.5830     43.1030    133.9707   5.5798001822e+01   4.3196992292e+01    0.5226156    0.4618439  78.27  0.001466107    1.124    0.110
        51 -10.7011     38.4037    129.1976   5.6784583378e+01   4.5053391817e+01    0.3752712    0.3007036  60.97 0.0003992237    1.282    0.220
        52 -10.3106     34.6071    124.2155   5.7451238065e+01   4.6851361576e+01     0.288802    0.2499219  57.57 0.0005655125    1.168    0.144
        53  -8.4728     33.5092    136.5430   5.9634574409e+01   4.3538230891e+01    0.1490657    0.1377858  76.43 4.404263e-05    1.040    0.038
        54  -9.8501     29.5280    135.1467   6.0896400252e+01   4.4324884050e+01    0.2566368    0.2235348  36.09 0.0004077515    1.173    0.147
        55 -11.6027     82.3168    131.9286   4.1945323139e+01   3.8192086371e+01    0.2946201    0.2845804 -36.46 0.0003996073    1.060    0.056
        56  -9.6409    105.5334    130.7219   3.4631833497e+01   3.4495114079e+01    0.3942589    0.3039648 -57.25  0.001176722    1.295    0.228
        57  -9.4333    107.0155    126.4763   3.3242047522e+01   3.5241489474e+01    0.3082506    0.2435644  -2.37  0.001284803    1.620    0.383
        58  -9.6313     23.7024    129.8487   6.2386463482e+01   4.6346003826e+01    0.2806105    0.1856821 -20.80 0.0009017221    1.884    0.469
        59  -8.3135    100.7883    127.0144   3.5171226841e+01   3.6243490106e+01    0.1927331    0.1218441 -53.46 0.0008253331    1.550    0.355
        60 -10.3609     93.4709    121.4896   3.6106295731e+01   3.8912831650e+01     0.347856    0.2886178  13.20 0.0008517017    1.392    0.282
        61  -8.5316     87.4989    123.4594   3.8439900250e+01   3.9475765230e+01    0.1530302    0.1502744 -55.30 0.0008092249    1.017    0.017
        62 -11.8192     54.2857    161.0181   5.5922918387e+01   3.4533386906e+01    0.5916253    0.5454212 -55.89  0.002647152    1.124    0.110
        63 -12.9808      2.0682    242.4292   7.5757493738e+01   2.0368892010e+01    0.8387309    0.2866346 -88.76  0.003870811    3.168    0.684
        64  -8.8063    114.6400    121.5950   2.9965189710e+01   3.4962507610e+01    0.2282876    0.1809637 -10.62  0.000646273    1.603    0.376
        65  -8.3159     76.2977    120.6713   4.1501555111e+01   4.2084916022e+01    0.1597984    0.1198213  74.01 0.0005680882    1.636    0.389
        66 -11.3622     25.1706    116.7081   6.0036165387e+01   4.9885444110e+01    0.4988052     0.435201  58.51  0.001980247    1.166    0.143
        67 -10.4173     16.1679    115.8327   6.3579020553e+01   5.0895196948e+01    0.3315345    0.2417969  51.92 0.0005337414    1.416    0.294
        68 -10.3529    246.4827    117.3231   5.3204596056e+00   1.3052825312e+01    0.2256437    0.1625473  80.24   0.00147033    2.288    0.563
        69 -10.0988    243.5758    114.2335   5.0581449204e+00   1.3894773857e+01    0.2262089   0.08368963 -40.80 0.0004778447    1.998    0.500
        70  -9.5678    104.8391    116.0423   3.1373454729e+01   3.8123772469e+01    0.2353197    0.2181116  43.38 0.0002947701    1.108    0.097
        71  -9.7094     42.7228    115.0879   5.2722586094e+01   4.8450608375e+01    0.2863258    0.1964639  55.08  0.001168044    1.594    0.373
        72 -10.3144    246.4553    110.7792   4.0854199578e+00   1.3993507116e+01    0.2992948    0.0890358 -35.95  0.001308208    2.656    0.623
        73  -9.4379     32.4974    109.9520   5.5932032157e+01   5.1035111162e+01    0.2348867    0.1410414 -68.19  0.001028612    1.577    0.366
        74  -9.0649    240.2830    109.3123   4.4785687192e+00   1.5070684081e+01    0.1103619    0.0789884 -18.31 0.0002192399    1.573    0.364
        75 -10.7280     24.1088    105.2200   5.8679783068e+01   5.3177736367e+01    0.3402526    0.3170709   4.66 0.0008973444    1.154    0.133
        76 -11.9989     76.9561    146.2404   4.6432494619e+01   3.5330917946e+01    0.9199927    0.5845938 -20.53  0.002222973    2.340    0.573
        77 -14.3356      5.2737    232.5291   7.4732283747e+01   2.2134376421e+01     2.590997    0.8061637  52.91   0.01153007    2.595    0.615
        78  -8.7249     87.6306    102.3167   3.3168096417e+01   4.4676791245e+01    0.2444594    0.1826238  85.65 0.0007486088    1.778    0.438
        79 -11.3609     53.7699     87.5787   4.1821150174e+01   5.4222131839e+01    0.6383775    0.2723179 -52.95   0.00237008    2.213    0.548
        80 -14.9630      4.6829    214.5259   7.4241544374e+01   2.6079986316e+01     3.228247     1.214805  19.69   0.01425971    2.596    0.615
        81  -9.2678     20.3757     90.3759   5.7732990886e+01   5.7577838049e+01    0.2341569     0.211149  66.86 0.0003423489    1.175    0.149
        82  -8.1288    164.4921     89.5032   1.0645509239e+01   3.1473774070e+01    0.1400077    0.1258998 -49.73 0.0008104712    1.028    0.027
        83  -9.1144     37.7537     86.1390   4.8567709671e+01   5.6845631394e+01    0.2558224    0.1426935  63.61 0.0007879128    2.784    0.641
        84  -9.9401     45.2029     80.1313   4.3505953666e+01   5.7373217444e+01    0.2850408     0.178895  55.69 0.0007162598    1.990    0.497
        85  -9.3626    110.7660    167.5359   4.0540771019e+01   2.4901970746e+01    0.2547888    0.2060997 -64.45 0.0008465513    1.347    0.258
        86  -9.3888    101.4587    247.2420   5.3614705979e+01   9.7431006695e+00    0.2076337    0.1101627 -50.72  0.001136148    2.136    0.532
        87 -12.0807    205.4695     62.5746   3.5844214705e+02   2.7631059464e+01     0.457695    0.3812727 -61.36  0.001120629    1.085    0.078
        88 -11.1716     42.7330    245.9364   6.6761131588e+01   1.6107846342e+01    0.2203239     0.178679  71.81 0.0005856485    1.298    0.229
        89  -8.6698    122.1991     65.5644   1.2341296868e+01   4.5014532544e+01    0.4110371    0.2159922 -72.61  0.001204666    4.682    0.786
        90  -8.1445    144.0040     61.2716   6.5960907124e+00   4.0728372353e+01    0.1614371    0.1209631  65.88 0.0002013146    1.362    0.266
        91  -8.0603     82.6850     58.7130   2.0999552907e+01   5.5219700903e+01    0.1449288    0.1164366  12.60 0.0002383716    1.586    0.369
        92 -10.3158    180.5266    167.2164   2.4778388569e+01   1.4300644205e+01    0.3163047    0.2087718 -46.91  0.001419336    1.499    0.333
        93  -9.9045     13.5107     72.3917   5.7563491513e+01   6.2916169273e+01    0.2855811    0.2160677  47.92 0.0006852456    1.476    0.323
        94  -8.4001    108.3241     39.3418   6.5794706393e+00   5.2510576878e+01    0.1431997    0.1075914  27.92 0.0007050897    1.730    0.422
        95  -9.0254     90.9942     32.4695   8.1328717593e+00   5.7634380183e+01    0.2118108    0.1308948  63.29 0.0006440541    1.549    0.355
        96 -10.1957     22.3498     28.0761   3.6465591616e+01   7.2157984148e+01    0.2208743     0.170005  11.95 0.0005717672    1.275    0.216
        97 -10.2752      7.6833     26.0760   4.6582405672e+01   7.4283585279e+01    0.3273756    0.1280631  39.03  0.001344869    2.982    0.665
        98  -8.5572    198.4035    241.1801   3.3537185319e+01   4.5276694623e-01    0.1304739   0.09469289 -37.94 0.0004998392    1.568    0.362
        99  -9.6446     60.6358     21.5887   1.2704341437e+01   6.6100208914e+01    0.2444661    0.2181116  72.31 0.0008074066    1.188    0.158
       100  -9.4285    189.4915     15.0596   3.4858405643e+02   3.6744212762e+01    0.1817363    0.1420311 -74.38 0.0008815655    1.111    0.100
       101 -10.4810    103.7936    238.8806   5.2218689494e+01   1.0973180156e+01    0.2898207    0.2117863 -58.47  0.001403116    1.633    0.388
       102  -9.2216    187.4792     10.5273   3.4760882539e+02   3.7634401265e+01    0.1202857   0.09506553 -63.23 2.116495e-05    1.013    0.013
       103 -14.5563     10.6454    189.5967   7.1568313490e+01   3.1492802515e+01     8.770749          nan  28.74   0.02320681    5.873    0.830
       104  -9.7114     53.7938    238.0673   6.3685007319e+01   1.6559320347e+01    0.5282966    0.1792032  22.98  0.002189273    2.685    0.628
