#   1 NUMBER                 Running object number                                     
#   2 MAG_AUTO               Kron-like elliptical aperture magnitude                    [mag]
#   3 X_IMAGE                Object position along x                                    [pixel]
#   4 Y_IMAGE                Object position along y                                    [pixel]
#   5 X_WORLD                Barycenter position along world x axis                     [deg]
#   6 Y_WORLD                Barycenter position along world y axis                     [deg]
#   7 A_WORLD                Profile RMS along major axis (world units)                 [deg]
#   8 B_WORLD                Profile RMS along minor axis (world units)                 [deg]
#   9 THETA_WORLD            Position angle (CCW/world-x)                               [deg]
#  10 FWHM_WORLD             FWHM assuming a gaussian core                              [deg]
#  11 ELONGATION             A_IMAGE/B_IMAGE                                           
#  12 ELLIPTICITY            1 - B_IMAGE/A_IMAGE                                       
         1 -13.3797    170.0253     55.0606   6.2493294794e+01   3.5589234081e+01     2.016896     1.273817  26.64  0.005839271    2.153    0.536
         2 -13.3781    184.3971     40.3259   5.5292243818e+01   3.3982090364e+01      1.02503     1.016352 -40.00  0.003279867    1.036    0.035
         3 -11.6656    190.6917     15.2727   4.6555710500e+01   3.5357748668e+01    0.6545526    0.3571817  71.92  0.002871827    1.804    0.446
         4 -12.3448    198.7745     23.3048   4.8069899059e+01   3.2357333853e+01    0.4716816    0.4690917  47.90  0.002006983    1.093    0.085
         5 -13.9685    207.0869      9.0969   4.3010029380e+01   3.1758672895e+01     1.260669     1.143223  20.58  0.004143717    1.289    0.224
         6 -11.7548    241.3384      2.1435   3.8464509122e+01   2.4141872139e+01    0.6569776    0.2863984  74.08  0.003028716    2.310    0.567
         7  -9.7198     87.5773    203.1162   1.1431085573e+02   2.2241747818e+01    0.2351364    0.1988063 -77.70  0.001007535    1.273    0.215
         8 -13.6585    246.4806    246.1811   9.1474204917e+01  -7.7503358428e+00     1.956301    0.7152045 -27.95   0.01086572    3.033    0.670
         9 -17.6326     43.0214    242.5982   1.2541203325e+02   2.0940250028e+01     6.685548     4.336695  32.02   0.04768443    1.928    0.481
        10  -9.9493     16.0539    201.1407   1.2794593604e+02   3.1149382841e+01    0.1232517   0.07835322  52.98 0.0003905063    1.310    0.237
        11 -10.8036    193.2531    195.4094   9.2430543271e+01   6.2020767622e+00    0.7984907    0.4142289 -60.09  0.002727332    5.776    0.827
        12 -11.7952    151.3032    195.9250   1.0058825566e+02   1.3395413517e+01    0.4140864    0.3367335  35.17  0.002365676    1.126    0.112
        13 -11.4962     66.0245    195.2200   1.1785368006e+02   2.6700004619e+01    0.3091861    0.2277615 -44.34  0.001417487    2.001    0.500
        14  -9.5790     81.7262    195.0978   1.1464624597e+02   2.4605208960e+01    0.2366984     0.203178  49.07  0.001594792    1.218    0.179
        15  -8.8609    159.4990    194.5228   9.8746891138e+01   1.2210974043e+01    0.1298505    0.1128425  41.11 0.0008101272    1.024    0.024
        16  -9.3535    156.5226    190.4661   9.8688115629e+01   1.3410703518e+01    0.1311838    0.1148724  34.34 2.050847e-06    1.053    0.050
        17  -9.4362    184.5608    212.3506   9.6783453523e+01   5.2568814409e+00    0.2039678     0.120101 -46.54  0.001131245    2.142    0.533
        18  -8.3820    164.6514    187.2780   9.6539288462e+01   1.2506744581e+01    0.1300706   0.09846371  66.14 0.0005287551    1.639    0.390
        19  -8.7466     66.1949    187.3491   1.1706038885e+02   2.8257116373e+01    0.1071833   0.08318099 -58.85 0.0001516067    1.525    0.344
        20  -8.2423     15.4911    187.4234   1.2733161075e+02   3.3895639394e+01    0.1089858   0.08320913  77.86 0.0001649995    1.077    0.072
        21 -10.6426    238.2858    185.0541   8.2610840284e+01   2.8561182418e-02    0.1777917    0.1431722  -3.96 0.0007115155    1.097    0.088
        22 -10.4692    153.1379    184.0019   9.8312800105e+01   1.5128872083e+01    0.2747043    0.1787293 -66.98  0.001314159    2.172    0.540
        23  -9.2057     90.8182    183.6622   1.1142804308e+02   2.5567809701e+01    0.2486841    0.1468218  81.32  0.001223729    2.117    0.528
        24 -10.0307    189.1239    178.4663   9.0175221855e+01   9.5052752764e+00    0.3451918    0.2570798  61.87  0.001196132    1.747    0.427
        25 -10.0117    187.9053    173.5301   8.9477223804e+01   1.0520410385e+01    0.3489126    0.1930698 -51.96  0.001568967    2.429    0.588
        26  -9.5197     50.6673    212.7198   1.2225532585e+02   2.5251738244e+01    0.1399527    0.1080457  15.97  0.000920008    2.144    0.534
        27 -11.3782     54.8579    210.9442   1.2134517693e+02   2.5079950406e+01    0.1739907    0.1284007  57.67 0.0002825986    1.112    0.101
        28 -19.1820     26.1285    101.3914   1.1680086108e+02   5.2317394295e+01     17.67035     1.452521 -69.64   0.03472713   10.946    0.909
        29  -9.5529    187.0319    165.7632   8.8130626601e+01   1.1962288936e+01    0.3158888    0.1886224 -49.41  0.001041536    2.015    0.504
        30 -12.8071     75.2150    249.1248   1.2048584393e+02   1.6047829346e+01    0.2868125    0.1548369 -62.70  0.001916456    2.274    0.560
        31  -9.9993      1.9170    162.7736   1.2872524572e+02   4.0161482727e+01    0.1505873    0.1242504  89.27 0.0005365222    1.210    0.173
        32 -11.3938     71.7812    244.6454   1.2075271405e+02   1.7179755448e+01    0.2087472    0.1520957 -82.72 0.0009129448    1.482    0.325
        33 -11.1287     94.1581    157.5123   1.0704108895e+02   3.0590343891e+01     0.263461    0.2431026 -81.13 0.0004047531    1.106    0.096
        34 -12.0101     99.4717    150.9378   1.0469848221e+02   3.1187975700e+01    0.5953089     0.468969 -28.90  0.003170171    1.735    0.424
        35 -10.8997    133.8470    145.8390   9.5525193789e+01   2.6126731160e+01     1.176007    0.2945462 -54.72  0.002927817    5.959    0.832
        36 -10.0107    113.1254    151.4240   1.0149749866e+02   2.8755614350e+01     0.255351    0.1948128 -74.20 0.0005497795    1.389    0.280
        37  -9.6853    174.5857    148.5970   8.7088617708e+01   1.7431587724e+01    0.3017442    0.2206066 -88.21 0.0008709782    2.297    0.565
        38  -9.9877    144.2550    147.4321   9.3451765544e+01   2.3767220442e+01    0.4633551    0.2218193 -62.02  0.001594777    3.343    0.701
        39  -9.5453     92.0409    146.4930   1.0577214032e+02   3.3389272051e+01    0.2045908    0.1318669  41.89  0.001022334    1.559    0.358
        40  -9.2125    115.5447    144.4922   9.9625364476e+01   2.9838467076e+01    0.2483911    0.1804256  78.27 0.0005982363    1.666    0.400
        41 -11.3742    109.4361    138.1180   9.9894486130e+01   3.2350554219e+01    0.6462731    0.3471838 -38.63  0.002620576    2.442    0.590
        42  -9.0662    128.0583    139.4819   9.5592025432e+01   2.8594568713e+01    0.2226593     0.140907  43.59  0.001021764    1.559    0.358
        43 -11.8096     98.3494    136.8800   1.0246538033e+02   3.4550898546e+01    0.2998882    0.2727939  55.79  0.000512714    1.116    0.104
        44 -10.9170    105.8682    130.7771   9.9326281182e+01   3.4648653749e+01    0.3835141    0.3163661 -71.09  0.001098605    1.196    0.164
        45  -9.8626    135.9305    128.0753   9.1185796756e+01   2.9489007755e+01    0.5162084    0.1689582 -42.45  0.001617097    3.307    0.698
        46 -10.2470    116.3204    128.7398   9.6211515425e+01   3.3197107427e+01    0.3248656    0.2576576 -29.38 0.0006611885    1.523    0.343
        47  -9.8192    160.6308    127.3070   8.5252238535e+01   2.4443949316e+01     0.323104    0.2542958 -82.90  0.001522645    1.703    0.413
        48  -9.7946    120.3877    123.7051   9.4049828046e+01   3.3546170119e+01    0.2679266    0.1874812 -41.55 0.0008460121    1.497    0.332
        49  -9.1677    135.0000    119.9624   8.9491818322e+01   3.1425404976e+01    0.2506761   0.08540979 -46.31  0.000797176    2.906    0.656
        50 -10.5825    104.1836    124.3797   9.8421392927e+01   3.6416262709e+01    0.3046255    0.2553284 -31.74 0.0006531304    1.399    0.285
        51  -9.3475    111.0594    118.0938   9.5188231511e+01   3.6597904656e+01    0.2156348    0.2052864 -87.66 0.0003095526    1.024    0.024
        52  -9.7899    231.2067    113.7784   6.8356883832e+01   1.1496776845e+01    0.2441245     0.220573  17.12 0.0007770787    1.123    0.109
        53  -9.5631    167.9710    112.9411   8.0033997567e+01   2.5648053927e+01    0.3620432    0.2510374 -78.72  0.001447728    2.366    0.577
        54 -10.5917    134.6068    106.6739   8.6208501540e+01   3.4369573402e+01     1.006248    0.1430939 -45.54   0.00206691    6.962    0.856
        55 -10.9994    118.7444    110.7216   9.1362562919e+01   3.6776081422e+01    0.6066859      0.38112  62.94  0.002536035    2.038    0.509
        56  -9.7063    205.4201    110.1843   7.1853675999e+01   1.7644116920e+01    0.3173368    0.2091189  40.50  0.000965523    1.591    0.371
        57  -9.7911     73.5292    103.0873   1.0243273659e+02   4.6460968695e+01    0.2161174    0.1278427 -59.11 0.0005138281    1.522    0.343
        58 -12.3539     59.8921    216.9057   1.2085491574e+02   2.3369539177e+01    0.4194041    0.2050138  74.31  0.001845964    2.178    0.541
        59  -9.7936    190.0663     89.7996   6.9225323593e+01   2.4731691551e+01    0.3249848    0.2489174 -53.54  0.001539104    1.411    0.291
        60  -9.0179     73.9814     73.7085   9.4609782564e+01   5.3257055734e+01    0.1881341    0.1798313 -42.69 0.0003759513    1.071    0.066
        61 -10.5379     74.1975    207.6046   1.1737782951e+02   2.3244323475e+01    0.3235178    0.2080042 -46.49  0.001891926    2.319    0.569
        62 -11.5666     69.7710    208.9639   1.1835308145e+02   2.3574475984e+01    0.1947868    0.1375079  65.35 0.0003552757    1.154    0.134
        63 -12.8349    189.3035     34.0515   5.2593024165e+01   3.3521845741e+01    0.6431782    0.6036729  25.59  0.001368414    1.156    0.135
        64 -12.9739     11.4979    206.4452   1.2901934322e+02   3.0574244515e+01    0.3260927    0.2135778  44.65  0.002423369    1.476    0.322
        65 -10.4423      6.5249    206.4610   1.2989948151e+02   3.1028524470e+01    0.1535257    0.1182575  89.95 0.0005498452    1.285    0.222
        66 -10.5487     61.9279    205.5291   1.1957213848e+02   2.5225759867e+01     0.221724     0.185653 -61.37  0.001288476    1.533    0.348
