#   1 NUMBER                 Running object number                                     
#   2 MAG_AUTO               Kron-like elliptical aperture magnitude                    [mag]
#   3 X_IMAGE                Object position along x                                    [pixel]
#   4 Y_IMAGE                Object position along y                                    [pixel]
#   5 X_WORLD                Barycenter position along world x axis                     [deg]
#   6 Y_WORLD                Barycenter position along world y axis                     [deg]
#   7 A_WORLD                Profile RMS along major axis (world units)                 [deg]
#   8 B_WORLD                Profile RMS along minor axis (world units)                 [deg]
#   9 THETA_WORLD            Position angle (CCW/world-x)                               [deg]
#  10 FWHM_WORLD             FWHM assuming a gaussian core                              [deg]
#  11 ELONGATION             A_IMAGE/B_IMAGE                                           
#  12 ELLIPTICITY            1 - B_IMAGE/A_IMAGE                                       
         1  -9.0115     13.0258     30.0651   8.3976030301e+01   6.8993554185e+01    0.3017559    0.1830638 -67.91  0.001348161    2.312    0.567
         2  -8.5497     55.8873     10.0584   5.3702979206e+01   6.6917840198e+01    0.1734504    0.1625863   1.56 0.0005802633    1.328    0.247
         3  -8.2467     90.7339      8.5828   4.0973480797e+01   6.0248453884e+01     0.204476    0.1574122 -47.55 0.0008568294    1.692    0.409
         4  -7.8949     28.2885      9.6576   6.6734179562e+01   7.0975899278e+01    0.1000865    0.0946179 -35.71 0.0003921264    1.647    0.393
         5  -8.5237     33.7364      5.1998   6.1503187693e+01   7.0893931204e+01    0.2575708    0.1455038 -44.54  0.001373978    2.458    0.593
         6  -8.4282     79.0423      3.5463   4.2164522697e+01   6.3208119878e+01    0.2259567    0.1673636 -36.35 0.0008930286    1.648    0.393
         7  -7.7607     44.7510      2.9978   5.4926607935e+01   6.9556871262e+01    0.1466338   0.09218727 -21.61 0.0004307245    1.512    0.338
         8  -7.8334     15.5502      2.5150   7.0308746475e+01   7.3385036354e+01    0.1151676   0.08705059 -11.38 0.0001266085    1.038    0.037
         9  -8.1112     62.8716      1.4451   4.6615639002e+01   6.6595279939e+01    0.1768085    0.1101478  48.34 0.0009942804    1.530    0.346
        10  -7.4108     39.6569      1.2932   5.6404275300e+01   7.0531107296e+01   0.09937536   0.09762692  30.28 0.0007029164    1.659    0.397
        11  -9.1867    224.6520    245.6804   7.1304581464e+01  -7.5865931250e+00    0.2440256    0.1624371  -4.36  0.001576862    1.407    0.289
        12 -10.2795    248.6253    241.9957   6.6505594176e+01  -1.0276970850e+01    0.7421315    0.2257911 -36.39  0.003408551    3.532    0.717
        13  -9.9894    246.5213    229.3083   6.4770272817e+01  -8.5141451629e+00    0.5107693    0.2248689 -30.17   0.00248778    2.200    0.545
        14  -9.2683    232.8861    246.2007   6.9915806247e+01  -8.7450569755e+00    0.3764036    0.1798835 -27.25  0.001719516    2.166    0.538
        15  -8.4643     94.1229    249.4503   9.7082787700e+01   1.1061189416e+01    0.2603324    0.1378909  62.44   0.00137201    2.111    0.526
        16  -9.5723    223.6729    242.3511   7.0958481849e+01  -7.0467031807e+00    0.2327582    0.2117306 -42.16  0.001303458    1.780    0.438
        17  -8.7661     13.4835    247.4383   1.1181014730e+02   2.1167215771e+01     0.106525   0.07541709  64.41 0.0001299611    1.008    0.008
        18  -9.2266    146.9500    245.5921   8.6186012418e+01   3.8713182856e+00    0.2617939    0.1755609  58.81   0.00121605    1.824    0.452
        19  -9.2678    120.1479    245.0648   9.1484912106e+01   8.0264864963e+00    0.3317057    0.2161875  78.16  0.001533272    2.261    0.558
        20  -8.6415     67.5313    245.0327   1.0184161714e+02   1.5423069168e+01    0.1528472    0.1069963 -81.27 0.0005321003    1.530    0.347
        21  -8.3335     50.1622    243.8280   1.0504259877e+02   1.7802381813e+01    0.3055324    0.1150162  87.95  0.001232544    4.324    0.769
        22  -8.4506    139.4268    244.2896   8.7526272021e+01   5.2296174801e+00    0.1465819    0.1207195 -81.24 0.0009429074    1.639    0.390
        23  -8.6639     77.7471    243.2031   9.9714140618e+01   1.4407565548e+01    0.2859806    0.1268111  59.31  0.001376143    2.399    0.583
        24  -8.4625    201.9270    242.6786   7.5036563563e+01  -4.0143865559e+00    0.1958922    0.1626864 -55.80 0.0009041774    1.955    0.488
        25  -8.7278    169.1350    243.1058   8.1445958794e+01   8.4264613063e-01    0.2211165    0.1550033  41.43 0.0006914921    1.300    0.231
        26  -7.7837     34.5211    243.5475   1.0790865572e+02   1.9658378904e+01    0.1125386   0.08205827  62.58 0.0001631627    1.016    0.016
        27  -8.9444    194.3700    240.0921   7.6082469077e+01  -2.5513738603e+00    0.3043775    0.1868128 -45.84   0.00136477    2.152    0.535
        28  -9.2390    183.0531    239.9512   7.8255027857e+01  -8.2581143965e-01    0.3640618    0.2415027  58.70   0.00191694    2.438    0.590
        29  -9.3665    160.0918    240.1344   8.2831290037e+01   2.6871502436e+00    0.3003864    0.2284617 -81.31  0.001268817    2.220    0.550
        30  -8.1805    153.5883    241.8013   8.4362432239e+01   3.4386409846e+00    0.1487446    0.1229423 -71.44 0.0009466015    1.699    0.411
        31  -8.1622     88.1805    242.1810   9.7567819592e+01   1.3162955972e+01    0.1653938    0.1161102  65.50 0.0005871642    1.361    0.265
        32  -9.0958    241.4752    238.2441   6.7130518034e+01  -8.9287873527e+00    0.4729133     0.202916 -13.83  0.001957854    3.844    0.740
        33  -8.3746    146.3779    239.2285   8.5474757533e+01   4.9669650571e+00     0.147719     0.121967 -73.46 0.0004664379    1.644    0.392
        34  -8.9580    136.2991    239.0603   8.7501867970e+01   6.5621693702e+00    0.3184656    0.1335286  50.19  0.001367735    2.583    0.613
        35  -9.2159    230.9464    236.8535   6.8765440685e+01  -7.3598284971e+00    0.2553428    0.2200553 -57.56  0.001289379    2.229    0.551
        36  -8.2766    209.1427    238.1774   7.2979470110e+01  -4.4653644518e+00    0.1491172    0.1350778  20.85 0.0004812013    1.354    0.261
        37  -7.8266    129.0124    238.4930   8.8917713428e+01   7.7833305336e+00    0.1828145   0.08472583  52.84 0.0008086959    2.424    0.588
        38  -8.3236     25.6272    236.7713   1.0915164151e+02   2.1875362756e+01    0.2467933   0.09132628  72.61  0.001143615    3.049    0.672
        39  -9.1144    217.3229    235.6857   7.1057689541e+01  -5.3140128447e+00    0.2182113    0.1745364  25.99 0.0006480129    1.238    0.192
        40  -9.2720    213.6961    231.6313   7.1075879101e+01  -4.2539459354e+00    0.2821822    0.2315729  61.31  0.001477602    2.139    0.533
        41  -9.0129    203.1848    234.5234   7.3529152453e+01  -3.0976153096e+00    0.2827955    0.2084666 -58.60  0.001333088    2.411    0.585
        42  -9.8263    175.7377    233.1744   7.8690040258e+01   1.3049892864e+00    0.4414795    0.2322988 -54.34  0.002118177    2.891    0.654
        43  -7.3770     57.3649    236.6785   1.0315813290e+02   1.8246742146e+01    0.1305199   0.06642273  60.52 0.0007039598    1.785    0.440
        44  -8.5525    170.3862    235.3054   8.0078546448e+01   1.8201033521e+00    0.1453158    0.1240132 -55.45 0.0005703339    1.576    0.366
        45  -8.0369    153.2754    235.6358   8.3586794747e+01   4.4627090589e+00    0.1209319   0.09290365  63.72 0.0007006387    1.668    0.400
        46  -9.1748    109.3017    234.4579   9.2490423716e+01   1.1488674684e+01    0.4869188     0.193789  51.58  0.001587942    2.614    0.617
        47  -8.4183     99.7682    234.1457   9.4419815864e+01   1.2958594598e+01    0.2587038    0.1578747  82.40  0.001338372    2.274    0.560
        48  -8.9346     78.5698    234.2182   9.8749032687e+01   1.5945135632e+01    0.2651557    0.1558696  76.26  0.001001869    1.981    0.495
        49  -8.2260    122.9647    233.9276   8.9602241600e+01   9.5012240079e+00    0.2031219    0.1335706  61.31 0.0007786068    1.718    0.418
        50  -8.6229     92.7861    232.2929   9.5661446071e+01   1.4313075163e+01    0.3257252    0.1940927  87.33  0.001692775    2.267    0.559
        51  -9.2525     68.6332    232.1712   1.0056706650e+02   1.7660444547e+01    0.4806539    0.2093538  67.14  0.002067377    3.131    0.681
        52  -8.9245    141.7430    230.9960   8.5324208666e+01   7.0577846636e+00    0.6360818    0.2306693  53.33  0.001885864    5.579    0.821
        53  -8.5879    132.6289    232.4910   8.7416276446e+01   8.2443923106e+00    0.2099469     0.163859 -62.92  0.000731699    1.585    0.369
        54  -9.2714    128.2863    227.6973   8.7702516065e+01   9.7690560533e+00    0.3910005    0.2439889  69.14  0.001901722    2.378    0.579
        55  -9.4966    186.4481    230.4622   7.6142121615e+01   3.5420449770e-02    0.3206626    0.2500812 -75.77  0.001465868    2.445    0.591
        56  -9.0448    236.0516    230.0511   6.6730570448e+01  -7.2066250013e+00    0.3122007    0.1500919 -29.38  0.001054903    2.070    0.517
        57  -8.5440      1.6009    230.7067   1.1317634821e+02   2.5369580734e+01    0.1877886    0.1010083  79.68  0.001242401    1.501    0.334
        58  -9.8877    149.6704    225.9480   8.2964261409e+01   6.6408874054e+00    0.5961657    0.3762876 -89.00  0.002386306    4.154    0.759
        59  -8.2646    229.7913    228.3262   6.7563686134e+01  -6.1219904578e+00     0.162617    0.1299957  -6.60 0.0007511534    1.159    0.137
        60  -8.7443    162.2618    227.6513   8.0598967995e+01   4.3193236105e+00    0.2936311      0.19796  58.27  0.001551153    1.959    0.489
        61  -7.8340    119.9808    227.4788   8.9427716248e+01   1.1113749811e+01    0.1819406   0.08860402  54.12 0.0006039564    2.283    0.562
        62  -8.9085    206.0155    225.6043   7.1541950696e+01  -2.2762574722e+00    0.2067045     0.175194 -44.30  0.000807546    1.618    0.382
        63  -8.0523    199.9890    225.9859   7.2768502876e+01  -1.4087127309e+00    0.1700865    0.1526487  56.09 0.0005554153    1.606    0.377
        64  -8.3675    177.2091    226.6181   7.7389874012e+01   2.0802062257e+00    0.1887612     0.104098  28.38 0.0007646823    1.646    0.392
        65  -7.8400     49.2104    226.2402   1.0397434507e+02   2.1246323400e+01    0.1732871   0.08176097 -89.20  0.000499429    2.411    0.585
        66  -9.0042     94.0651    223.8934   9.4497459094e+01   1.5716998459e+01    0.3596398    0.1889787  62.52  0.001546211    2.264    0.558
        67  -7.4284     72.3029    225.3618   9.9209293150e+01   1.8487510167e+01    0.1114656   0.09543595 -25.58 0.0001827638    1.727    0.421
        68  -8.8353    216.5045    223.4540   6.9190685614e+01  -3.5518036582e+00    0.2230475    0.2085628  24.49 0.0007988146    1.431    0.301
        69  -8.9447    180.5823    223.8462   7.6270709521e+01   1.9716831251e+00    0.2544986    0.2014131  49.78 0.0009072191    1.480    0.324
        70  -8.8943    104.6793    223.3989   9.2181643677e+01   1.4229001458e+01    0.3142568    0.2022787  75.97  0.001596249    2.012    0.503
        71  -7.7330     38.2839    224.6175   1.0601873558e+02   2.2834254683e+01    0.1269373   0.06633301  65.89 0.0007010467    1.732    0.422
        72  -8.6514    172.9161    222.6292   7.7639133547e+01   3.4047202676e+00    0.2202512    0.1758443 -68.05 0.0007250726    1.889    0.471
        73  -8.3462    163.0140    222.5130   7.9667081116e+01   5.0413661596e+00     0.255384    0.1726655  47.65  0.001117305    1.498    0.332
        74  -8.7161    158.9357    220.2061   8.0166226746e+01   6.0999013304e+00     0.250047     0.176028  54.58 0.0008831686    1.640    0.390
        75  -7.7838    113.5466    223.5457   9.0304475222e+01   1.2840245932e+01    0.1311959    0.1087772  49.36  4.31097e-05    1.043    0.042
        76  -8.0444    194.5519    232.7081   7.4905047741e+01  -1.5421415003e+00    0.1421472    0.1217909 -43.74 0.0009274102    1.563    0.360
        77  -9.1817    239.0963    221.1452   6.4673087027e+01  -6.4892610141e+00    0.3205263     0.191188 -24.07  0.001598745    1.580    0.367
        78  -9.4070    225.5019    221.5811   6.7200248952e+01  -4.6178890815e+00    0.2106017     0.188708  -9.48 0.0007633436    1.330    0.248
        79  -9.2676    192.4338    221.2032   7.3465682906e+01   4.8327546427e-01    0.2691032    0.2404624  74.20  0.001124023    1.731    0.422
        80  -8.0264    140.4509    222.5186   8.4419935900e+01   8.7349602219e+00     0.133016    0.1116391  43.56 0.0002227444    1.086    0.079
        81  -8.9166     82.0895    220.7485   9.6704223986e+01   1.8051012713e+01    0.2928605    0.2312981  42.26  0.001264674    1.171    0.146
        82  -7.9511     73.4581    220.9296   9.8547890476e+01   1.9206073015e+01     0.177379   0.09242713  78.53 0.0008084667    2.588    0.614
        83  -7.8397     27.4083    220.8008   1.0789786178e+02   2.4774447245e+01    0.1486902   0.09294607 -70.15 0.0009432998    1.642    0.391
        84  -8.0429    202.5243    219.9894   7.1278109809e+01  -9.2541998741e-01    0.1728363    0.1214243 -33.08 0.0004807735    1.539    0.350
        85  -9.0571    120.5900    219.0134   8.8206446290e+01   1.2582710032e+01    0.4243949    0.2168058  60.51  0.001763068    2.816    0.645
        86  -8.3286    210.1191    218.7772   6.9605263048e+01  -1.9252475365e+00    0.1951092    0.1611768 -32.78 0.0006298256    1.425    0.298
        87  -9.2372    133.2351    216.0914   8.5057110681e+01   1.1080590617e+01    0.5020751    0.2942747  71.55  0.002013493    3.373    0.704
        88  -8.6990     62.1399    217.3329   1.0059280793e+02   2.1422441462e+01    0.3125778    0.1653968  69.20  0.001355429    2.065    0.516
        89  -8.9251     51.6962    217.4040   1.0277693809e+02   2.2711894999e+01     0.259917     0.161995  80.04 0.0008055263    1.561    0.359
        90  -8.6470    169.4199    216.0680   7.7317124852e+01   5.0582793393e+00    0.2602299    0.2134069 -88.36  0.001038404    1.917    0.478
        91  -9.1703    153.7199    215.5120   8.0548919990e+01   7.7797620112e+00    0.3159671    0.2319689  10.17  0.001393843    1.568    0.362
        92  -8.6062    142.9313    216.4236   8.3004761704e+01   9.4172918178e+00    0.2307761     0.187846 -88.24 0.0007876294    1.651    0.394
        93  -8.8094    249.2573    218.1190   6.2373824390e+01  -7.4868060816e+00    0.2599787    0.2045972  55.01  0.001583583    2.411    0.585
        94  -8.9419    232.4229    214.6324   6.4727393916e+01  -4.6790547375e+00    0.2367345    0.2120039 -46.22   0.00100392    1.726    0.421
        95  -9.4659    214.1654    212.0463   6.7660964063e+01  -1.5706170749e+00    0.3390404    0.2744364  58.64  0.001598853    1.953    0.488
        96  -8.2281    185.6604    214.0807   7.3637856803e+01   2.6911386641e+00    0.1809399    0.1698171 -62.35 0.0007767997    1.464    0.317
        97  -8.8595     92.9241    213.5072   9.3563935251e+01   1.7932301408e+01    0.3743947    0.1938658  61.97  0.001567231    2.342    0.573
        98  -9.3573     73.3571    211.8746   9.7666228489e+01   2.1055115652e+01    0.6393836    0.2404156  58.51  0.002351612    3.596    0.722
        99  -7.8906    197.6735    213.7012   7.1158777770e+01   7.9269231186e-01    0.1352458   0.08999988   6.80 0.0003373198    1.634    0.388
       100  -8.9164    161.8330    211.9632   7.8255200299e+01   7.0354919799e+00    0.2811573    0.2044071 -59.67   0.00152146    1.822    0.451
       101  -8.0875    106.5517    212.7494   9.0465185598e+01   1.6009902387e+01    0.1689981    0.1242948 -85.83 0.0009336912    1.618    0.382
       102  -7.9603    224.8305    212.0639   6.5660734220e+01  -3.2024767073e+00    0.1710349    0.1414894 -53.24 0.0007176904    1.914    0.477
       103  -9.0196    204.3745    210.7206   6.9318780300e+01   1.7286035822e-01    0.2425891    0.2131556 -51.62 0.0007827932    1.599    0.375
       104  -8.3638    192.4631    210.4684   7.1641375471e+01   2.1479801030e+00     0.199841    0.1781802  70.24 0.0005938914    1.653    0.395
       105  -9.3441    175.6418    209.7935   7.4980171351e+01   5.0691643849e+00    0.3734242     0.283653  76.53  0.001703068    2.298    0.565
       106  -8.6722    148.0914    210.5199   8.0987385480e+01   9.6244892258e+00    0.2713843    0.2048068  76.41  0.001119777    1.914    0.478
       107  -8.9661    116.3444    210.1408   8.7944068660e+01   1.4973311389e+01     0.343855    0.2219874  70.57  0.001033567    2.068    0.516
       108  -9.1958      7.2155    210.1246   1.1121697289e+02   2.8892595914e+01    0.4264057    0.1172737  71.66  0.001421118    5.602    0.821
       109  -8.8435     85.5081    209.0721   9.4688209338e+01   1.9925430568e+01    0.3043242    0.1703431  76.56  0.001167023    2.469    0.595
       110  -7.7266     32.4774    209.9955   1.0617431445e+02   2.6434266156e+01    0.1736478   0.07665071  74.64 0.0008093697    2.496    0.599
       111  -9.1984    236.5482    208.1293   6.2822417554e+01  -4.3873944087e+00    0.2574497     0.233577 -59.24  0.001164552    1.880    0.468
       112  -8.0756     46.0394    209.0493   1.0327520657e+02   2.5110606055e+01     0.207321    0.1149436  66.41 0.0008244552    1.721    0.419
       113  -9.3999    246.4611    207.1288   6.0896807350e+01  -5.6705735396e+00    0.2469127    0.1858089 -27.87 0.0006834094    1.370    0.270
       114  -8.3603    139.2209    207.8636   8.2523441572e+01   1.1622971784e+01    0.2569361    0.1966947  78.06  0.001067868    1.768    0.434
       115  -8.2575    126.3880    208.2316   8.5432603651e+01   1.3704982555e+01    0.1682631      0.13061 -75.23   0.00042991    1.576    0.366
       116  -7.8123    156.3611    207.6754   7.8736023703e+01   8.7302810146e+00    0.1386721    0.1025809  63.96 0.0007042113    1.784    0.439
       117  -9.1166     99.4136    205.8552   9.1178029076e+01   1.8510920992e+01    0.3859341    0.2247782  71.68  0.001149126    2.394    0.582
       118  -8.0110     11.8403    206.8234   1.1013869180e+02   2.9147987281e+01    0.1625415    0.1011182  66.63 0.0006008706    1.296    0.228
       119  -8.9805    183.8060    203.7185   7.2229409487e+01   4.7056162199e+00    0.3225687    0.2358278  65.24  0.001331309    2.190    0.543
       120  -8.2164    109.0408    205.0235   8.8886767651e+01   1.7171119122e+01    0.2119323    0.1485446  69.08 0.0007275557    1.642    0.391
       121  -8.4042     56.0591    204.7743   1.0074457204e+02   2.4804035474e+01     0.228331    0.1394118  83.23  0.001019323    1.686    0.407
       122  -9.1275    194.7774    203.4368   6.9932433124e+01   2.8940346852e+00    0.2619097    0.2505064  -2.66  0.001051166    1.240    0.194
       123  -9.6366    192.3591    197.3094   6.9310162555e+01   4.3162198789e+00    0.4214481    0.3364826 -76.35  0.001687922    2.165    0.538
       124  -9.5936    163.9113    202.9217   7.6308234641e+01   8.2823538074e+00     0.459839    0.2490505  52.08  0.001253968    2.234    0.552
       125  -8.5575    131.1510    203.7608   8.3697521984e+01   1.3780635824e+01    0.2937447    0.2016023  75.42  0.001273498    2.131    0.531
       126  -9.2978    250.1447    202.0187   5.9329919193e+01  -5.5016067754e+00    0.3170062    0.1615984 -34.52  0.001139584    1.879    0.468
       127 -10.1596    245.9883    193.7861   5.8509117127e+01  -3.7684736718e+00    0.5326954    0.3643917 -60.39  0.002153475    3.461    0.711
       128  -8.3103     48.6193    201.8290   1.0210364054e+02   2.6338592071e+01    0.2703392    0.1230621  77.32  0.001146147    2.898    0.655
       129  -8.0382    222.0255    201.0405   6.4183627167e+01  -1.1707567088e+00    0.1755837    0.1629517 -68.22 0.0006939708    1.721    0.419
       130  -8.3214     80.1329    201.1187   9.4976902096e+01   2.2371293565e+01     0.268615    0.1362346  57.86  0.001051589    2.111    0.526
       131  -9.5658    237.0635    198.0925   6.0884478239e+01  -3.0531572604e+00    0.3849803    0.1579147 -40.48  0.001723859    2.616    0.618
       132  -9.4522    149.6721    198.6093   7.8709533991e+01   1.1577081657e+01    0.4023995    0.2881865  79.42  0.001386186    2.272    0.560
       133  -8.7590    123.8663    199.0054   8.4629919850e+01   1.5960748260e+01    0.2635984    0.1917886  89.60 0.0009095635    1.858    0.462
       134  -9.3177    113.0037    198.3263   8.7034729142e+01   1.7907986227e+01    0.4587243    0.2522329  65.24  0.001854201    2.746    0.636
       135  -9.0630    176.8054    198.1949   7.2715776872e+01   6.8689491297e+00    0.3549418    0.2391436 -68.79  0.001593759    2.710    0.631
       136  -8.5816    172.4568    191.6039   7.2452417820e+01   8.8240415046e+00    0.3592544    0.2520109  89.83  0.001415955    3.178    0.685
       137  -7.6025     99.3446    199.3287   9.0337166189e+01   1.9883451539e+01    0.1322356    0.1065925 -11.01 0.0007050612    1.749    0.428
       138  -9.2153     88.5101    197.7273   9.2637654198e+01   2.1877484622e+01    0.4946301    0.2698303  79.89  0.002017122    2.940    0.660
       139  -8.2138    202.2835    197.4102   6.7325087957e+01   2.6099955827e+00    0.2019788    0.1616423 -54.91 0.0006942635    1.741    0.426
       140  -9.0054     61.4131    196.8686   9.8772165175e+01   2.5833118826e+01    0.4327529    0.2011928  66.57  0.001808823    2.782    0.641
       141  -7.8916     29.3888    197.1871   1.0589496711e+02   2.9473297156e+01    0.1739213   0.09516042  86.87 0.0009472556    1.720    0.419
       142  -8.1064     12.9888    197.5048   1.0936994713e+02   3.0994033441e+01    0.1695182   0.05991403  52.57 0.0008088202    2.424    0.587
       143  -8.8229    216.0424    195.5207   6.4285596301e+01   6.2780555760e-01    0.2437531    0.2059654 -61.24  0.001022492    1.841    0.457
       144  -8.2661    133.3674    196.1229   8.1994991440e+01   1.4916547464e+01    0.1854122    0.1338121 -70.35 0.0009319535    1.757    0.431
       145  -8.1702     53.6856    196.3489   1.0046954009e+02   2.6917134335e+01    0.2126157    0.1217693  65.02  0.001099996    1.739    0.425
       146  -7.8592     36.3102    196.6351   1.0435292426e+02   2.8860649581e+01    0.1349831   0.07338966  66.24 0.0007038827    1.754    0.430
       147  -8.8113    224.6562    193.8570   6.2346436236e+01  -5.0676177965e-01    0.3204814    0.1888399 -48.63  0.001331663    2.350    0.574
       148  -8.8811    140.6038    200.9915   8.1134515888e+01   1.2701821488e+01    0.3431684    0.2415087  72.68  0.001176048    2.065    0.516
       149  -8.8850    185.2874    194.6076   7.0274858456e+01   6.0064921248e+00    0.2428684    0.2312897  88.47  0.000637581    1.407    0.289
       150  -8.9269    160.9590    194.0006   7.5403153604e+01   1.0445156854e+01    0.3223109    0.2493157  80.71  0.001061068    1.986    0.496
       151  -8.2236    230.9726    193.9901   6.1209620969e+01  -1.5229595471e+00     0.177993    0.1629127 -61.06 0.0006477675    1.714    0.417
       152  -8.7267     76.9999    193.7872   9.4831155297e+01   2.4406311939e+01    0.2204278    0.1788477 -89.65 0.0006435544    1.208    0.172
       153  -8.7640     43.6046    192.6804   1.0239656193e+02   2.8916471228e+01    0.3803364    0.1826823  77.12  0.001721578    2.489    0.598
       154  -8.1064    205.3571    191.7283   6.5646402141e+01   3.0142963071e+00    0.1818774      0.11882 -26.62 0.0007063082    1.548    0.354
       155  -9.2086    243.1611    200.7275   6.0297954227e+01  -4.3260951912e+00     0.290179    0.1749044 -35.36 0.0009071997    1.677    0.404
       156  -8.0145    198.8903    191.6001   6.6915063906e+01   4.1456257079e+00    0.1809941    0.1214906  45.95 0.0005263109    1.630    0.386
       157  -7.9995    179.0206    191.2689   7.0979482503e+01   7.7065607163e+00    0.1837565    0.1575916 -73.07 0.0006775124    1.641    0.391
       158  -9.0148    139.3995    190.2424   7.9628911232e+01   1.5040373900e+01    0.3548895    0.2522323  75.54  0.001344728    2.071    0.517
       159 -10.4605     92.6136    188.7136   9.0474522423e+01   2.3220427202e+01     1.033852    0.2699634  46.66  0.003220645    3.934    0.746
       160  -8.5527      6.5078    190.0240   1.1027492738e+02   3.3160698565e+01     0.176533   0.09370167 -83.92 0.0007521814    1.584    0.369
       161  -8.8423    237.2606    188.0856   5.8949648173e+01  -1.6261640128e+00    0.2923146    0.1525235 -31.69 0.0008769443    1.788    0.441
       162  -9.0484    216.6019    187.8513   6.2713161485e+01   1.7422082788e+00    0.2784784    0.2191038 -48.37 0.0008403182    1.637    0.389
       163  -8.3314    148.4637    189.1395   7.7352859909e+01   1.3633749048e+01    0.2249874     0.186691  59.31   0.00084613    1.338    0.253
       164  -8.9208    129.2079    188.5216   8.1717517735e+01   1.7196386468e+01    0.2870155    0.2133322  71.37 0.0007342717    1.688    0.408
       165  -9.5943    120.7686    186.3480   8.3361174806e+01   1.9123738545e+01    0.5234077    0.2952901 -74.54  0.002079955    2.830    0.647
       166  -8.5002    210.9814    201.5480   6.6381349301e+01   5.1678734190e-01    0.2236896    0.1819937 -49.37 0.0007453675    1.663    0.399
       167  -9.6985    248.8864    185.4569   5.6423861610e+01  -3.0128382091e+00    0.3831253    0.2381649  33.31  0.002182617    1.624    0.384
       168  -8.3439    230.5332    187.3133   6.0009928338e+01  -4.5122021330e-01    0.2118541    0.1789094 -39.65 0.0008090704    1.448    0.310
       169  -9.0473    191.3884    187.0805   6.7586078184e+01   6.2355028939e+00    0.3130285     0.236499 -69.78   0.00112628    2.215    0.548
       170  -9.2818    155.9528    187.1790   7.5298229206e+01   1.2657473415e+01    0.3661622    0.2308067 -58.19 0.0008347639    2.006    0.501
       171  -9.0655     54.7694    186.6192   9.9234886706e+01   2.8948730325e+01     0.412594    0.2051872  73.16  0.001700084    2.577    0.612
       172  -8.5545     34.1009    187.7079   1.0410347479e+02   3.1063150149e+01     0.287925    0.1452098  71.99  0.001416593    2.085    0.520
       173  -9.0729     16.5798    187.9580   1.0800034905e+02   3.2727981750e+01    0.1662331    0.1642322  29.10 0.0003325168    1.385    0.278
       174  -8.7877    164.9727    186.7770   7.3202179446e+01   1.1083395295e+01    0.2628665    0.2339968  87.24  0.001105568    1.466    0.318
       175  -9.1703    109.6141    185.7710   8.5948245752e+01   2.1140331970e+01    0.3841076    0.2589155  78.69  0.001188371    2.008    0.502
       176  -8.5784    202.8089    184.4422   6.4747674117e+01   4.6662020688e+00    0.2446715    0.1800241 -54.01 0.0007217875    1.830    0.454
       177  -8.6672    183.0627    184.7409   6.8882742282e+01   8.1511701879e+00    0.2584642    0.2311144 -66.09 0.0008351813    1.467    0.319
       178  -8.9777     66.6883    184.1182   9.6118447834e+01   2.7987593979e+01    0.3991868    0.2214781  72.25  0.001148688    2.224    0.550
       179  -8.8881    210.1097    183.8156   6.3180429727e+01   3.4993678464e+00    0.2477998    0.1834765 -25.35 0.0005812468    1.304    0.233
       180  -9.0216    174.2695    183.3106   7.0501110629e+01   1.0026219533e+01    0.2849193    0.2382334 -65.72 0.0006048758    1.574    0.365
       181  -8.6974    224.0845    183.0605   6.0366088529e+01   1.2556527398e+00    0.2019902    0.1758892  -8.95 0.0006361624    1.091    0.083
       182  -9.0301     44.6174    182.2006   1.0117176093e+02   3.1153536445e+01    0.3703037    0.1810451  65.60  0.001076932    2.298    0.565
       183  -8.1738      1.9528    183.4991   1.1086149279e+02   3.4943018981e+01    0.1557755    0.1020645  39.68  0.001019036    1.564    0.361
       184  -9.2732    147.6033    180.4796   7.5987732611e+01   1.5531383803e+01    0.3365553    0.2772835  81.17 0.0009527738    1.575    0.365
       185  -7.7031     19.6649    182.3812   1.0692550423e+02   3.3678618007e+01    0.1364774   0.06932157  65.60 0.0007011188    1.877    0.467
       186  -8.4812    235.2001    181.4201   5.8018071551e+01  -3.0061167703e-01    0.1617119     0.121496  43.49 0.0003914087    1.584    0.368
       187  -9.5603     25.5291    178.4094   1.0528277806e+02   3.4019889058e+01    0.6440538    0.2388589  77.56  0.002277651    4.203    0.762
       188  -8.6736    240.4097    180.2115   5.6860979737e+01  -9.4422987160e-01    0.1761141    0.1120676 -39.76  0.000667013    1.651    0.394
       189  -8.5524    244.4718    169.0474   5.3935459018e+01   1.0012509279e-01    0.1883458    0.1781367 -26.29 0.0007317217    1.328    0.247
       190  -8.6034    250.5154    172.1943   5.3551689324e+01  -1.3248219508e+00    0.2371406    0.1538929 -34.61  0.001337218    1.436    0.304
       191  -9.5815    248.9635    177.1965   5.4801214545e+01  -1.8244319263e+00    0.3273418    0.2599005 -46.54  0.001276334    1.647    0.393
       192  -8.6943    247.4444    173.4980   5.4324820000e+01  -1.0416464959e+00    0.2680597    0.1525019 -32.53 0.0009543518    1.575    0.365
       193  -9.4199    191.5134    178.1379   6.5808163684e+01   7.7927612175e+00    0.2854406    0.2643234  77.12 0.0006056731    1.442    0.306
       194  -8.2569    169.3245    178.4953   7.0658603683e+01   1.1859968511e+01    0.2274888     0.179366 -70.01  0.000752937    1.763    0.433
       195  -8.5727    137.6601    178.8993   7.8041888149e+01   1.7692425865e+01    0.2702264    0.2106552  78.54  0.001142497    1.681    0.405
       196  -8.6335    205.0586    177.5629   6.2934178463e+01   5.4373937547e+00    0.2578306    0.1893542 -50.43 0.0008013857    1.691    0.408
       197  -8.5030    128.9973    177.2110   7.9820938171e+01   1.9629086152e+01    0.2543107    0.2002507  87.37 0.0006687998    1.615    0.381
       198  -9.0341     35.6706    176.2137   1.0271143794e+02   3.3502781447e+01    0.4797935    0.1940992  78.27  0.001716705    3.919    0.745
       199  -8.8481    231.1041    176.7312   5.7822754187e+01   1.0886954061e+00    0.2224814    0.1708176 -37.59 0.0008734167    1.389    0.280
       200  -8.5213    217.5917    176.9509   6.0371884217e+01   3.3363718977e+00    0.2230823    0.2026828 -44.85 0.0008737603    1.381    0.276
       201  -7.6584     97.5090    177.4435   8.7626841274e+01   2.4975202140e+01    0.1384583    0.1321576  53.31 0.0002332175    1.067    0.063
       202  -9.1136     89.2500    176.6831   8.9575496141e+01   2.6447575060e+01    0.3038447    0.1996903  68.24 0.0008728635    1.766    0.434
       203  -9.2624     58.6995    175.4284   9.7030990182e+01   3.1026585409e+01    0.5167109    0.2172822  62.24  0.001859419    3.505    0.715
       204  -9.4738     56.0111    170.7757   9.7142954438e+01   3.2451829603e+01    0.5394977    0.2540082  72.86  0.002008277    3.349    0.701
       205  -8.8524     13.0892    176.4239   1.0797164255e+02   3.5596133243e+01     0.280675    0.1491117  75.01  0.001202963    1.753    0.430
       206  -7.9345    211.6202    176.1769   6.1364119772e+01   4.5072085727e+00    0.1944433     0.120165 -25.00 0.0008368592    1.656    0.396
       207  -9.0185    182.9530    175.7508   6.7139029119e+01   9.8170546348e+00    0.2530075    0.2075894 -46.40 0.0005941073    1.365    0.267
       208  -9.1398    158.6163    174.6327   7.2325017961e+01   1.4645634827e+01    0.3425625    0.2691912 -86.21 0.0008038355    1.869    0.465
       209  -9.3233    104.4702    174.7405   8.5456362842e+01   2.4449549728e+01    0.5585738    0.2927709  62.93  0.001947058    2.911    0.656
       210 -10.5639     76.0534    170.4498   9.2010473729e+01   2.9857418535e+01     1.185641    0.4714378 -76.54  0.003742074    4.257    0.765
       211  -9.7182     81.4413    155.1415   8.8237399650e+01   3.2716814596e+01     0.555197    0.4577869 -60.15  0.001960559    1.197    0.164
       212  -8.1808    224.3220    173.9859   5.8510254628e+01   2.6631846689e+00    0.1918257    0.1566482 -24.13 0.0005797791    1.154    0.133
       213  -7.8856    241.4770    173.5377   5.5350826743e+01  -1.0440793196e-01    0.1335141    0.1084339  -5.92 6.016884e-05    1.050    0.047
       214  -9.5071    175.7474    171.9316   6.7932859425e+01   1.1902407994e+01    0.3690993     0.240674 -47.72  0.001044959    1.685    0.406
       215  -8.2490    143.0516    172.5211   7.5566742398e+01   1.8032195588e+01    0.2665155    0.2088982 -75.06  0.000732935    1.637    0.389
       216  -8.5557    134.8357    171.5449   7.7364404345e+01   1.9779422092e+01    0.2779167    0.1992585 -74.99 0.0008764165    1.872    0.466
       217  -9.0472     45.1117    170.7845   9.9866046416e+01   3.3737488663e+01    0.3332181    0.1874846  82.76  0.001274547    1.958    0.489
       218  -8.5136    205.9174    170.4413   6.1313444694e+01   6.5101401830e+00    0.2542543    0.1915895 -51.66 0.0007192208    1.646    0.392
       219  -9.4561    121.3316    170.1727   8.0443221499e+01   2.2553037435e+01    0.3779454    0.2714582 -84.53  0.001019237    1.877    0.467
       220  -9.2104    230.1333    169.3274   5.6500346188e+01   2.4233019004e+00     0.369581    0.1700563 -45.37  0.001558207    2.531    0.605
       221  -8.4294    198.6419    170.0241   6.2690016147e+01   7.9247038915e+00    0.2151183    0.1755821 -52.07 0.0008823532    1.488    0.328
       222  -8.5888    149.9292    169.4521   7.3333574542e+01   1.7366720992e+01    0.2666801    0.2145765 -76.85  0.001039122    1.619    0.382
       223  -8.2932    237.2918    169.0586   5.5174559020e+01   1.2672219691e+00     0.194658    0.1484984 -24.45 0.0009605504    1.170    0.145
       224  -9.2171    167.0645    168.3875   6.9148773482e+01   1.4268646893e+01    0.3567179    0.2637104  72.02  0.001053779    2.030    0.507
       225  -8.1377     88.7083    168.5592   8.8476421139e+01   2.8414274060e+01    0.2418223    0.1675663  85.90  0.001082546    1.737    0.424
       226  -8.4591    218.8241    167.9337   5.8298176125e+01   4.6136298165e+00    0.2363424    0.1722453 -35.79 0.0006806138    1.351    0.260
       227  -8.0488    211.4727    167.9458   5.9706746103e+01   5.9298823028e+00    0.2094297    0.1305527 -37.13 0.0007087556    1.571    0.363
       228  -8.7273    111.8238    167.3180   8.2330555679e+01   2.4882239519e+01    0.2758002    0.1930761  88.71  0.000984755    1.950    0.487
       229  -9.0608    191.9015    166.5710   6.3362317304e+01   9.8199311471e+00    0.2607158    0.2041494 -44.81 0.0005148571    1.389    0.280
       230  -8.7383    185.0262    166.4624   6.4793202196e+01   1.1158801555e+01    0.2600126    0.2014512 -54.75 0.0006689143    1.560    0.359
       231  -9.1023     20.5581    166.0034   1.0541399816e+02   3.7326534102e+01    0.3391089    0.1562163  60.09  0.001296013    2.245    0.554
       232  -9.7078    136.9003    164.1180   7.5427374459e+01   2.1000601488e+01    0.6654395    0.3577181  57.90  0.002197977    2.590    0.614
       233  -9.8176     94.8974    161.8339   8.5763741486e+01   2.9012536050e+01    0.9434526    0.5722691  88.43  0.003209948    2.573    0.611
       234  -8.6421    233.9359    164.7486   5.4881361755e+01   2.5099484129e+00    0.2299804    0.1542663 -42.75 0.0005513735    1.594    0.373
       235  -8.7150    159.6308    164.3010   7.0015403137e+01   1.6546114063e+01    0.2994949    0.2396144  79.11 0.0009368025    1.730    0.422
       236  -9.6716     33.4307    162.9630   1.0195462106e+02   3.6824592293e+01    0.5402144    0.2140163  56.05  0.002227352    2.887    0.654
       237  -8.2685    239.8816    163.8324   5.3657193410e+01   1.6559789520e+00    0.1690215    0.1518055 -38.25 0.0003750233    1.321    0.243
       238  -8.5671    212.9794    163.4081   5.8466234088e+01   6.4347342800e+00    0.2489216     0.185504 -47.82 0.0006335315    1.550    0.355
       239  -8.5188     56.6994    163.7346   9.6088966555e+01   3.4037092470e+01    0.4309525    0.2338612   7.66  0.001637411    3.772    0.735
       240  -8.4923     60.5217    160.1246   9.4608383474e+01   3.4422265617e+01    0.3686019    0.2151317  73.02  0.001332471    2.124    0.529
       241  -9.5421    246.0359    162.7955   5.2402186107e+01   8.0518510406e-01    0.2265472    0.1645798 -29.09 0.0004864435    1.222    0.182
       242  -8.7403    204.9163    162.6086   5.9873998401e+01   8.0705883748e+00    0.2704661    0.1954253 -43.65 0.0006467787    1.473    0.321
       243  -9.3333      3.2348    162.2452   1.0924822502e+02   3.9584395463e+01    0.3548976    0.1582231  56.27  0.001691731    2.172    0.540
       244  -8.7430    151.8163    160.8723   7.1147149026e+01   1.8798563834e+01    0.3132743    0.2279365 -88.07 0.0008913908    2.225    0.551
       245  -9.0308    177.3937    160.4390   6.5177870077e+01   1.3806885157e+01    0.2860339    0.2495399 -80.48 0.0007380732    1.514    0.339
       246  -8.7623    227.5638    159.1234   5.4844625223e+01   4.5279835137e+00    0.2857843    0.2135143 -56.27  0.001215172    1.832    0.454
       247  -9.4128    167.8194    157.5006   6.6694436016e+01   1.6303077294e+01    0.4297049    0.3002943 -65.17  0.001898538    2.003    0.501
       248  -9.8841    250.1940    157.5260   5.0637188188e+01   9.3899127330e-01    0.3377756    0.1755832 -35.84 0.0009120164    1.708    0.415
       249  -9.2283    246.5617    155.4982   5.0812026042e+01   1.8484294652e+00    0.2262511    0.1409004 -15.84 0.0006011906    1.692    0.409
       250  -8.7589    237.0119    158.7217   5.3093183560e+01   2.9489266514e+00    0.2452042    0.1558897 -43.95 0.0008837945    1.681    0.405
       251  -8.2079    128.3392    158.8413   7.6522103148e+01   2.3794907941e+01    0.2840091    0.1881645  61.74 0.0008604655    1.887    0.470
       252  -9.5035    105.7967    157.5669   8.2126453030e+01   2.8185894404e+01    0.4936033    0.3383557  85.54  0.001441343    2.042    0.510
       253  -8.7155    196.7926    157.7253   6.0467175995e+01   1.0505476098e+01    0.2448987    0.1875758 -66.10 0.0007016058    1.889    0.470
       254  -8.3391    188.3326    157.4807   6.2176682548e+01   1.2209669638e+01    0.2447304    0.1340767 -41.05 0.0006955597    1.835    0.455
       255  -8.4965    217.9770    156.4320   5.6033895511e+01   6.7141368616e+00    0.2625601    0.1827803 -48.62 0.0007844177    1.659    0.397
       256  -8.9003    157.6654    155.7937   6.8684667824e+01   1.8698439341e+01    0.2864401    0.2344165 -67.42 0.0008795976    1.493    0.330
       257  -9.2028    119.6243    154.8601   7.7972172243e+01   2.6331806575e+01     0.448604    0.2995186  89.99  0.001540223    2.415    0.586
       258  -9.1549     49.6546    154.8218   9.6792595618e+01   3.7026744106e+01    0.4131123    0.2226238  70.81  0.001368149    2.366    0.577
       259  -8.2540    237.4611    150.4554   5.1274669170e+01   4.2011885135e+00    0.1780339    0.1313397  53.06 0.0001376503    1.707    0.414
       260  -9.1320    242.9552    154.6604   5.1235268467e+01   2.5837416187e+00    0.2118539    0.1565006 -28.30 0.0003920255    1.192    0.161
       261  -8.2278    240.0000    152.9762   5.1378015355e+01   3.3550969147e+00    0.1969656     0.159877 -58.38 0.0003808826    1.674    0.403
       262  -7.8052    204.6137    155.4772   5.8403380851e+01   9.4013798413e+00     0.142525    0.1298941 -12.78 0.0001324024    1.040    0.038
       263  -8.5624    144.6822    154.7299   7.1587463429e+01   2.1526902453e+01    0.3421976    0.2284667  63.44  0.001166623    2.001    0.500
       264  -8.0746    233.0135    153.8168   5.2755031788e+01   4.4364060216e+00    0.1960832     0.164256  89.13  0.000681382    1.933    0.483
       265  -9.6085    132.6812    152.6304   7.4149309293e+01   2.4354257461e+01    0.4727302    0.3512406  75.01  0.001196238    1.818    0.450
       266  -9.3546    133.3519    148.3313   7.3066224831e+01   2.5187275556e+01    0.4157351    0.2382038 -35.49  0.001472305    2.071    0.517
       267  -9.6465     67.9883    153.0608   9.1573057043e+01   3.5148377515e+01    0.4881029    0.2996199  86.36  0.001859056    2.064    0.515
       268  -9.6279     29.5117    150.3776   1.0163178082e+02   4.0205762440e+01    0.5017112    0.2344943  69.16  0.002122328    2.755    0.637
       269  -8.8381     20.0885    152.0808   1.0426896579e+02   4.0635420473e+01    0.2081398    0.1229814  68.69  0.001091723    1.709    0.415
       270  -9.1215      3.0021    150.5109   1.0845595664e+02   4.2301283893e+01    0.4088377    0.1185381 -76.99  0.001693655    2.804    0.643
       271  -8.8590    189.3933    149.8304   6.0269652449e+01   1.3451181692e+01    0.3092996    0.2361504 -63.50 0.0008956175    1.750    0.429
       272  -8.1179    182.4712    151.0533   6.2020866065e+01   1.4618546947e+01    0.2199883    0.1450432 -42.65 0.0006638982    1.540    0.351
       273  -8.7421     98.2496    150.5420   8.2842170214e+01   3.1139501565e+01    0.3106197    0.2269377  76.78 0.0008558979    1.695    0.410
       274  -9.6020    248.8095    149.1238   4.9117926792e+01   2.4674385517e+00    0.3054087    0.1882983 -30.13  0.000725754    1.421    0.296
       275  -9.4637    242.6921    149.4142   5.0176495149e+01   3.4603735851e+00    0.2995609    0.2527298  40.51  0.001818925    1.359    0.264
       276  -8.2821    213.0719    149.6393   5.5485234522e+01   8.8161003066e+00    0.2329059    0.1830263 -41.50  0.000529264    1.305    0.234
       277  -8.1122    162.6221    150.3608   6.6334579962e+01   1.8821448336e+01    0.2207818    0.1836749  87.34 0.0005725944    1.606    0.377
       278  -8.3713    198.9264    148.8865   5.8091772041e+01   1.1715634474e+01    0.2168558    0.1820643 -77.90 0.0006473555    1.677    0.404
       279 -10.0566     89.4410    146.2467   8.4469919511e+01   3.3624112507e+01    0.6871222      0.39557  86.51  0.002412777    3.303    0.697
       280  -9.7799     39.8317    147.6807   9.8536712177e+01   3.9840489276e+01     0.514782    0.2506846  63.66    0.0019276    2.633    0.620
       281  -8.9675    233.4907    147.5090   5.1323907122e+01   5.3863087089e+00    0.2720289    0.1227943 -36.43 0.0007130922    2.015    0.504
       282 -10.4948     54.8303    143.9666   9.3852867480e+01   3.9065461251e+01     0.895605     0.466062  84.86  0.003140139    2.949    0.661
       283  -8.3072    223.1721    146.6357   5.2954695726e+01   7.4245751740e+00    0.2290491    0.1781873 -40.22 0.0005916033    1.287    0.223
       284 -10.3768    149.1579    144.8578   6.8330134815e+01   2.2760602885e+01    0.6196572    0.4327032  89.58  0.002095718    2.521    0.603
       285 -10.1399    106.6904    143.5302   7.9149642407e+01   3.1341926104e+01    0.8320044    0.5328698 -71.95  0.002190192    1.972    0.493
       286  -8.8919     78.0732    146.8896   8.7768538504e+01   3.5222331849e+01    0.3090633    0.1910047  71.31  0.001032285    2.201    0.546
       287  -7.9831    206.9367    146.2761   5.5920320106e+01   1.0606276027e+01    0.1961956    0.1842613  12.17 0.0008443953    1.075    0.070
       288  -8.2072    175.9023    145.9975   6.2326602683e+01   1.6965276981e+01    0.2345849    0.1907054 -88.39 0.0008367589    1.747    0.428
       289 -10.0899    138.9928    144.5617   7.0803047729e+01   2.4902408049e+01    0.5352175    0.3361884 -71.66  0.001527842    2.550    0.608
       290  -8.9532    151.2676    135.4851   6.5650439549e+01   2.4343944440e+01    0.5347533    0.3400009  13.78  0.001995187    2.537    0.606
       291  -9.2175     13.1916    145.8578   1.0547098306e+02   4.2663506726e+01    0.2660912    0.1774971  71.15  0.001135661    1.439    0.305
       292  -9.0254    240.3717    145.2044   4.9665911664e+01   4.5387011540e+00    0.2065014    0.1692164 -11.43 0.0004668355    1.127    0.113
       293 -10.1015    242.7690    142.9562   4.8790536852e+01   4.4793738989e+00     0.532823    0.1853053 -32.50  0.001999654    2.773    0.639
       294  -9.1113    247.0702    143.6463   4.8242705822e+01   3.6230589096e+00    0.2961542    0.1900518 -24.04 0.0005033622    1.452    0.312
       295  -8.3387    250.4795    140.5139   4.7040102659e+01   3.5323809465e+00    0.2175133    0.1454913 -48.32 0.0006935177    1.667    0.400
       296  -8.7092    165.6942    143.9054   6.4166504547e+01   1.9520070826e+01     0.264526    0.2344638 -86.45 0.0006866713    1.391    0.281
       297  -9.7415    125.0545    142.6325   7.3994190183e+01   2.8110145429e+01    0.4756284    0.3410772  87.73  0.001425965    2.084    0.520
       298  -7.4456    194.2754    143.6658   5.7864425283e+01   1.3627885265e+01    0.1426055    0.1188224 -72.00 0.0003231989    1.603    0.376
       299 -10.7840     69.5455    140.5503   8.9097642271e+01   3.7999200358e+01     0.937257    0.4979846  88.57  0.003289011    3.420    0.708
       300 -10.1503     69.6586    133.6689   8.7842834442e+01   3.9680350714e+01    0.4059402    0.1936358  23.84  0.001581153    2.679    0.627
       301  -9.3357      2.7818    141.6569   1.0781276273e+02   4.4382311368e+01    0.3648453    0.1731506  69.11  0.001223379    2.255    0.556
       302  -7.6912    230.6521    142.3434   5.0693332908e+01   6.7597508169e+00    0.1364285    0.1088853 -67.79  0.000704424    1.800    0.444
       303  -8.4330    182.0268    141.4653   5.9944436205e+01   1.6585998813e+01     0.283466    0.2093496 -56.14  0.000709709    1.598    0.374
       304  -9.9640     23.5740    137.9497   1.0185533157e+02   4.3732419748e+01    0.4922457    0.2215102  61.72  0.001968936    2.836    0.647
       305  -7.8752    218.4625    138.2178   5.1941546064e+01   9.7770676205e+00      0.19719    0.1267246 -46.89 0.0009285361    1.650    0.394
       306  -8.3425    207.6809    137.4663   5.3785789138e+01   1.2049619343e+01    0.2543178    0.1663645 -46.03 0.0005583522    1.588    0.370
       307 -10.4072     83.4283    133.0382   8.3650319610e+01   3.7797113678e+01     0.596064     0.422705 -66.28  0.001487843    1.429    0.300
       308  -8.8759    250.7840    129.8636   4.4720262041e+01   5.1555449733e+00    0.4619208    0.1078471 -33.52  0.001389283    4.309    0.768
       309  -9.3390    248.2910    134.6234   4.6124758418e+01   4.8404234698e+00    0.3430291    0.1921568 -43.45 0.0008289221    1.729    0.422
       310  -8.6097    247.1427    130.1716   4.5342676408e+01   5.7519423473e+00    0.2043893    0.1721832 -48.25 0.0007192998    1.285    0.222
       311  -8.4599    172.3138    138.1573   6.1321427877e+01   1.9297801444e+01    0.2678999    0.2037293  78.12 0.0008573422    1.913    0.477
       312  -8.2659    162.6579    136.1805   6.3078114858e+01   2.1766672606e+01     0.236575    0.1929868 -63.44 0.0006347153    1.443    0.307
       313  -9.7062     38.9975    135.1102   9.7107168124e+01   4.3001844845e+01    0.4857135     0.212119 -72.40  0.002080311    2.165    0.538
       314  -7.8868    125.6071    135.6991   7.2300240244e+01   2.9593380031e+01    0.1630161    0.1230047  -0.76 0.0007008977    1.805    0.446
       315  -8.2152    231.4130    133.7986   4.8679877064e+01   8.0480140780e+00    0.1920169    0.1218335 -24.74 0.0002832988    1.566    0.361
       316  -8.6657    179.4514    133.6682   5.8677113673e+01   1.8671024582e+01    0.2877973    0.2483199 -60.96 0.0007348441    1.329    0.247
       317  -9.0170    112.8622    133.0240   7.5181004491e+01   3.2690012092e+01    0.3681737    0.2705387  77.41 0.0009568708    1.854    0.461
       318  -8.0837    237.4532    133.2237   4.7548345913e+01   7.0167536471e+00    0.1986295     0.115621 -45.33 0.0009390029    1.742    0.426
       319  -8.7322     99.4816    120.0302   7.6046798771e+01   3.8242195168e+01     0.455941    0.2766009   1.56  0.001492675    3.666    0.727
       320  -9.2755    143.2694    131.4383   6.6685764727e+01   2.6920458345e+01     0.339714    0.2661261 -69.46 0.0008134567    1.565    0.361
       321 -10.8972    132.8035    129.5237   6.8939792391e+01   2.9538113232e+01    0.9929752     0.515255 -42.53  0.002561193    1.980    0.495
       322 -10.1141     12.7700    128.5696   1.0385760620e+02   4.6825544097e+01    0.6399755    0.2915326  84.92   0.00263064    2.570    0.611
       323  -8.7652    197.5654    137.2482   5.5722245221e+01   1.4156894639e+01    0.3090854    0.2063013 -54.06  0.000828801    1.796    0.443
       324  -7.9798    192.9615    130.0307   5.4960606854e+01   1.6483539890e+01    0.2264392    0.1844282 -74.85 0.0005038273    1.636    0.389
       325  -9.2251    168.3218    129.3249   6.0119305330e+01   2.1958551134e+01    0.3264157    0.2611007 -66.12 0.0007244872    1.530    0.346
       326  -9.5752    153.0713    128.4969   6.3528519708e+01   2.5456676592e+01     0.623982    0.2673919 -45.09   0.00197728    2.362    0.577
       327  -9.7347     73.0943    128.8053   8.5896963048e+01   4.0392723410e+01    0.4423914    0.2504454 -71.90  0.001321666    2.030    0.507
       328  -8.1223      1.5802    129.7877   1.0711285108e+02   4.7251550680e+01    0.1749016   0.09495397  89.35 0.0009372449    1.666    0.400
       329  -7.4300    220.5263    129.5505   4.9605730386e+01   1.0880320195e+01    0.1426809    0.1297364 -17.87  0.000168988    1.011    0.011
       330  -8.1370    211.6836    129.0718   5.1096130792e+01   1.2746286128e+01    0.2294727    0.1689876 -50.65 0.0007784625    1.479    0.324
       331  -8.0870    186.4671    129.4811   5.6173509670e+01   1.7981192781e+01    0.1498968    0.1458229 -24.80 0.0001406648    1.055    0.052
       332 -10.7857     45.0222    123.3548   9.3515008587e+01   4.5273984603e+01     1.148009    0.5672449  75.99  0.003902132    4.089    0.755
       333 -10.4897     60.0273    124.6180   8.9093903664e+01   4.3202267955e+01    0.7725174    0.4427842  78.21  0.002535423    2.894    0.654
       334  -9.2190     58.8627    115.2486   8.7662739283e+01   4.5659957966e+01    0.3700539    0.1521555 -45.28  0.001408255    2.502    0.600
       335  -9.8144    117.9490    124.8220   7.1853255198e+01   3.3621680733e+01    0.5640066    0.4078479  85.97   0.00137526    2.072    0.517
       336 -10.2324     98.0525    129.9893   7.8728808816e+01   3.6111931162e+01    0.7216348    0.3389063 -56.20  0.001992424    2.154    0.536
       337  -8.4074    228.4279    125.2257   4.7257940151e+01   1.0065330688e+01    0.1996799    0.1213297 -44.43 0.0009415588    1.611    0.379
       338  -8.9431    179.2136    124.4246   5.6493144968e+01   2.0551460725e+01    0.2761908    0.2421747 -61.99 0.0005264293    1.283    0.221
       339 -10.4080     28.5169    122.1070   9.8401274354e+01   4.7173697559e+01    0.7270945    0.3452677  73.54  0.002778565    3.444    0.710
       340  -7.8209    243.7902    124.0625   4.4526200050e+01   7.3403385015e+00    0.1834625   0.09657338 -36.35 0.0004087554    1.664    0.399
       341  -7.8686    188.5666    123.7874   5.4358940444e+01   1.8622423729e+01    0.2083123    0.1402174 -49.54 0.0004533073    1.585    0.369
       342  -8.8297     84.8935    122.6436   8.1041537898e+01   4.0101646513e+01    0.4700951    0.2848046   0.30  0.001665379    3.332    0.700
       343  -7.7410    212.2864    123.6238   4.9712891440e+01   1.3593748277e+01    0.1481808    0.1114593 -64.09 0.0007016971    1.722    0.419
       344  -9.7011    158.8069    121.4015   6.0380084500e+01   2.5695376619e+01    0.4045844    0.2884106 -80.30  0.001110513    2.245    0.555
       345  -8.8900    172.0163    121.5006   5.7352723416e+01   2.2729958625e+01    0.2810136    0.2322498 -55.87 0.0006593812    1.321    0.243
       346  -8.9668    171.3828    117.8424   5.6573753285e+01   2.3605683881e+01    0.3354672    0.2701484 -33.64 0.0007812136    1.242    0.195
       347  -7.6519    203.2523    121.6743   5.0933774301e+01   1.5844752678e+01    0.1439938    0.1134053 -62.93 0.0002844419    1.545    0.353
       348  -9.7289     71.1190    118.8994   8.4506607966e+01   4.3112033528e+01    0.4943665    0.2501183 -61.99  0.001633667    1.958    0.489
       349 -10.0857    141.6113    117.7542   6.3715868345e+01   3.0270214125e+01    0.6749136    0.3517933 -52.59  0.001944772    2.157    0.536
       350  -9.6095    130.7591    118.2082   6.6693479470e+01   3.2504460694e+01    0.4248242    0.3093921 -77.11  0.001237261    1.949    0.487
       351  -9.6670      2.8231    116.8898   1.0550524619e+02   5.0238566487e+01    0.4614033    0.2147387  73.42     0.002113    2.663    0.624
       352  -8.1278    231.4961    117.4912   4.4992286150e+01   1.0764055390e+01    0.1400201    0.1257509 -32.19   0.00081044    1.029    0.029
       353  -8.1980    185.9412    115.9582   5.2967656060e+01   2.0702293708e+01     0.230505    0.1858221 -74.08 0.0004817624    1.584    0.369
       354  -9.8274    109.2839    113.9419   7.1657170095e+01   3.7839932884e+01    0.5230449    0.3490495 -74.22  0.001356504    2.182    0.542
       355  -8.9398    250.0600    114.6860   4.1533407795e+01   7.6831659717e+00    0.1745762    0.1683155  -1.74 0.0009851084    1.141    0.124
       356 -10.6743    248.6345    107.7377   4.0208610890e+01   9.0441829721e+00    0.5817719    0.2563942 -41.35  0.002566201    1.986    0.497
       357  -9.8119    249.3421    102.6700   3.8989640095e+01   9.7062651151e+00    0.3679761    0.2141094 -22.59  0.001749655    1.926    0.481
       358  -8.2753    193.0240    115.0250   5.1300884554e+01   1.9300746224e+01    0.2289068    0.1820627 -70.85  0.000438824    1.592    0.372
       359 -10.2856     92.8071    111.0642   7.5914677683e+01   4.1554997979e+01     1.011209    0.4072684 -51.19  0.002493587    2.387    0.581
       360  -8.0321    167.4705    114.4670   5.6593578074e+01   2.5168402159e+01    0.1541955    0.1520794  -8.46 5.445803e-05    1.016    0.016
       361  -9.8891     78.8680    112.2046   8.0577693622e+01   4.3585139301e+01    0.5178326    0.3593746  85.00  0.001680886    2.122    0.529
       362  -9.6213     76.8518    105.0803   7.9545196399e+01   4.5606687809e+01    0.4162917    0.2531325  25.03 0.0006090257    1.891    0.471
       363 -10.0617    133.7826    108.9967   6.3477173804e+01   3.3883350535e+01    0.6797554    0.3255664 -49.15    0.0022952    2.198    0.545
       364  -9.8168    121.9645    112.3948   6.7616925278e+01   3.5648976142e+01    0.3405364    0.3012299  84.97 0.0004677244    1.317    0.240
       365  -8.6815    174.7435    111.4829   5.4206113397e+01   2.4103087918e+01     0.284265    0.2058989 -40.69 0.0004768001    1.364    0.267
       366  -8.7235    159.1688    111.5988   5.7772966132e+01   2.7641113525e+01    0.2690384    0.2081614 -51.54 0.0005791989    1.363    0.266
       367 -10.1416     14.2408    110.9253   1.0130629499e+02   5.0975041809e+01    0.4044675    0.2273826  68.52  0.001565622    2.198    0.545
       368 -10.2024     66.2975    109.5701   8.4052100470e+01   4.6066599456e+01    0.5563211    0.3174224 -63.50  0.002116918    1.763    0.433
       369  -8.8460     42.8955    109.2952   9.1735558292e+01   4.8956001784e+01    0.3133863    0.1313905  11.53  0.001075025    4.233    0.764
       370  -8.2737    189.4537    107.9855   5.0243797072e+01   2.1417194878e+01     0.232747    0.1447165 -39.90 0.0005792024    1.558    0.358
       371  -9.1761    109.7932    106.8730   6.9678386958e+01   3.9363086478e+01    0.3881976    0.2066591  23.43  0.001120412    2.918    0.657
       372 -10.7808     22.7555    102.3203   9.7265534337e+01   5.2448477246e+01    0.7417492    0.3846079  76.78  0.002253363    3.030    0.670
       373  -9.3288    139.9424    104.1472   6.0540400739e+01   3.3555826999e+01    0.4679427    0.2896127 -52.55  0.001098065    1.782    0.439
       374 -10.6282     45.6417    101.9225   8.9372083157e+01   5.0459622502e+01    0.7963891    0.4660975  76.12  0.003186553    2.936    0.659
       375  -9.2093     45.9553     92.5154   8.7242544834e+01   5.2679926779e+01    0.4391219    0.2319333  -2.74  0.001693842    3.355    0.702
       376  -8.7633    166.7405    103.8027   5.3960927496e+01   2.7458937165e+01    0.3022691    0.2053765 -49.15 0.0006491612    1.542    0.352
       377  -9.6811    150.2940    102.6909   5.7526332038e+01   3.1500328830e+01    0.5325534    0.3242958 -55.78  0.001228962    1.976    0.494
       378  -8.8255    151.2193     95.1469   5.5207396563e+01   3.2805396565e+01    0.3245665    0.2071573  -9.70   0.00117807    2.631    0.620
       379 -10.2957    128.7540    101.2628   6.2730501310e+01   3.6651583208e+01     0.581419       0.3472 -43.54  0.001463147    1.678    0.404
       380  -9.2703      6.6823    102.6795   1.0265082412e+02   5.3405171486e+01    0.2509151    0.1630346  86.53 0.0008744845    1.569    0.363
       381  -7.9167    175.5036    101.9883   5.1561013694e+01   2.5764976755e+01    0.2306964    0.1503385 -39.77 0.0005719115    1.512    0.339
       382 -10.6257    108.9803     98.5194   6.7651221481e+01   4.1402170246e+01    0.6742364    0.4510745  74.14  0.001728295    2.556    0.609
       383  -9.0370    107.7834     92.2156   6.6222273629e+01   4.3026009949e+01    0.3260488    0.2681494   5.89 0.0008774995    1.390    0.280
       384  -8.3833    159.8420    100.7403   5.4710934916e+01   2.9674600671e+01    0.2807675    0.1979373 -66.39 0.0006272583    1.890    0.471
       385  -9.1209     82.1857     99.9328   7.6500926696e+01   4.5973878869e+01    0.3418404    0.2520007 -81.14 0.0009276198    1.832    0.454
       386 -10.3153     64.0062     96.0439   8.1677592834e+01   4.9624408622e+01    0.6411768    0.3826259 -73.87  0.001704245    2.283    0.562
       387  -8.4384    176.7180     93.2767   4.8975753542e+01   2.7115949759e+01    0.2924078    0.1921032 -58.15 0.0008710627    1.837    0.456
       388  -8.2750    164.9435     93.9698   5.1691519032e+01   2.9787809246e+01     0.244365    0.1899707 -74.81 0.0005283822    1.646    0.392
       389  -9.7048    247.5657     92.4548   3.6959118962e+01   1.1636923104e+01    0.2358437    0.1732845 -27.85  0.001318492    1.308    0.236
       390  -9.3408    139.1099     92.1482   5.7382137193e+01   3.6223726913e+01    0.3959333    0.3029205 -80.54 0.0009089914    1.822    0.451
       391 -10.7151    124.3857     89.9698   6.0710401640e+01   3.9992217319e+01    0.9276631    0.6187359 -17.23  0.002654273    2.050    0.512
       392  -9.6603      5.5716     92.1654   1.0159199604e+02   5.5948002708e+01    0.3084479    0.1967644  62.40  0.001077922    1.928    0.481
       393  -9.2876     22.8698     90.0864   9.5110783106e+01   5.5362042483e+01    0.3568416    0.2229794 -30.56  0.001504498    1.730    0.422
       394  -8.0921    157.8197     91.5687   5.2637738245e+01   3.1944031644e+01    0.2126666    0.1511885  64.29 0.0005135161    1.600    0.375
       395  -9.5805     34.8210     88.7008   9.0464119056e+01   5.4700055185e+01    0.6955485    0.2681479 -69.34   0.00261804    2.965    0.663
       396  -7.8563    151.0235     88.9949   5.3505105692e+01   3.4056950552e+01    0.1885778    0.1838229 -27.18 0.0005101935    1.032    0.031
       397 -10.1418     86.5627     85.7783   7.1142499118e+01   4.8447868335e+01    0.6545082    0.4083168 -55.37  0.001822638    1.723    0.419
       398  -9.2313     95.0441     96.9780   7.1540941531e+01   4.4422614402e+01    0.3213348    0.2392218 -64.35 0.0005476118    1.553    0.356
       399  -7.8847    164.2944     86.6855   4.9801496116e+01   3.1313692410e+01    0.1560413    0.1220593 -74.47 0.0002368492    1.599    0.375
       400  -9.9019     48.5524     83.6512   8.4176535139e+01   5.4464358933e+01     0.594611    0.4067472 -86.68  0.002363089    2.137    0.532
       401  -7.5327    179.3528     85.6660   4.6375434090e+01   2.7867053538e+01    0.1618201    0.1185809 -74.52 0.0007045506    1.787    0.440
       402  -9.8982    105.0303     83.2088   6.4390769295e+01   4.5501596690e+01    0.4525143    0.3299219 -74.87  0.001076612    2.062    0.515
       403  -8.0395    157.9293     83.5535   5.0326952320e+01   3.3431412662e+01    0.2360734    0.2037178 -38.76 0.0003945603    1.168    0.144
       404  -7.5283    170.6597     83.3191   4.7493629062e+01   3.0387549643e+01    0.1600868    0.1206159 -76.29 0.0007049616    1.714    0.416
       405  -9.2060    140.9045     82.3960   5.4056970282e+01   3.7724265995e+01    0.3970535    0.2150703 -41.74  0.001141252    1.870    0.465
       406  -9.6795     24.6344     80.2873   9.2514557170e+01   5.7523413485e+01    0.4089926    0.2534042 -89.75  0.001385654    2.211    0.548
       407  -9.5365      9.6653     80.5552   9.8274202489e+01   5.8438955193e+01     0.318114    0.1921178  61.39  0.001539624    2.287    0.563
       408  -8.5577    150.2539     80.1668   5.1112136900e+01   3.5912356289e+01     0.293701    0.2054701 -56.18 0.0008591513    1.659    0.397
       409  -8.6777    119.4846     80.1646   5.9137567681e+01   4.3062570645e+01    0.3456577    0.2409245 -64.88 0.0009169758    1.973    0.493
       410  -8.9281     74.5350     79.9262   7.3587579106e+01   5.1747023691e+01    0.3619999    0.2515718 -70.95  0.001164899    2.010    0.503
       411  -7.4129    188.6907     93.3299   4.6605206002e+01   2.4278219551e+01    0.1558995    0.1171772 -70.71 0.0007040874    1.665    0.399
       412  -8.2344    166.8558     79.6315   4.7248693798e+01   3.1972886051e+01    0.2595664    0.2015236 -26.03 0.0005833949    1.380    0.276
       413  -7.8398    184.2253     78.0268   4.3353662453e+01   2.8020571339e+01    0.1972368    0.1224123 -35.37 0.0004894686    1.605    0.377
       414  -7.9091    174.5562     77.5226   4.5075057663e+01   3.0460527570e+01    0.1513209    0.1453056 -72.91 7.833746e-05    1.049    0.046
       415  -8.7370     69.5204     86.0000   7.7115365730e+01   5.1164587233e+01    0.3085652   0.08217914  33.58 0.0009404384    3.981    0.749
       416  -7.6589    157.3574     76.1703   4.8303190515e+01   3.4911952007e+01    0.2099859    0.1389587 -47.27 0.0003326923    1.587    0.370
       417  -9.3745    128.0748     75.0765   5.5159557667e+01   4.2111833617e+01    0.3631698    0.2647229 -61.95 0.0006805538    1.740    0.425
       418  -8.4781    140.3282     75.0175   5.1964697759e+01   3.9245096352e+01    0.2182176    0.1984033 -40.55 0.0005372586    1.127    0.113
       419 -10.0152     63.1253     73.1243   7.5748295937e+01   5.4949965533e+01    0.5128099     0.278292 -57.98  0.001344803    2.055    0.513
       420  -9.7230     82.5404     72.5342   6.8471233015e+01   5.1983402357e+01    0.3852316    0.2870013 -73.00 0.0009657711    1.981    0.495
       421  -8.2535    163.4925     73.0483   4.6059145872e+01   3.3952078104e+01    0.2328156    0.1491791 -38.64  0.001020566    1.571    0.363
       422  -8.0799    151.3774     73.1688   4.8760370891e+01   3.6907135647e+01    0.2213811    0.1387725 -47.78 0.0005711799    1.711    0.416
       423  -8.5109    115.6349     72.5614   5.7846812372e+01   4.5392965112e+01     0.282174    0.1844043 -42.35 0.0005723176    1.562    0.360
       424  -8.5975     42.8928     72.7538   8.3522019471e+01   5.7565013329e+01    0.2367061    0.1731705 -88.87 0.0007333912    2.010    0.503
       425  -7.6548    175.5000     72.4793   4.3471446853e+01   3.1088870210e+01     0.148459    0.1465928  71.90 0.0002981567    1.021    0.021
       426  -9.0897    105.9626     71.5219   6.0410365133e+01   4.7669132531e+01    0.2730177    0.2096344 -56.63 0.0005725618    1.532    0.347
       427  -9.1986     95.1672     70.9050   6.3650230060e+01   4.9973648668e+01    0.4054129    0.2445381 -55.26  0.001073228    2.053    0.513
       428  -9.4116     51.5508     69.4224   7.9131779407e+01   5.7294996240e+01    0.4450327    0.2613947 -72.39  0.001467938    2.796    0.642
       429  -9.0758     16.5181     69.9585   9.3515172157e+01   6.0453176900e+01    0.2458829    0.1920109 -68.72 0.0008001893    1.248    0.199
       430  -8.8360     29.4699     69.9123   8.8205845868e+01   5.9494980813e+01    0.2548314    0.1536988 -15.22  0.001049484    1.974    0.493
       431  -8.7040    147.1188     67.9589   4.8155810842e+01   3.8859304794e+01    0.2998166    0.2134019 -44.99 0.0006802362    1.468    0.319
       432  -7.5197    203.3030     66.6889   3.7090845436e+01   2.5282141981e+01    0.1489436    0.1050076 -66.81 0.0007018173    1.610    0.379
       433  -8.6985    138.6335     65.8274   4.9514618659e+01   4.1290781831e+01    0.2913252    0.2192519 -63.96 0.0008257907    1.660    0.397
       434  -8.8311    121.6733     65.8057   5.3929275018e+01   4.5290567419e+01    0.2846479     0.225135 -70.99 0.0007024917    1.676    0.403
       435  -9.0203     37.4961     64.0559   8.3306165352e+01   6.0036222514e+01    0.2958593     0.223344  88.70  0.001303554    2.010    0.502
       436  -9.0662    110.2381     63.4419   5.6423703998e+01   4.8273696364e+01    0.3107835    0.2435013 -60.21 0.0009041082    1.592    0.372
       437  -8.7587     65.3145     62.5291   7.1543856630e+01   5.6847158979e+01    0.4903903    0.2664458   5.63  0.001745844    3.577    0.720
       438  -8.5316     17.8231     63.4531   9.1484966320e+01   6.1816572298e+01    0.3394321    0.1302203 -30.99  0.001370523    3.149    0.682
       439  -7.7293    158.4171     61.5380   4.3703379243e+01   3.7134702644e+01    0.1484305    0.1439404  87.75 9.745883e-05    1.039    0.037
       440  -8.0542    143.2023     60.8240   4.6834319017e+01   4.1023176490e+01    0.2045836    0.1721427  25.26  0.000376109    1.277    0.217
       441  -9.6978     73.3349     59.2977   6.7384126945e+01   5.6210870109e+01    0.4101852     0.248162 -52.64 0.0009946561    1.911    0.477
       442  -8.6180     88.8391     59.3311   6.1840289023e+01   5.3422280537e+01    0.1990557    0.1746441 -36.57 0.0005144521    1.175    0.149
       443  -9.2350     97.5967     60.2520   5.9251108414e+01   5.1521409123e+01    0.3126988    0.2244325  55.55 0.0007236506    1.613    0.380
       444  -8.8273    130.8105     57.3266   4.8704381352e+01   4.4605950442e+01    0.2526689    0.1998526 -46.61 0.0006843306    1.368    0.269
       445  -7.9032     38.6640     58.6962   8.1222481082e+01   6.1057427783e+01     0.139364   0.08663766 -24.70 0.0006941003    1.666    0.400
       446  -9.8487     23.4328     56.2219   8.7168044081e+01   6.2975504046e+01    0.4119522    0.2743455  84.13  0.002039927    2.715    0.632
       447  -9.4976      7.3680     56.6551   9.4421174952e+01   6.3919133575e+01    0.3153706    0.1989705 -89.74  0.001560534    2.205    0.547
       448  -8.3427    140.0757     55.8971   4.5984030392e+01   4.2588909569e+01     0.225043    0.2006788 -70.78 0.0005424413    1.261    0.207
       449  -9.3519    119.1222     55.1320   5.1037921871e+01   4.7717842127e+01     0.427531    0.2410921 -48.08  0.001370039    2.089    0.521
       450  -8.7140     44.2410     55.2235   7.7720937094e+01   6.1156837589e+01    0.2717609    0.1952353 -55.26   0.00116988    1.473    0.321
       451  -9.0853     62.9980     54.4307   6.9661593925e+01   5.8795769963e+01    0.3160467    0.2108922 -53.57 0.0007671901    1.734    0.423
       452  -8.9760     54.2328     53.9052   7.3045615574e+01   6.0157860222e+01    0.3113224    0.2058169 -60.73  0.001025378    1.986    0.496
       453  -8.4992    105.8188     53.0338   5.4127395842e+01   5.1052090260e+01    0.2139575    0.2020595 -66.65 0.0005373197    1.258    0.205
       454  -9.3963     92.5428     50.5388   5.7417142326e+01   5.4257353437e+01    0.3683977    0.2448258 -52.25 0.0009022547    1.909    0.476
       455  -8.5567     75.2849     51.1704   6.3728842368e+01   5.7398295329e+01    0.4571637    0.2392313  13.99  0.001551733    3.785    0.736
       456  -8.0544    113.1098     51.1537   5.1324755440e+01   4.9742184624e+01    0.1898262    0.1753085 -76.68            0    1.301    0.231
       457  -8.1583    144.8172     48.7846   4.2611726895e+01   4.2507937573e+01    0.1993623    0.1708726 -67.68 0.0004054935    1.314    0.239
       458  -8.1370    129.8816     48.7992   4.6071309894e+01   4.6177623202e+01    0.1990155    0.1739882 -66.10 0.0004562546    1.331    0.248
       459  -8.3852    120.8809     47.1684   4.7794659397e+01   4.8572519163e+01    0.2108408    0.2020761 -87.25 0.0005694261    1.180    0.152
       460  -8.3363    112.1798     46.6950   4.9993161086e+01   5.0658034372e+01     0.238654    0.1933311 -43.55 0.0006155088    1.364    0.267
       461  -9.0765     82.2308     46.3431   5.9376701718e+01   5.6978792420e+01    0.2878592    0.2285344 -52.69 0.0006782383    1.575    0.365
       462  -8.2872     45.1107     44.6048   7.3632625902e+01   6.3132710883e+01    0.2106716    0.1638219 -46.03 0.0006509789    1.334    0.251
       463  -9.2275     16.8534     44.3174   8.6745547339e+01   6.5938029348e+01    0.2559143    0.1645711 -71.46  0.001153691    1.988    0.497
       464  -8.5388    132.7396     42.9729   4.3402959980e+01   4.6339971516e+01    0.1983371    0.1877807 -28.60 0.0003458207    1.123    0.110
       465  -8.6418     92.7041     42.4083   5.4296128556e+01   5.5550522741e+01    0.2531354    0.1700317  -7.54  0.001192506    1.798    0.444
       466  -9.3521     69.6573     41.3660   6.2103066874e+01   6.0076151365e+01    0.3690978    0.2494003 -55.52  0.001250444    2.120    0.528
       467  -8.9354     58.1368     42.1365   6.7053932298e+01   6.1794966299e+01    0.3451601    0.2278471 -57.33  0.001348355    2.180    0.541
       468  -9.3800      5.3213     41.8289   9.1641302056e+01   6.7144156568e+01    0.3112485    0.1940726 -78.62  0.001240031    2.119    0.528
       469  -8.4626    105.8754     41.0766   4.9731919163e+01   5.2926974732e+01    0.2080161    0.1961342 -71.77  0.000508819    1.287    0.223
       470  -8.5761     36.8698     40.5527   7.5894724749e+01   6.4862668154e+01    0.2388852    0.1693006 -49.67 0.0007892022    1.463    0.316
       471  -7.5522    140.3194     40.7309   4.0947540747e+01   4.4780228210e+01    0.1431706    0.1124255 -79.71 0.0002221974    1.561    0.359
       472  -8.3775     95.7923     38.0650   5.1626378604e+01   5.5564186694e+01    0.2010798    0.1913247 -55.37 0.0006834444    1.284    0.221
       473  -8.3175     80.6109     36.3783   5.6022433465e+01   5.8885071864e+01     0.249753    0.1249891 -38.99 0.0008893643    2.092    0.522
       474  -9.2861     26.2419     35.1965   7.9038656507e+01   6.6950014146e+01    0.2727889    0.1994891 -57.68 0.0008906637    1.621    0.383
       475  -8.3450    125.9700     35.3347   4.2341363526e+01   4.9039680199e+01    0.2046839    0.1726951  51.50 0.0004215592    1.097    0.088
       476  -8.4272    111.9587     34.4543   4.5551277528e+01   5.2480538175e+01    0.2589276    0.1908824 -47.65  0.000716879    1.609    0.379
       477  -7.8331    104.4907     34.5034   4.7638075934e+01   5.4173990789e+01    0.1426881    0.1286348  27.82 0.0001673804    1.004    0.004
       478  -8.3461    119.3993     33.2009   4.3168787258e+01   5.0899170795e+01    0.1946057    0.1295184 -41.65 0.0006329936    1.680    0.405
       479  -8.8491     60.7957     32.3044   6.1926247035e+01   6.3022892232e+01    0.2121382    0.1668614 -35.30 0.0005760253    1.341    0.254
       480  -8.7744     48.6447     32.8765   6.7419598962e+01   6.4757132773e+01    0.2286213    0.1816635 -37.44 0.0006453184    1.319    0.242
       481  -8.7643     72.0778     31.0003   5.6909774219e+01   6.1283928821e+01    0.2044328    0.1819756   6.28 0.0005761389    1.068    0.064
       482  -9.2346    211.2776    246.9531   7.3941498562e+01  -5.9020226847e+00    0.2809569    0.2033197 -56.68   0.00119604    2.669    0.625
       483  -8.2179    101.4932     29.0522   4.6375139302e+01   5.5569045591e+01    0.1960233     0.135845 -27.63 0.0004826473    1.520    0.342
       484  -8.7966     81.6205     27.2286   5.1869388034e+01   6.0002102360e+01    0.2740095    0.2166218 -54.34 0.0009908474    1.765    0.433
       485  -9.4584      3.6788     27.3013   8.8068344351e+01   7.0095420043e+01    0.2974113    0.1520876 -66.27  0.001298827    2.345    0.574
       486  -8.8473     91.9224     26.2234   4.8087965680e+01   5.8015667813e+01    0.2778404    0.1820907 -44.28  0.000777128    1.875    0.467
       487  -7.7015    145.5569     25.5322   3.4871765927e+01   4.5384063360e+01    0.1405201    0.1290969  76.12 -2.748875e-06    1.068    0.064
       488  -8.2547    159.0603     22.9810   3.1734063040e+01   4.2249449238e+01    0.2028421    0.1881644  70.74 0.0003902453    1.029    0.028
       489  -8.4957    104.5341     22.5230   4.2949514428e+01   5.5685238283e+01     0.137391    0.1244781  37.41 4.962655e-05    1.049    0.047
       490  -9.0046     63.6888     20.8541   5.5683354812e+01   6.4208289146e+01    0.2842638    0.1976554 -46.83 0.0009745506    1.959    0.489
       491  -8.8279     48.4678     21.6052   6.2526739097e+01   6.6557934790e+01    0.2227382    0.1908709 -27.61 0.0006740742    1.308    0.236
       492  -7.7492     34.7492     22.6008   6.9566876564e+01   6.8239215370e+01    0.1566029    0.1082288  34.42 0.0009271281    1.661    0.398
       493  -8.2230    120.8425     20.8201   3.8282572694e+01   5.2040904385e+01    0.1845916    0.1619124 -69.45  0.000858064    1.355    0.262
       494  -7.7977     42.2423     29.9364   6.9128096311e+01   6.6105677266e+01    0.1607554     0.096513 -39.35 0.0005296152    1.560    0.359
       495  -8.7074     74.2244     19.3675   5.1028615481e+01   6.2465672541e+01    0.2346869    0.1999399 -37.21 0.0006771333    1.429    0.300
       496  -8.1102     87.8598     17.2052   4.5545249190e+01   5.9964678214e+01    0.1828373    0.1814394  84.04 0.0005896586    1.278    0.218
       497  -7.9357    112.5562     16.5325   3.8584350136e+01   5.4481967761e+01    0.1369792    0.1218643  43.87 8.951517e-05    1.022    0.022
       498  -8.1856     30.0383     15.9575   6.8912375324e+01   6.9837172712e+01     0.156585    0.1516836 -49.76 0.0006530323    1.659    0.397
       499  -7.9406     96.8605     14.8188   4.1912077311e+01   5.8269250175e+01    0.1675649    0.1604678 -68.61  0.000466567    1.304    0.233
       500  -7.8124      7.6487     15.3104   8.1254054019e+01   7.2025603776e+01   0.09673361   0.09022291  49.56 0.0004987605    1.719    0.418
       501  -8.0382     17.2146     13.9604   7.5048631771e+01   7.1481794904e+01    0.1503458   0.08035229 -42.24  0.000657866    1.659    0.397
       502  -8.0433    191.7874    249.5932   7.7984629478e+01  -3.4557735447e+00    0.1713424   0.09290051  41.09 0.0006868569    1.700    0.412
       503  -9.1779    175.7928    247.3976   8.0743495797e+01  -7.8767562706e-01    0.2833596     0.230254  74.95  0.001162382    2.046    0.511
       504  -8.4741    113.2631    248.5295   9.3234262640e+01   8.4694968643e+00     0.195842    0.1410163 -85.62  0.001214536    1.806    0.446
       505  -9.2978    103.8709    246.7287   9.4904302022e+01   1.0140057855e+01    0.4051389    0.2231039 -86.98  0.001970389    3.047    0.672
       506  -8.5912    218.5408    247.4022   7.2678397303e+01  -6.9644234408e+00    0.2434887    0.1076389 -33.69  0.001287735    2.479    0.597
       507  -8.5803    156.4235    247.8339   8.4597115475e+01   2.0820066150e+00    0.2074672    0.1685542  77.29 0.0007431826    1.803    0.445
       508  -8.8401    132.0901    247.5618   8.9389372036e+01   5.8219487091e+00    0.2281595    0.1660401  65.85 0.0005760288    1.657    0.397
       509  -9.0557    243.0909    245.9677   6.8094056271e+01  -1.0032556744e+01    0.3370791    0.1579658 -21.18   0.00185584    2.238    0.553
