#   1 NUMBER                 Running object number                                     
#   2 MAG_AUTO               Kron-like elliptical aperture magnitude                    [mag]
#   3 X_IMAGE                Object position along x                                    [pixel]
#   4 Y_IMAGE                Object position along y                                    [pixel]
#   5 X_WORLD                Barycenter position along world x axis                     [deg]
#   6 Y_WORLD                Barycenter position along world y axis                     [deg]
#   7 A_WORLD                Profile RMS along major axis (world units)                 [deg]
#   8 B_WORLD                Profile RMS along minor axis (world units)                 [deg]
#   9 THETA_WORLD            Position angle (CCW/world-x)                               [deg]
#  10 FWHM_WORLD             FWHM assuming a gaussian core                              [deg]
#  11 ELONGATION             A_IMAGE/B_IMAGE                                           
#  12 ELLIPTICITY            1 - B_IMAGE/A_IMAGE                                       
         1 -10.1445     40.9620     12.3620   8.0724806346e+01   6.8784353984e+01    0.2477277     0.183094  -3.34  0.001619865    1.142    0.124
         2  -9.9807     84.7024     11.2440   6.3530912175e+01   6.1516222578e+01    0.2884008    0.1788145  68.21  0.001386335    2.352    0.575
         3 -10.6952     57.6479      9.9630   7.2376372219e+01   6.6620371922e+01    0.2709447    0.1702854  38.61  0.001191047    1.552    0.356
         4  -9.5607     48.3249     10.3501   7.6431021221e+01   6.8020934946e+01    0.2053609    0.1484138  57.83  0.001158252    2.403    0.584
         5  -9.5977     29.2480     10.0157   8.5175177912e+01   7.0557188833e+01    0.1881088    0.1426216  32.13  0.001272671    1.624    0.384
         6 -10.6270    119.6105      9.8063   5.3946497944e+01   5.3909102222e+01    0.2739592   0.08905313  58.67  0.001019871    2.594    0.615
         7 -10.3081    103.4585      9.4838   5.7557035374e+01   5.7686526354e+01    0.2290846    0.1298128  71.48  0.001027547    2.287    0.563
         8 -10.1873     91.5204      9.1825   6.0600530002e+01   6.0318980873e+01     0.251861    0.1780887  73.82  0.001323574    1.938    0.484
         9  -9.9693     35.4848      6.4618   8.0274920770e+01   7.0294714519e+01    0.2379321    0.1914273 -41.53  0.001602062    1.703    0.413
        10 -11.0369     71.8617      6.6381   6.5506224119e+01   6.4499603082e+01    0.2915752    0.2105127  52.53  0.001624924    1.545    0.353
        11 -10.3807    187.9193      4.7120   4.1686760437e+01   3.7107842299e+01    0.2344511   0.05095405  53.40 0.0007022182    4.244    0.764
        12 -11.7297    184.3797      3.1620   4.1641096539e+01   3.8156105413e+01    0.5265601    0.1318926  54.04  0.001762713    3.578    0.721
        13 -10.3338    144.5158      4.4993   4.7380874008e+01   4.8237606205e+01    0.1369755    0.1225354  63.15 0.0001255027    1.017    0.016
        14  -9.0377     24.3288      4.6745   8.4941529406e+01   7.1858581148e+01   0.09661294   0.09030998 -37.00 0.0003006038    1.701    0.412
        15 -10.6538    117.4755      3.5003   5.1928792479e+01   5.4980598697e+01    0.2352532    0.1275058  76.62  0.001034115    2.267    0.559
        16  -9.8134    100.4946      3.5219   5.5761861957e+01   5.8895393471e+01    0.1330251    0.1135653  33.76 0.0001842606    1.001    0.001
        17 -10.7819    168.8544      2.3369   4.3230479060e+01   4.2206749955e+01    0.2865641    0.1200599  80.62  0.001096629    2.618    0.618
        18 -10.6755    161.9727      2.5045   4.4172600353e+01   4.3957768703e+01    0.2187327    0.1213609  69.91  0.001035855    1.598    0.374
        19 -10.3957     80.0471      2.0025   6.0651379669e+01   6.3364263533e+01     0.270134    0.1563895  50.66  0.001348595    1.597    0.374
        20 -10.1297     64.5092      1.7037   6.5612372853e+01   6.6347260872e+01     0.277133    0.1542339  61.36  0.001341976    2.672    0.626
        21 -10.3298    152.7842      1.4209   4.5095520729e+01   4.6399813953e+01    0.2059124    0.1054456  57.58 0.0009512314    1.669    0.401
        22 -10.3836    128.6322      1.8247   4.9131505597e+01   5.2422683501e+01      0.27762   0.08374739  62.85  0.001013004    2.735    0.634
        23  -9.9184    156.8295    188.1365   9.5679704296e+01   1.2420563393e+01     0.218005    0.1870565  60.35  0.001226792    1.211    0.174
        24 -11.9659     97.0202    187.6948   1.0880720137e+02   2.3124214575e+01    0.6778523    0.2193253  46.84  0.002529344    2.856    0.650
        25  -9.6609     56.4798    188.0071   1.1774053234e+02   2.8886062019e+01    0.2767157    0.1040979  61.66    0.0010322    3.540    0.718
        26  -9.4778     35.4954    188.4883   1.2220292453e+02   3.1265081584e+01     0.124079   0.09187218  76.40 0.0003622223    1.079    0.073
        27  -9.3524    121.0000    187.0771   1.0336503000e+02   1.9218307113e+01    0.2162303   0.07897316 -55.16 0.0008017741    2.938    0.660
        28 -10.5650    110.4138    186.7735   1.0568295999e+02   2.1112492129e+01    0.4340901    0.1876752  59.00   0.00152558    3.338    0.700
        29  -9.6191     75.6484    185.3045   1.1325063272e+02   2.6887066115e+01    0.1414268   0.08575131  67.94 0.0007041072    1.705    0.414
        30 -10.4783     12.6437    184.2200   1.2652047879e+02   3.4470862753e+01    0.2211004    0.1990172  82.70  0.001695915    1.308    0.236
        31 -10.1377    197.8058    183.1387   8.6220497702e+01   5.5021973007e+00    0.2790611    0.1707483 -60.63  0.001167874    2.811    0.644
        32  -9.8434    212.2034    182.7990   8.3337725046e+01   2.8681489839e+00    0.1983583    0.1832061  19.19  0.001207138    1.120    0.107
        33  -9.5256     45.0016    183.0000   1.1970555740e+02   3.1382164022e+01    0.1851687   0.06594616  34.35 0.0008010834    2.933    0.659
        34  -9.2594    148.3326    181.6609   9.6371499351e+01   1.5296493639e+01    0.1477008    0.1096553  75.77 0.0007051729    1.745    0.427
        35 -10.9621     78.0465    176.5334   1.1158821979e+02   2.8488044945e+01     0.502288    0.1626641  52.47  0.001716636    3.661    0.727
        36  -9.8672     60.8195    177.6367   1.1565252971e+02   3.0620322508e+01    0.1900096   0.09936155  49.28 0.0009497849    1.789    0.441
        37  -9.9081    204.4937    176.0534   8.3477650138e+01   5.4319963979e+00    0.2116953    0.1353677 -34.67  0.001034609    1.599    0.375
        38 -10.3945    106.9695    176.1271   1.0482634632e+02   2.3995462969e+01    0.3576067     0.151158  56.91  0.001248944    3.181    0.686
        39  -9.2703    135.6689    172.3481   9.7531493137e+01   1.9623139445e+01    0.1526259    0.1107254  77.31  0.000704901    1.766    0.434
        40  -9.0058     45.3383    172.6787   1.1859195420e+02   3.3644242611e+01     0.136144   0.07873096  69.23 0.0007050345    1.714    0.417
        41 -10.0274    122.5506    170.6390   1.0026843662e+02   2.2441669139e+01    0.3349316    0.1924259  67.52   0.00131565    2.564    0.610
        42  -9.4235    207.7965    170.4031   8.1665125396e+01   5.7583715037e+00    0.2086863    0.1238586  32.07 0.0009538025    1.716    0.417
        43 -10.2439     56.0839    170.3721   1.1588375616e+02   3.2871788441e+01    0.2641857    0.1340712  52.40  0.001296395    1.916    0.478
        44  -9.6701    214.4692    168.4906   7.9974808613e+01   4.7969886808e+00    0.1408005    0.1273417   4.47 0.0004499791    1.016    0.015
        45 -10.2777    101.1227    167.2459   1.0477328780e+02   2.6967801054e+01    0.4338286    0.1543717  47.76  0.001557683    2.827    0.646
        46  -9.8233    140.4578    165.9788   9.5225746201e+01   2.0049784073e+01    0.3092983    0.1752993  70.93  0.001033344    3.531    0.717
        47 -10.4061     80.9897    165.0212   1.0927559627e+02   3.0678596237e+01    0.4225064     0.214929  71.46  0.001581358    3.151    0.683
        48  -9.6206     38.4838    165.4526   1.1939374657e+02   3.6055307574e+01    0.1276167    0.1003984  83.12 9.145961e-05    1.055    0.052
        49  -9.9328     70.7338    163.7517   1.1156945838e+02   3.2456764825e+01    0.2152759   0.08834001  47.59 0.0008627718    2.404    0.584
        50 -10.2101     94.1872    161.2042   1.0546109647e+02   2.9498766464e+01    0.4118769    0.1628316  44.40  0.001601316    2.440    0.590
        51  -9.5767     63.0069    161.5121   1.1313069647e+02   3.4027279835e+01    0.2004509   0.08781614  56.23 0.0008105403    2.634    0.620
        52  -9.4779     10.3429    161.7063   1.2538411053e+02   3.9579858045e+01    0.1233692   0.06826643  67.65  0.000301922    1.660    0.397
        53 -10.4305    107.4409    159.0738   1.0183498290e+02   2.7745303617e+01    0.5292946    0.2013779  49.70  0.001862431    2.847    0.649
        54 -10.1909    120.6983    156.5290   9.8106781159e+01   2.5916890477e+01    0.3749654    0.2250717  66.07  0.001517683    2.269    0.559
        55 -10.6160     51.0665    156.1477   1.1533574135e+02   3.6782633952e+01    0.4580747    0.1720466  52.03  0.001841417    2.958    0.662
        56 -10.7516     83.3850    155.7855   1.0725458067e+02   3.2470370385e+01    0.4784023    0.2001081  54.16  0.001771199    2.920    0.658
        57  -9.7314    213.0367    155.5401   7.7458177636e+01   7.2903175566e+00    0.2178136     0.137761  42.18 0.0005410411    1.580    0.367
        58 -10.6583     69.5736    154.6602   1.1054351193e+02   3.4749714135e+01    0.4650872    0.1896704  48.07   0.00190413    2.522    0.604
        59 -10.1641    134.7735    154.1152   9.4206741472e+01   2.3739958349e+01    0.4032564    0.1835328  57.02  0.001336679    3.090    0.676
        60 -10.0347     99.6182    151.7347   1.0245973487e+02   3.0797914679e+01    0.2649913    0.1619719  58.31  0.001057484    1.812    0.448
        61  -9.3697     91.9849    152.4908   1.0453079237e+02   3.1889758517e+01    0.2101956    0.1068137  59.21 0.0007487347    2.515    0.602
        62  -9.7878     30.2701    151.3214   1.1982913265e+02   4.0162564716e+01    0.2508788    0.1087163  53.80  0.001170915    2.446    0.591
        63 -10.6667     40.6411    148.5638   1.1696268665e+02   3.9748771306e+01      0.45056     0.174464  54.77  0.001825943    3.095    0.677
        64 -11.3118    109.4783    146.7422   9.8999955361e+01   3.0231577122e+01    0.7668263    0.3625425  61.76  0.002417432    3.787    0.736
        65 -11.0899     57.5428    146.7959   1.1244020833e+02   3.8206755561e+01    0.6017448    0.2501471  56.97  0.002283934    3.215    0.689
        66 -11.0537    150.7312    146.2562   8.8714310608e+01   2.2188200486e+01    0.6430804    0.3203023  60.19  0.002150593    3.049    0.672
        67  -9.9299     79.2093    147.5762   1.0696344940e+02   3.5046724392e+01    0.2647941    0.1251007  42.53  0.001131239    2.124    0.529
        68  -9.7998     14.0707    146.6864   1.2325426134e+02   4.2675983654e+01    0.2125192   0.08651157  38.13  0.001036538    2.518    0.603
        69 -10.5705    126.9665    144.3737   9.4086134012e+01   2.7464745362e+01    0.6234459    0.3090304  60.01  0.002113232    3.034    0.670
        70 -10.9479     89.8826    144.8917   1.0371414319e+02   3.4028460474e+01    0.5432588    0.1964249  45.16  0.001965011    2.815    0.645
        71 -10.5744     24.6247    139.1130   1.1987732942e+02   4.3542923697e+01    0.4834298    0.1914325  57.55   0.00203887    3.155    0.683
        72 -10.4185     40.1004    136.7710   1.1557493573e+02   4.2607118072e+01    0.3020507    0.1885961  46.98  0.001298806    1.696    0.410
        73 -10.6440    114.4344    134.4454   9.5150145080e+01   3.2179505256e+01    0.4829433    0.2179031  58.73  0.001479661    3.732    0.732
        74 -11.8738     85.6967    132.8974   1.0255781658e+02   3.7569553175e+01    0.7693003     0.295576  47.29  0.002785714    2.876    0.652
        75 -10.2194    144.6998    132.8471   8.7082187385e+01   2.6386888133e+01    0.3139404     0.203526  68.73  0.001236106    2.186    0.542
        76 -11.1927    133.9126    132.8703   8.9769529678e+01   2.8660877567e+01    0.5391322    0.2688063  56.95  0.001902768    2.592    0.614
        77  -9.6599    154.0028    130.5090   8.4273182727e+01   2.4869510549e+01    0.3209486    0.2004745 -80.32   0.00104248    3.446    0.710
        78 -11.5654    101.7017    129.5606   9.7489224039e+01   3.5673669461e+01    0.7489184    0.3788317  51.31  0.002962626    2.226    0.551
        79 -11.3407     74.7258    130.5162   1.0512652082e+02   3.9810716746e+01    0.4639693    0.2154769  48.82   0.00189736    2.408    0.585
        80 -10.4282     13.8032    130.3948   1.2168901398e+02   4.6469718753e+01     0.343729    0.1609992  61.30  0.001675416    2.490    0.598
        81  -9.7178    170.0005    130.5061   8.0568717544e+01   2.1302119581e+01    0.2234551    0.1396286  71.02 0.0008105718    2.576    0.612
        82  -9.2901      2.6387    130.3219   1.2453469625e+02   4.7266501755e+01    0.1246669   0.07076449  68.99   0.00070424    1.776    0.437
        83 -11.2205    120.3942    126.8111   9.1842066371e+01   3.2791973807e+01    0.7103679    0.3197164  56.77  0.002278879    3.265    0.694
        84 -11.9455     61.4488    125.5968   1.0794941027e+02   4.2821653716e+01    0.7301445    0.3483493  53.67  0.003013863    2.639    0.621
        85 -11.6520     45.3819    124.3584   1.1229506900e+02   4.5026493674e+01    0.7498195    0.3740712  68.70  0.002969774    3.207    0.688
        86 -10.3362    181.0235    125.8498   7.6994132438e+01   1.9745888037e+01    0.3955177     0.184759  60.65  0.001261769    3.205    0.688
        87 -10.0623    160.6095    123.0001   8.0851482600e+01   2.4986212277e+01     0.317267    0.1805855  63.14   0.00114865    2.427    0.588
        88 -11.5176     29.7315    123.5459   1.1656532880e+02   4.6773923901e+01    0.8046581    0.3502912  68.51  0.002927446    4.126    0.758
        89 -11.0670    143.4996    120.2843   8.4290709795e+01   2.9405176194e+01    0.5992411    0.3375728  52.88  0.002182734    1.906    0.475
        90 -10.6595     72.8219    120.9119   1.0379010089e+02   4.2407936094e+01    0.4924501    0.2100296  48.15  0.001900282    2.745    0.636
        91 -10.6177    132.6802    119.9261   8.6947637980e+01   3.1829171669e+01    0.5580491    0.2751024  59.89  0.001824499    3.062    0.673
        92 -10.6427      4.2224    118.1961   1.2291391313e+02   4.9959377721e+01    0.4309337    0.1820041  61.13  0.001978234    3.044    0.672
        93 -11.1027    111.0785    115.9368   9.1742555050e+01   3.7134003388e+01    0.6029277    0.3744644  72.57  0.002237382    2.745    0.636
        94 -11.3738     80.9953    114.1280   9.9952264136e+01   4.2818126097e+01    0.6911419    0.3834099  60.75  0.002734248    2.650    0.623
        95 -11.5919     95.1739    113.9279   9.5760419096e+01   4.0528008084e+01    0.7285048    0.3427565  46.75  0.002840104    2.318    0.569
        96 -10.6141    124.4085    113.6877   8.7535955598e+01   3.4973201048e+01    0.4942682    0.2411601  48.76  0.001852441    2.161    0.537
        97  -9.3595    160.6555    113.3146   7.8335614344e+01   2.7000499947e+01    0.1638188    0.1275124 -85.16 0.0007047591    1.713    0.416
        98 -11.1971     68.3321    112.0059   1.0326624312e+02   4.5186556132e+01    0.5226251    0.2516456  48.51  0.002171216    2.467    0.595
        99 -10.7700     15.1464    111.4912   1.1905919493e+02   5.0798658384e+01     0.395604    0.2389479  74.92  0.001817636    1.855    0.461
       100  -9.9858    134.8305    110.5842   8.3972117875e+01   3.3438551938e+01    0.3621388    0.1468119  53.68  0.001133512    3.042    0.671
       101 -10.7751     60.4014    110.1329   1.0527659366e+02   4.6689981830e+01    0.2717979    0.1679197  51.99  0.001316204    1.903    0.474
       102 -11.7977     47.7179    104.0585   1.0796761008e+02   4.9649158121e+01    0.9500357     0.438777  57.38   0.00355234    3.704    0.730
       103 -11.4752     24.4321    103.8814   1.1518112392e+02   5.1891692710e+01    0.7858232    0.3617306  61.85  0.003205389    3.571    0.720
       104 -10.5996    141.7160    105.9456   8.0954584681e+01   3.2911495454e+01    0.5034991    0.2635091  60.73  0.001747904    2.617    0.618
       105  -9.9627    150.9264    104.0114   7.8138145426e+01   3.1203545202e+01    0.2623616    0.2009034 -83.69  0.001134597    1.767    0.434
       106 -11.0149    131.1468    103.4232   8.2996013260e+01   3.5810654845e+01    0.6400961    0.2737962  47.21  0.002243267    2.396    0.583
       107 -10.5280      8.5599    104.0805   1.2000718524e+02   5.2963487985e+01    0.3116603    0.1305554  38.54  0.001569926    2.748    0.636
       108 -11.6813    112.4708    101.0255   8.7464582570e+01   4.0262641082e+01     1.011833     0.456139  56.76    0.0032207    3.423    0.708
       109 -10.5900     83.5382    101.2189   9.6111197999e+01   4.5467911726e+01    0.4972939    0.2752835  55.69  0.002017046    2.450    0.592
       110 -10.9620     97.6791     98.0472   9.0975900832e+01   4.3766628203e+01    0.6392743    0.2744224  41.19  0.002392838    2.452    0.592
       111 -11.5673     67.0769     97.5577   1.0038036250e+02   4.8792067356e+01    0.9069632    0.3662016  42.73  0.003555362    2.811    0.644
       112 -10.3580    141.4980     93.5514   7.7511186504e+01   3.5565766374e+01    0.5002316     0.243843  56.77  0.001763602    2.425    0.588
       113 -11.0530    127.9427     92.4613   8.0734143103e+01   3.8865375718e+01    0.7984701    0.3253062  50.05  0.002710631    2.621    0.618
       114 -10.6979      8.2901     93.0348   1.1854515750e+02   5.5531391325e+01    0.5430192    0.1561258  27.72  0.002396976    3.806    0.737
       115 -11.0262     36.3302     91.1233   1.0903136897e+02   5.3859514889e+01    0.4557013    0.3095482  54.65  0.002294649    1.845    0.458
       116 -11.3138     89.8253     88.5266   9.0738775671e+01   4.7308191198e+01    0.7934473    0.3569719  48.24   0.00299005    2.649    0.623
       117 -11.3671     51.1510     86.4723   1.0296416398e+02   5.3387939299e+01    0.6891703    0.3360846  52.87  0.002770443    3.244    0.692
       118 -11.2013    107.5867     85.0012   8.4267806193e+01   4.4743698366e+01     0.767462    0.3827088  55.14  0.002812653    2.633    0.620
       119  -9.1109    160.6575     84.3106   7.0206912751e+01   3.2794983907e+01    0.1639166    0.1253734 -78.03 0.0005788117    1.698    0.411
       120 -10.0644    143.0049     84.3368   7.4399380236e+01   3.7068171005e+01    0.4252821    0.1955683  57.53  0.001451891    2.578    0.612
       121 -11.0156     26.5428     81.9044   1.1046549570e+02   5.6835218738e+01    0.5353701    0.2721295  43.51  0.002677814    2.503    0.600
       122 -10.8932     75.6973     81.7872   9.3380964582e+01   5.1128958988e+01    0.3502798    0.2451482  61.12  0.001510493    1.977    0.494
       123 -10.4331     12.9959     82.5011   1.1527789256e+02   5.7658142974e+01    0.2926646    0.1315308  28.82   0.00151439    2.643    0.622
       124  -9.8149      9.0084     81.0000   1.1638192182e+02   5.8235432768e+01     0.190399    0.1650951  34.30  0.001055744    1.457    0.314
       125  -9.7223    121.4769     81.7050   7.9263763555e+01   4.2515977392e+01    0.4101092    0.1394391  52.21  0.001217606    3.532    0.717
       126  -9.3806    151.8237     81.6031   7.1434893931e+01   3.5475740408e+01    0.2287471    0.1519595  65.21 0.0009470831    1.761    0.432
       127 -10.1650     62.1465     77.4758   9.6781640278e+01   5.4042855316e+01    0.2537435    0.1791872  88.29  0.001182523    2.331    0.571
       128 -10.6241    130.2276     76.8717   7.5371517575e+01   4.1514587919e+01    0.5664293    0.2867292  60.01   0.00202093    2.566    0.610
       129  -9.6290    142.4383     76.4874   7.2127796024e+01   3.8717893436e+01    0.3289883    0.1546729  51.85  0.001203771    2.144    0.534
       130 -10.9335     84.3110     74.3722   8.8278126760e+01   5.1324278075e+01    0.5728621    0.3680724  61.19  0.002490074    2.357    0.576
       131 -10.2156     44.4058     73.8845   1.0215159631e+02   5.6980156105e+01    0.3093771    0.1718492  39.92  0.001545291    2.156    0.536
       132  -9.8979      7.9299     73.3893   1.1539550581e+02   6.0003176448e+01    0.2900652    0.1410559  43.85  0.001499588    2.771    0.639
       133  -9.7969    117.5108     73.5291   7.7785126492e+01   4.5011946595e+01    0.3236794    0.1506719  47.76  0.001216909    2.198    0.545
       134 -10.2709    107.8980     72.9689   8.0397241714e+01   4.7157625321e+01    0.4459476    0.2217305  51.90   0.00172219    2.301    0.565
       135 -10.4615     96.8208     72.7133   8.3707685818e+01   4.9404900774e+01    0.4549897    0.3067974  63.42  0.002005373    2.116    0.527
       136 -10.8353     53.1496     71.0451   9.8164155072e+01   5.6602946064e+01    0.5403887     0.376902  62.16  0.002740298    2.181    0.542
       137 -10.6348     17.9268     70.9548   1.1124415940e+02   5.9934578970e+01    0.3095689    0.1788562  37.00  0.001750178    2.156    0.536
       138  -9.9779    123.4916     67.4792   7.4136214953e+01   4.4835735952e+01    0.4136951    0.2652801  63.80  0.001741356    1.967    0.492
       139  -9.5111    139.8300     67.6010   6.9945141979e+01   4.0982641786e+01    0.2244855    0.1489758  66.06 0.0009458684    1.788    0.441
       140 -10.4439     39.7153     65.7198   1.0168106155e+02   5.9251518515e+01    0.4799167    0.2269174  43.17  0.002183834    2.833    0.647
       141  -9.6608    148.7782     69.2178   6.8319078522e+01   3.8507961685e+01    0.4001245    0.1933835  59.71  0.001446109    2.316    0.568
       142 -10.2641    112.1405     65.0342   7.6506377704e+01   4.7796049230e+01    0.4627789    0.2519018  59.18  0.001792827    2.417    0.586
       143 -10.3251    102.4973     62.1168   7.8381701707e+01   5.0354788425e+01    0.4400936    0.3035872  73.15  0.001875524    2.394    0.582
       144 -11.0529     76.4798     60.9272   8.6527488797e+01   5.5371844393e+01    0.6953834    0.3154469  46.06  0.002824762    2.622    0.619
       145  -9.7465     90.3442     60.7101   8.1745682478e+01   5.2985587268e+01    0.2635266    0.1756181  52.55  0.001245928    1.788    0.441
       146 -10.2982     27.4670     60.5447   1.0503780204e+02   6.1487215426e+01    0.4076691    0.1704278  39.16  0.001861715    3.122    0.680
       147  -9.6808    133.1999     59.3610   6.8870585377e+01   4.4018271513e+01    0.2186466    0.1446085  62.01 0.0009522124    1.679    0.405
       148 -10.7250     10.0146     58.7576   1.1156156086e+02   6.3085325141e+01    0.4056995    0.1802208  33.91  0.002104896    2.834    0.647
       149 -10.2350    121.6182     57.5228   7.1260861336e+01   4.7042686537e+01    0.4468667    0.2492668  61.63   0.00177243    2.236    0.553
       150  -9.3962    141.1957     57.4076   6.6265976687e+01   4.2406954612e+01    0.2209649    0.1476312  67.00 0.0009561487    1.718    0.418
       151 -10.5524     55.8534     55.9568   9.2420477418e+01   5.9405615846e+01     0.377683     0.291908  76.06  0.001984285    2.217    0.549
       152 -10.4481     46.0827     56.7440   9.6497859626e+01   6.0448908517e+01    0.3858345    0.2266801  43.40  0.001967287    2.200    0.546
       153 -10.1882    108.6097     55.4803   7.4206029237e+01   5.0277270776e+01    0.3595633    0.2345395  60.97  0.001167004    1.911    0.477
       154 -10.8269     64.4750     55.7611   8.9080886610e+01   5.8246285366e+01     0.413371    0.2454168  41.88  0.001810199    1.937    0.484
       155 -10.9900     95.0537     52.3513   7.7217220654e+01   5.3611362544e+01    0.5781935    0.3128423  48.10  0.002538111    1.964    0.491
       156 -10.8034     33.5640     53.0797   1.0039767544e+02   6.2506295046e+01    0.4907412     0.250466  43.74  0.002367831    2.803    0.643
       157 -10.1261     21.8302     53.5704   1.0540980770e+02   6.3402172092e+01    0.3008112    0.1826684  37.37  0.001731856    2.112    0.527
       158  -9.6773    114.3008     48.1641   6.9930307082e+01   5.0254978020e+01    0.2836339     0.176173  60.19   0.00124995    1.868    0.465
       159 -10.5223     84.0281     47.8826   7.9178083916e+01   5.6481971829e+01    0.4499849    0.2256211  49.58  0.001916477    2.337    0.572
       160  -9.6471     74.7740     48.4807   8.2646157527e+01   5.7994570875e+01    0.3211326    0.1320299  37.64   0.00129687    2.570    0.611
       161  -9.8297    124.0352     46.9189   6.6873528855e+01   4.8218126691e+01    0.3191003    0.2038672  70.22  0.001360367    2.072    0.517
       162 -10.4541     47.1410     45.7182   9.2297472034e+01   6.2495155552e+01    0.3895301    0.1976709  34.49  0.001939659    2.200    0.545
       163 -10.4750     19.2399     45.7689   1.0424138944e+02   6.5191558442e+01    0.4184397    0.1798316  23.09   0.00213867    2.684    0.627
       164 -10.5223     59.8396     43.8920   8.6505032748e+01   6.1146223396e+01    0.3866801    0.2962769  61.24  0.002099334    2.077    0.519
       165  -9.4469    134.4682     44.3007   6.3372756348e+01   4.6112757699e+01    0.2702573    0.1316101  56.68  0.001065684    2.012    0.503
       166 -10.7078     71.3778     42.7369   8.1668106974e+01   5.9565803415e+01    0.4751935    0.2972734  53.01   0.00229816    2.196    0.545
       167 -10.4907      6.8348     43.5163   1.0906389775e+02   6.6436883231e+01    0.3111176    0.2285678  49.39  0.001955477    1.981    0.495
       168 -10.3725    107.7604     42.6265   6.9714517342e+01   5.2571072754e+01    0.3502483    0.2535186  59.99  0.001738057    1.579    0.367
       169 -10.2155     38.1409     41.6192   9.4599937211e+01   6.4298297810e+01    0.3060052    0.1966213  46.64  0.001609876    2.283    0.562
       170 -10.3573     97.2882     39.2970   7.1539268636e+01   5.5303325834e+01    0.3653792    0.2480938  64.15   0.00173384    1.985    0.496
       171 -10.0749     82.9131     38.0985   7.5718685237e+01   5.8307347257e+01    0.2903451    0.2323969  56.16  0.001608899    1.561    0.359
       172 -10.0334    113.9691     36.3239   6.5595438632e+01   5.2114934159e+01     0.363663    0.2286484  70.24  0.001586656    2.172    0.540
       173 -10.4909     28.0196     36.8831   9.7357727857e+01   6.6196930759e+01    0.3078939     0.185628  34.92  0.001780156    2.055    0.513
       174  -9.3878    105.5343     35.5070   6.7607298513e+01   5.4112101806e+01    0.1412092    0.1307202  14.20 0.0002232808    1.026    0.026
       175  -9.6292     90.0033     35.4971   7.2313232304e+01   5.7347180433e+01    0.2093679    0.1311532  44.61 0.0009209681    1.584    0.369
       176  -9.7276    121.5283     34.4477   6.2936841497e+01   5.0621062904e+01    0.3122679    0.1363923  55.92  0.001218051    2.215    0.548
       177 -10.7139     62.9780     33.6854   8.1170688254e+01   6.2419127585e+01    0.4672285    0.2286037  46.25  0.002135252    2.491    0.599
       178 -10.5055     51.7849     33.7532   8.5714472481e+01   6.4043398673e+01    0.3768428    0.2154994  43.69  0.001933665    2.201    0.546
       179 -10.5972     74.8161     32.6044   7.6281793344e+01   6.0622987655e+01    0.4554774    0.2319908  49.50  0.002068003    2.303    0.566
       180 -10.2862     13.9507     31.6070   1.0206052648e+02   6.8325007405e+01     0.250365    0.1816578  50.12  0.001474877    2.223    0.550
       181 -10.1269    103.3259     30.1523   6.6112451875e+01   5.5333612726e+01    0.3709981    0.2212954  52.81  0.001723851    1.669    0.401
       182 -10.6093     83.7590     29.0065   7.1662718597e+01   5.9504201736e+01    0.4123609    0.3009942  74.34  0.002028767    2.348    0.574
       183  -9.6766     43.7059     30.5654   8.7838158206e+01   6.5631969229e+01    0.2716461    0.1152767  35.51  0.001278358    2.578    0.612
       184  -9.7620      4.5269     28.4901   1.0560546574e+02   6.9501163832e+01    0.2133015    0.1611298  70.94  0.001359697    2.358    0.576
       185  -9.5267    111.5314     28.0237   6.3026866771e+01   5.3783576898e+01    0.2337478    0.1742148  49.82  0.001016239    1.276    0.216
       186 -10.5437     93.4175     27.6336   6.8001673061e+01   5.7769947803e+01    0.3596798    0.2697204  66.18  0.001895813    1.741    0.425
       187  -9.6828     40.2281     25.4283   8.7183870103e+01   6.6908586213e+01    0.1533957    0.1125817  36.59 0.0009443308    1.668    0.400
       188  -9.6278    106.7266     23.6328   6.2547630982e+01   5.5413809412e+01    0.2479901    0.1734867  62.53  0.001264676    1.575    0.365
       189 -10.9995     51.5079     22.3165   8.0838122425e+01   6.5898777593e+01    0.4897792    0.2190788  37.66  0.002369969    2.321    0.569
       190  -9.4610     21.1437     22.4033   9.4984023052e+01   6.9412395653e+01    0.1481193    0.1030281  31.07 0.0009545073    1.784    0.440
       191 -10.8960     65.5242     21.6235   7.4890961336e+01   6.3812596205e+01    0.3814646    0.2590821  45.37  0.002151942    1.645    0.392
       192 -10.8679     76.2482     20.3577   7.0426219929e+01   6.2085331527e+01    0.4807193    0.2633061  53.33   0.00231605    2.139    0.532
       193  -8.9509     12.4775     21.5264   9.9027647061e+01   7.0262631917e+01    0.1172457   0.08611924 -30.58 0.0003060664    1.018    0.018
       194  -9.9724     40.7830     18.9790   8.4007453906e+01   6.7850505864e+01     0.252166     0.166457  32.66   0.00153147    1.643    0.392
       195 -10.6274     90.0485     18.0337   6.4929429033e+01   5.9666781069e+01    0.3795249    0.1889021  51.31  0.001761525    1.934    0.483
       196 -10.7171     98.9441     16.2287   6.1590747025e+01   5.7987506121e+01    0.3001748    0.2378591  68.42  0.001687274    1.513    0.339
       197 -10.1350     31.9300     17.0677   8.7280412585e+01   6.9201820623e+01    0.2586241    0.1581147  38.74  0.001516701    2.091    0.522
       198  -9.6403    114.3422     15.6786   5.7441121837e+01   5.4569029247e+01    0.1359762      0.10625 -68.29 0.0007050246    1.724    0.420
       199  -9.5446     18.4445     14.8066   9.3044411761e+01   7.0915439249e+01    0.1778819    0.1284648  44.66  0.001123023    2.280    0.561
       200  -9.2422      8.3434     15.6989   9.8824692222e+01   7.1564708643e+01   0.09225518   0.08890081  88.41 0.0004065979    1.678    0.404
       201 -11.3225    166.1022    248.8223   1.0308719951e+02   7.9098624458e-01    0.2600039    0.1735574  44.20  0.001632637    1.231    0.187
       202 -10.6821    246.1185    247.5772   8.8728749832e+01  -1.1119243052e+01    0.2673581    0.1704793  32.13  0.001763397    1.344    0.256
       203  -9.9939     77.3467     10.5990   6.5564592906e+01   6.3036932751e+01    0.2345078     0.121466  55.05  0.001119696    2.133    0.531
       204  -9.5663    107.2455    248.6335   1.1386237318e+02   1.0015472103e+01    0.1641825   0.09341072  36.83 0.0008142252    1.654    0.396
       205 -10.9415    173.8527    244.8795   1.0113406110e+02   1.0090540965e-01    0.3164416    0.1673832 -60.89  0.001481545    3.650    0.726
       206 -10.1984    167.5201    242.5210   1.0198746489e+02   1.4552169849e+00    0.1235976   0.09807783  35.26 0.0001808341    1.029    0.028
       207 -10.3881    237.2803    240.0896   8.9034776905e+01  -9.0655765888e+00    0.3006108    0.1330499  31.67  0.001221362    1.888    0.470
       208  -9.9190    106.5401    235.5075   1.1265107450e+02   1.2328798437e+01    0.1234921   0.09648959  57.58 0.0008090374    1.034    0.033
       209 -10.9215    163.9675    226.0036   1.0033534054e+02   4.5349418320e+00    0.3441795    0.2591096  48.94   0.00149589    1.232    0.189
       210 -11.6434     98.7788    226.3974   1.1316510987e+02   1.5138516510e+01    0.3668321    0.1995634  37.06  0.001954553    1.782    0.439
       211  -8.7406    171.2649    225.6469   9.8865220805e+01   3.3495216180e+00    0.1185335   0.09564911  70.67 0.0003217615    1.622    0.383
       212 -11.4747    125.9285    221.1865   1.0719038328e+02   1.1770227746e+01    0.2959468    0.2699132  40.27 0.0009082251    1.171    0.146
       213 -11.0880     88.1197    227.1429   1.1529924319e+02   1.6589627836e+01    0.1735424    0.1587132  51.10 0.0006953388    1.288    0.223
       214  -9.5057    160.6634    227.2971   1.0116624889e+02   4.8909146937e+00    0.1811619    0.1613965 -89.69 0.0006643592    1.409    0.290
       215  -9.2130    143.6751    216.6861   1.0300681811e+02   9.5686783758e+00    0.1268221    0.0990216  10.74 0.0005448461    1.664    0.399
       216 -10.0386    131.2132    214.7603   1.0526506121e+02   1.2045421366e+01    0.1694338    0.1508895  15.78  0.001060093    1.346    0.257
       217 -10.1699     89.3751    199.8599   1.1204645635e+02   2.1752401394e+01    0.2332312    0.1513977  53.64 0.0006858552    1.359    0.264
       218 -11.1212    173.0289    195.8117   9.3632937762e+01   7.9711815177e+00    0.2919095    0.2633125  69.43 0.0008689613    1.297    0.229
       219  -9.3458    174.2966    191.7089   9.2634242386e+01   8.4602205000e+00    0.2075975     0.190036  49.66 0.0004699868    1.139    0.122
       220 -10.1610    126.5742    197.3723   1.0372959596e+02   1.6150691778e+01    0.2739387    0.2195114 -26.74   0.00151628    1.685    0.407
       221  -9.2920     78.3694    193.6815   1.1366080425e+02   2.4684243811e+01    0.1426779    0.0831788  67.30 0.0007035919    1.790    0.441
       222  -9.5603    203.6639    188.3185   8.6073222026e+01   3.5462820360e+00    0.1291235    0.1110109  79.04 0.0003602671    1.702    0.412
