#   1 NUMBER                 Running object number                                     
#   2 MAG_AUTO               Kron-like elliptical aperture magnitude                    [mag]
#   3 X_IMAGE                Object position along x                                    [pixel]
#   4 Y_IMAGE                Object position along y                                    [pixel]
#   5 X_WORLD                Barycenter position along world x axis                     [deg]
#   6 Y_WORLD                Barycenter position along world y axis                     [deg]
#   7 A_WORLD                Profile RMS along major axis (world units)                 [deg]
#   8 B_WORLD                Profile RMS along minor axis (world units)                 [deg]
#   9 THETA_WORLD            Position angle (CCW/world-x)                               [deg]
#  10 FWHM_WORLD             FWHM assuming a gaussian core                              [deg]
#  11 ELONGATION             A_IMAGE/B_IMAGE                                           
#  12 ELLIPTICITY            1 - B_IMAGE/A_IMAGE                                       
         1 -11.4704     83.5842     50.1188   5.6036969490e+01   5.7380981746e+01     1.535357    0.7766696 -25.35  0.005072978    3.264    0.694
         2 -11.6662    154.8457     35.5768   3.3133084016e+01   4.1557024328e+01     1.358352    0.8581576 -89.15  0.006125978    1.805    0.446
         3 -12.9385    138.0161     46.6996   3.9880392106e+01   4.4365997575e+01     1.063165    0.6887632  50.25  0.004811631    1.600    0.375
         4 -11.7864     54.3800     34.9778   6.1677597470e+01   6.6514666143e+01    0.7118747     0.312582 -50.54  0.002701159    2.493    0.599
         5 -10.3786      1.9053     21.2464   9.2946324328e+01   7.6152132510e+01    0.4684336    0.1683407 -61.66   0.00204336    2.199    0.545
         6 -10.2125     23.7765      7.4195   6.4461566471e+01   7.6934455163e+01     0.557703     0.223657  27.85 0.0008237108    3.331    0.700
         7 -10.6295     35.2636     26.6618   6.8439609258e+01   7.1502694428e+01    0.5460718    0.3831375 -54.92  0.001076551    1.498    0.333
         8 -11.3362     30.5327     29.4348   7.3132558953e+01   7.1603486547e+01     1.135857    0.3594879 -54.79  0.003580668    3.139    0.681
         9 -12.1489      4.8163      5.0493   8.2064493746e+01   7.9615420400e+01     0.693363    0.5316774  49.43  0.004202898    1.674    0.403
        10 -10.5363     15.6577      2.9399   6.8394298688e+01   7.8882364116e+01    0.6748405    0.4035329  52.00  0.003278628    2.514    0.602
        11  -9.7698     39.6695      9.0654   5.4058906381e+01   7.3911468857e+01    0.2635169    0.2084147   0.94 0.0003345558    1.347    0.258
        12 -11.3750     36.3479      2.5935   5.1010294616e+01   7.5493644566e+01     0.887104    0.3300995  44.33  0.003585913    2.576    0.612
        13 -12.4463     15.5125     14.0178   7.6577201127e+01   7.6728907085e+01    0.8505979    0.3485302  20.31 0.0007934511    2.879    0.653
        14 -10.6252     24.6338     13.2635   6.8051701007e+01   7.5733024632e+01    0.3239949    0.2322674 -34.11 0.0005527255    1.328    0.247
        15 -11.4640     27.4984     19.1473   6.9607115728e+01   7.4174349153e+01     2.008123    0.8995675 -23.35  0.004573567    9.211    0.891
        16 -11.5493     32.6189     10.4845   5.9865867181e+01   7.4974105064e+01    0.6557642    0.6047086 -29.22  0.004112455    1.125    0.111
        17 -11.3972     13.2650     22.7954   8.3309077368e+01   7.5027126281e+01     0.755706    0.4693565  79.52  0.002558135    2.693    0.629
        18 -11.5566      7.7221     21.5917   8.7703205349e+01   7.5736033249e+01     1.048427    0.5260218 -79.41  0.004632278    2.508    0.601
        19 -10.2824    180.4181     30.2012   2.8190284571e+01   3.5761538526e+01     0.613834    0.3619822 -12.47  0.002775865    2.107    0.525
        20 -10.9449    179.0927     21.4358   2.5667821552e+01   3.7083158360e+01    0.5542437    0.2694831 -55.58  0.002408301    2.038    0.509
        21 -11.3659    236.5477     29.4893   2.3310478385e+01   2.3456605832e+01    0.4385784    0.3015805 -21.99  0.002680907    1.413    0.293
        22 -11.8538    238.4427     19.2895   2.0792334948e+01   2.4144563473e+01    0.7813077    0.5566802 -51.85  0.002152575    1.157    0.136
        23 -10.0022    223.4191     22.2984   2.2416125184e+01   2.6867761424e+01    0.4082949    0.2253793 -38.36   0.00223493    1.432    0.302
        24  -8.7204     71.3960      7.2118   3.8259257395e+01   6.7026719887e+01    0.4367591    0.2627852 -60.05  0.001899014    2.272    0.560
        25 -10.7356     81.1087     19.7166   4.2334447815e+01   6.3073234902e+01    0.4278169    0.2392473 -41.58 0.0001988377    1.868    0.465
        26 -11.7299     66.2256     22.2488   4.9209505831e+01   6.6273974145e+01    0.4574831    0.3866271  12.46 0.0002132522    1.287    0.223
        27 -10.3953     75.1475     20.2590   4.4646905961e+01   6.4466426429e+01      0.49935    0.3007643 -39.61  0.001197903    1.710    0.415
        28  -9.6087     76.1378     12.9910   4.0183326964e+01   6.5177680185e+01    0.3929823    0.3000093 -15.01  0.001627951    1.419    0.295
        29 -11.4105    100.4536     15.9135   3.5131677847e+01   5.8530528718e+01     1.082929    0.8211408 -88.40  0.005429175    1.416    0.294
        30 -10.6517     91.6702      9.5996   3.3991776691e+01   6.1556445590e+01      1.05712    0.3661731  58.04  0.003866561    2.463    0.594
        31 -11.2066     89.0030      3.1776   3.1162970507e+01   6.2885756621e+01     0.505858    0.3530829  78.32  0.001131785    1.417    0.294
        32 -11.2333    112.0959     15.1148   3.2335983616e+01   5.5487023665e+01    0.2709232    0.2215444  65.71            0    1.159    0.137
        33 -11.7558    111.0347     19.0267   3.4298221013e+01   5.5329852835e+01    0.4634233     0.326576  53.93  0.001710912    1.382    0.276
        34  -9.8769     51.2627     22.8680   5.6633866790e+01   6.9380996789e+01     0.394862     0.264497 -41.23 0.0009634147    1.503    0.335
        35  -9.3543     63.1500     10.1389   4.3080944183e+01   6.8684264411e+01    0.2560406    0.1889262 -60.61 0.0006046393    1.704    0.413
        36 -11.8616     55.6420     19.3576   5.2264301267e+01   6.9062933758e+01     0.350021    0.2803388   2.41 0.0009082937    1.406    0.289
        37 -11.3965     58.2157     12.7310   4.6843117283e+01   6.9482837183e+01    0.6694773    0.4015717  58.01  0.002293802    1.699    0.411
        38 -11.2552    192.9242     17.6387   2.3348901130e+01   3.4143442023e+01    0.3212056    0.3064804   9.99  0.001545905    1.274    0.215
        39  -9.8428    152.0746      3.9462   2.2487771789e+01   4.5758380255e+01    0.6978747    0.3040028  58.14  0.002896143    2.285    0.562
        40 -11.6440    151.6150     18.0973   2.7527599277e+01   4.4493657728e+01    0.5828297    0.4707991  52.20  0.003148562    1.340    0.254
        41 -10.0575    156.4557     10.2157   2.4249623780e+01   4.4023529527e+01     0.350186    0.1897793 -39.70 0.0008467992    1.682    0.405
        42 -10.8181    149.1963     12.0173   2.5650147307e+01   4.5766034060e+01    0.3052496    0.2292715  68.57            0    1.305    0.234
        43 -10.3181    153.0710      9.7106   2.4416786346e+01   4.4963867589e+01    0.2936289    0.2457832 -76.27  0.000318253    1.098    0.089
        44  -9.8310     88.2378     18.5399   3.9558299262e+01   6.1418600441e+01    0.4975697    0.2468792 -51.07  0.001911805    2.504    0.601
        45  -9.0367     83.9754     13.0298   3.7831394354e+01   6.3186666614e+01    0.2711923    0.1680692 -55.29 0.0008020583    1.940    0.485
        46 -10.2114     49.0666      3.1025   4.4290063293e+01   7.2764085827e+01    0.3370719    0.2737189 -86.28   0.00119672    1.627    0.385
        47 -10.9178     39.8886     16.7137   5.9345088885e+01   7.2620134309e+01    0.6174399    0.3450696  42.72  0.002227467    1.798    0.444
        48 -11.8562     45.9021      9.3705   5.0625617157e+01   7.2619196992e+01    0.3853566    0.2976557  -3.29 0.0002523398    1.409    0.291
        49  -9.0850    136.7928     15.4202   2.8459008770e+01   4.8747097686e+01    0.3358392    0.2296432  -2.61 0.0009003821    1.845    0.458
        50  -9.2246    185.0761      4.5403   2.0116242012e+01   3.7307196825e+01    0.7437465     0.250122 -79.97  0.002479973    4.021    0.751
        51  -9.5227    176.2343     12.2052   2.3089864979e+01   3.8755764939e+01    0.3701454    0.2156109 -81.02 0.0003381275    1.759    0.432
        52 -12.5378    187.1096     13.6840   2.2659061883e+01   3.5936921858e+01    0.4034138    0.3377874  -9.62 0.0003764624    1.388    0.279
        53 -11.9000    182.6079     12.0479   2.2525073914e+01   3.7194721783e+01    0.4333751     0.318978 -20.14  0.001277788    1.442    0.306
        54 -10.1591    116.6159      8.6067   2.8650852047e+01   5.4924340606e+01    0.3114796    0.2154685 -57.27 0.0005924876    1.492    0.330
        55 -10.2889    131.2081     13.3266   2.8424301397e+01   5.0478423465e+01    0.3483156    0.2461388 -81.80  0.001004683    1.437    0.304
        56 -10.1307    136.0376      1.5959   2.3202198250e+01   5.0255762885e+01     0.650212     0.201029  75.06  0.002250661    2.955    0.662
        57 -11.6452    122.8364     11.2135   2.8799275130e+01   5.2971889683e+01    0.5644458     0.316724  49.63  0.001716543    1.837    0.456
        58 -11.7515    128.2470      5.0560   2.5485846962e+01   5.2075747586e+01    0.5744739    0.4662451 -84.24  0.001393291    1.161    0.139
        59  -9.4425    143.7951     13.0975   2.6674739729e+01   4.7101027799e+01    0.3644381    0.2641683   7.92  0.001318504    1.778    0.438
        60 -11.3674    208.7718     10.3121   2.0249530172e+01   3.1239823073e+01    0.6244586     0.408666  27.57  0.001028289    2.316    0.568
        61 -11.2593    216.3047      7.5450   1.9109640657e+01   2.9851746911e+01     0.303314    0.2550089 -16.00 0.0004261205    1.347    0.257
        62 -10.6445    218.2963      2.9429   1.7843450809e+01   2.9851104575e+01    0.2818959    0.2325248 -62.56 0.0007838058    1.094    0.086
        63  -9.2826    111.2139      7.8750   2.9212498198e+01   5.6467168330e+01    0.3166653     0.206032 -78.28  0.001447381    1.686    0.407
        64 -10.1398    105.5315      2.1376   2.7474643933e+01   5.8527964720e+01    0.7350131    0.3084615 -89.98  0.002535379    3.105    0.678
        65  -9.6917    238.1611      6.9231   1.7915582020e+01   2.5401869300e+01    0.3260325    0.1451304 -51.76  0.001106026    1.801    0.445
        66 -10.9386    167.7578      6.4302   2.1966698824e+01   4.1452199090e+01    0.4079214    0.3190966 -31.63  0.000696276    1.263    0.208
        67  -9.1528    170.3305      2.7100   2.0576091217e+01   4.1133109985e+01    0.2322019    0.1277695 -44.54  0.000638497    1.598    0.374
        68  -9.3940    247.0359     13.8739   1.9111254031e+01   2.3033239449e+01    0.2095952    0.1359126 -33.33  0.000697274    1.236    0.191
        69  -9.9882     77.9757      6.0721   3.5571015284e+01   6.5486291426e+01    0.3994373    0.3120038  68.41  0.002137877    1.239    0.193
        70 -11.1728    104.7904      7.5163   3.0186856772e+01   5.8246746372e+01    0.4030395    0.2512168  55.10 0.0004020794    1.517    0.341
        71 -10.6899    197.1832      3.5582   1.9094866916e+01   3.4516993180e+01    0.9192168    0.3132885 -74.59  0.003280879    3.732    0.732
        72  -9.4912    204.8660      3.3279   1.8610069525e+01   3.2774589630e+01    0.3035778    0.2051683  60.98  0.001031476    1.711    0.416
        73  -9.9945    176.6091      3.7977   2.0466686269e+01   3.9457730097e+01    0.4473119    0.1835324 -50.39  0.001387004    2.170    0.539
        74  -9.8954    245.1990      1.5974   1.6416234419e+01   2.4530092713e+01    0.3947294     0.141598  86.89  0.001882739    3.179    0.685
        75  -8.8910    120.0778      2.0862   2.5298233315e+01   5.4561526353e+01    0.2362915    0.1491813 -61.28 0.0006169716    1.641    0.390
        76  -9.0319     63.4190      1.7174   3.7367394197e+01   6.9565456858e+01    0.3716148    0.1971126  71.81  0.001616847    2.095    0.523
        77  -9.0235    229.8936      2.1029   1.7127290231e+01   2.7502011853e+01    0.1861015    0.1205442 -50.48 0.0002919409    1.214    0.176
        78  -8.4832    114.8894      1.0000   2.5526330599e+01   5.6069073957e+01    0.2308452    0.0760002  74.49 0.0003989673    2.815    0.645
        79  -9.3719    132.1210    104.2984   5.9282195185e+01   3.5162636708e+01    0.2824456    0.1831516  42.47  0.001252828    1.561    0.359
        80  -8.4733     67.6017    104.7299   7.9392748309e+01   4.7627694859e+01     0.152897    0.1185435 -14.76 0.0005446073    1.737    0.424
        81  -9.6704     62.0760    102.3964   8.0931853313e+01   4.9088812610e+01    0.2529113    0.1944011 -54.72 0.0008743092    1.299    0.230
        82  -9.3780     56.8519    102.8606   8.3019708387e+01   4.9739671967e+01    0.2321407    0.2018211 -44.29 0.0009426659    1.240    0.193
        83  -9.2611     53.9055    100.4623   8.3665829285e+01   5.0784809713e+01    0.2795056    0.2539357 -55.14  0.001524261    1.132    0.117
        84 -11.1924    118.5693     97.3860   6.0983306894e+01   3.9560423714e+01    0.5593879    0.4375731  10.20  0.001774899    1.701    0.412
        85 -11.1861    108.5476     96.4167   6.3587855977e+01   4.1927923664e+01     1.986118     1.143422  82.93  0.004818616    6.509    0.846
        86 -11.8259    101.6399     97.9056   6.6098733315e+01   4.3033317898e+01    0.3044145    0.2932549 -71.08 0.0002395123    1.032    0.031
        87 -10.5034     97.0476     95.9747   6.7017802437e+01   4.4417615213e+01    0.6056282    0.3237741 -33.42  0.000353702    2.645    0.622
        88 -12.0486    111.0275     65.8622   5.3221460115e+01   4.7837787231e+01    0.4615141    0.3347455  31.02 0.0003249224    1.666    0.400
        89  -9.9922    109.0144     60.4723   5.1861819753e+01   4.9367515523e+01    0.5087312    0.2562753 -37.62  0.001810211    2.025    0.506
        90  -9.5569    105.0969     57.5984   5.1934161312e+01   5.0866528668e+01    0.3783062    0.3129861  17.56  0.001819875    1.483    0.326
        91 -12.3054    111.3608     82.2239   5.8557700272e+01   4.4409392199e+01     1.619377     1.027201 -82.30  0.005294434    2.972    0.664
        92 -11.8669    105.7208     79.9675   5.9527069875e+01   4.6162970737e+01    0.9969237    0.6429326 -28.44   0.00409017    1.967    0.492
        93  -9.6334     61.8916     96.5353   7.9678445837e+01   5.0632672466e+01    0.4113464    0.2306684 -85.67  0.001284227    2.698    0.629
        94  -8.6623     28.8495     84.8726   9.1271321932e+01   5.7920964148e+01    0.2107306     0.171643  74.86 0.0002879147    1.230    0.187
        95 -10.0098     35.7571     95.6260   9.0144485819e+01   5.4326488925e+01    0.6012846    0.2577669  60.74  0.002009909    3.391    0.705
        96 -12.5551     34.7246     89.3899   8.9456898438e+01   5.6108599114e+01    0.3905233    0.3277572  85.65  0.002130812    1.159    0.137
        97 -10.6755     25.8045     96.6163   9.4529731426e+01   5.5048450611e+01    0.6396976     0.253406  46.64  0.002454221    2.590    0.614
        98 -10.0253     16.7642     96.8522   9.8408752226e+01   5.5725049773e+01    0.4366502    0.2535028 -85.70 0.0006958361    1.611    0.379
        99  -8.9834     51.1525     97.1978   8.4079248790e+01   5.2022825890e+01    0.2116881    0.1940611 -47.23 0.0004401609    1.156    0.135
       100  -9.2966    144.8524     96.1294   5.4005671111e+01   3.3984919794e+01    0.2105542    0.1824365   0.20 0.0007693024    1.327    0.246
       101  -9.9558    137.7483     93.4882   5.4931370431e+01   3.6097497705e+01    0.2964834    0.2148629 -40.18  0.001392064    1.366    0.268
       102  -8.6285     81.4592     88.4956   7.0222611374e+01   4.9265335399e+01    0.1533266    0.1496353 -81.39 0.0001615954    1.020    0.019
       103  -9.8045     87.6052     91.2260   6.8830912501e+01   4.7421893103e+01    0.6477082    0.2178105 -55.16  0.001967087    3.254    0.693
       104  -9.1554     91.4469     92.4612   6.7874350691e+01   4.6368622659e+01    0.2514315    0.1528118  40.73 0.0001868661    1.655    0.396
       105  -9.8868     84.6307     86.8186   6.8603957049e+01   4.9055599557e+01    0.3020587     0.228896  51.10 0.0005844088    1.338    0.253
       106  -9.5705     41.4440     91.0570   8.6852632857e+01   5.4896199480e+01    0.3322432    0.2144486  29.76 0.0006296366    1.610    0.379
       107  -9.0189     45.7789     93.0276   8.5416119723e+01   5.3834402298e+01    0.3263068    0.2374567 -18.30  0.001534013    1.822    0.451
       108  -9.4489     57.3059     89.2975   7.9773416015e+01   5.3204460416e+01    0.4120928    0.2067991  41.76  0.001062433    1.990    0.498
       109  -9.7401     52.6504     91.7264   8.2268015842e+01   5.3252246275e+01    0.5303392    0.2007864 -51.12  0.001871496    2.589    0.614
       110  -9.6242     48.5516     89.5664   8.3493637644e+01   5.4384339060e+01    0.4731359    0.3600742  61.30  0.002360485    1.391    0.281
       111  -9.9860      9.4925     90.0042   1.0082071078e+02   5.8047800056e+01    0.2965593    0.1766307 -66.19 -4.99912e-05    1.508    0.337
       112 -10.0981     13.0160     88.1273   9.9026856604e+01   5.8330587230e+01    0.2349582    0.1959419  84.53 0.0003004122    1.097    0.089
       113  -8.8509     65.6490     90.6853   7.6775769216e+01   5.1531974616e+01     0.324224    0.2109878  72.83  0.001331552    2.094    0.523
       114 -10.1167    139.0959     87.6033   5.2920710977e+01   3.6936061719e+01     0.371568    0.2377521 -48.05 0.0005201809    1.577    0.366
       115 -10.1478    110.1932     88.3144   6.0759988457e+01   4.3360363437e+01    0.3105284      0.26847 -23.35 0.0007499289    1.306    0.234
       116  -9.9471    124.4275     85.7474   5.6019165418e+01   4.0690498876e+01    0.4326615    0.2848184 -48.45  0.001310628    1.529    0.346
       117 -10.2259    120.3730     87.5388   5.7642909008e+01   4.1247442108e+01    0.4109157    0.3264372 -51.52  0.001373617    1.267    0.211
       118 -10.3868    120.9475     82.4869   5.5950786544e+01   4.2158496000e+01    0.3086227     0.280159 -64.55 0.0003537644    1.120    0.107
       119  -9.4763     76.4190     87.4662   7.1780130790e+01   5.0458903962e+01    0.2919812    0.2579273 -77.96 0.0006911936    1.156    0.135
       120  -9.7832     75.5143     83.4851   7.0973436388e+01   5.1598326359e+01     0.383079    0.3148871 -41.26  0.001735855    1.277    0.217
       121 -10.6353     79.8731     81.0203   6.8594860035e+01   5.1364752469e+01    0.3855252    0.2774458  36.50 0.0003067851    1.446    0.309
       122 -10.2018    131.2926     86.1284   5.4374278342e+01   3.9029566412e+01    0.2709682    0.2494109  36.11  0.000284542    1.138    0.121
       123 -10.3827    157.0938     85.3024   4.8330467256e+01   3.3201201764e+01    0.3089347      0.24787 -12.16 0.0009664536    1.445    0.308
       124  -8.3149     73.6712     93.6658   7.4487002098e+01   4.9416904434e+01    0.1577596     0.120986 -20.70 0.0007051949    1.723    0.420
       125  -8.5711     59.7626     84.9475   7.7648464800e+01   5.3943223380e+01    0.2041688     0.122669 -58.44  0.000876128    1.605    0.377
       126  -9.5851    188.4335     82.5811   4.2009814858e+01   2.6633422535e+01    0.3483816     0.240023  20.15 0.0008650034    2.008    0.502
       127 -10.3297    102.0495     79.5175   6.0519589675e+01   4.7078707105e+01    0.3140244    0.2845559 -83.79 -4.523533e-05    1.159    0.137
       128  -8.8160      1.9449     83.1292   1.0360858715e+02   6.0275329691e+01    0.2042036    0.1590411  61.04 0.0005721763    1.257    0.204
       129  -9.7746    146.9048     81.3902   4.9326492086e+01   3.6278140141e+01    0.2417292    0.2035128 -53.59 0.0004054469    1.191    0.161
       130  -9.8469     63.5421     70.6411   7.1841849694e+01   5.6883089706e+01    0.4680089    0.2988169  41.34  0.002097673    1.590    0.371
       131 -11.0195     54.7978     80.2889   7.8506089427e+01   5.5902189830e+01    0.5548584    0.3753188 -22.07  0.002387101    2.101    0.524
       132  -9.7432     56.9519     72.1806   7.5217000901e+01   5.7613115159e+01    0.3723903    0.2468256 -37.83   0.00038276    1.695    0.410
       133  -9.8295     59.1215     66.0349   7.2264969630e+01   5.8760519259e+01    0.5120143    0.2834964  30.38   0.00139757    2.017    0.504
       134 -10.4546     60.8626     60.8116   6.9646256121e+01   5.9698918005e+01    0.4767669    0.3208033  66.20  0.001886845    2.016    0.504
       135 -10.8700     61.8741     57.1580   6.7822626497e+01   6.0360411638e+01    0.4862365    0.2584036  39.17 0.0002739382    1.926    0.481
       136 -11.3867    164.4240     78.4086   4.4940374078e+01   3.2692667814e+01    0.6879591    0.4646592 -55.78  0.003204542    1.621    0.383
       137  -8.8725    142.8565     80.8318   5.0051598573e+01   3.7336137271e+01    0.2240602    0.2070147  -5.11 0.0007034485    1.188    0.158
       138  -9.0296     45.4657     80.6238   8.2735823638e+01   5.7141704530e+01    0.3372105    0.1964214  41.63  0.001491071    1.750    0.428
       139  -8.9160     41.2432     78.9186   8.4257309252e+01   5.8131368830e+01     0.213912    0.1782528 -71.34 0.0006929028    1.141    0.124
       140  -9.6531     88.1921     80.3268   6.5377888828e+01   4.9863338564e+01    0.4916654    0.1776624  44.98 0.0009295107    2.776    0.640
       141 -10.9922    120.4185     76.9543   5.4349265920e+01   4.3401092718e+01    0.5520145    0.3295122  54.78  0.001462238    1.719    0.418
       142  -9.5444    187.7670     76.4320   4.0476093181e+01   2.7717518529e+01    0.2526594     0.180621 -35.66 0.0008135113    1.266    0.210
       143  -8.2868     36.4366     77.4836   8.6183529108e+01   5.9084892134e+01    0.1446747    0.1340935 -72.28  0.000242483    1.010    0.010
       144 -10.3894    161.2283     64.5631   4.1423520824e+01   3.5717628704e+01    0.3569581    0.2794839 -43.43 0.0005430703    1.206    0.171
       145 -11.5930    161.2411     55.6091   3.8653474161e+01   3.7102712921e+01     0.589564    0.4277904 -30.90  0.001925335    1.357    0.263
       146 -10.8797    151.9858     73.5463   4.5907610424e+01   3.6461783754e+01    0.3821624    0.2482806 -34.88  0.001732757    1.506    0.336
       147 -10.5720    159.0105     73.9620   4.4658282987e+01   3.4711709102e+01     0.330624    0.2253537 -32.02 0.0005033881    1.449    0.310
       148 -12.2375    154.2168     66.8421   4.3413518026e+01   3.7055423409e+01    0.9065353    0.6570618  75.24  0.002520211    1.558    0.358
       149 -11.3022    147.0045     61.9581   4.3273245984e+01   3.9643859106e+01    0.5533684    0.3784689  40.95 0.0005019838    1.663    0.399
       150 -12.6408    150.7086     57.4844   4.1109509429e+01   3.9441554896e+01    0.3973601    0.3105721 -53.55 0.0002155037    1.264    0.209
       151  -9.4104     79.3654     66.1230   6.3846656065e+01   5.4916144942e+01    0.4899309    0.2257267  34.00 0.0009221842    2.738    0.635
       152  -9.3815     77.6025     71.2590   6.6312477106e+01   5.4103508169e+01    0.3632138    0.2050856 -50.91 0.0009773546    1.756    0.430
       153 -10.8002     76.7779     75.3825   6.7992585829e+01   5.3301907162e+01    0.6630843    0.2687647  42.47  0.001960295    2.473    0.596
       154  -9.7205     83.3186     73.2420   6.4827695918e+01   5.2492407798e+01    0.3756596    0.2682755  31.73  0.001283149    1.566    0.362
       155 -11.2875     46.4581     73.2727   8.0353505272e+01   5.8911028881e+01    0.5480364    0.3915246  70.37  0.001364478    1.693    0.409
       156 -10.7842     51.2403     70.2465   7.7234388768e+01   5.8987605995e+01    0.3724063    0.2660807 -75.01 0.0004223463    1.537    0.349
       157 -11.3735      8.3678     74.1626   9.9523087364e+01   6.2350297669e+01    0.3890925    0.3179455  75.17 0.0003654298    1.190    0.159
       158  -8.7121      3.6482     72.7408   1.0176042667e+02   6.2963056803e+01    0.2121872    0.1671965   4.75  0.000602433    1.462    0.316
       159 -10.9055    143.1800     71.1794   4.7010958561e+01   3.9007449031e+01     0.497466     0.381944 -12.83  0.001835892    1.600    0.375
       160  -9.8416    139.7188     69.0532   4.7089461342e+01   4.0230953425e+01     0.293036    0.2105662 -27.44 0.0009448095    1.500    0.333
       161 -10.6932    136.6477     73.8152   4.9300530381e+01   4.0118183171e+01    0.4214732    0.3298096  36.04  0.001126618    1.430    0.301
       162 -11.0412    136.4786     69.4935   4.7956999327e+01   4.0947245152e+01    0.6513337    0.2813372 -30.38  0.002218843    2.723    0.633
       163  -9.6891     68.5783     99.3213   7.7790914689e+01   4.8852071574e+01    0.2888046    0.1963562  30.27 0.0009857909    1.566    0.361
       164 -10.2580     98.6890     68.1922   5.7787199615e+01   5.0258051965e+01    0.7186965    0.5011321   7.33  0.001910078    2.458    0.593
       165 -10.9165     88.7188     74.7544   6.3392933966e+01   5.1024068727e+01    0.3082813    0.2620167  48.91  0.000353688    1.179    0.152
       166  -8.8062     93.4789     73.4343   6.1312614597e+01   5.0295699978e+01    0.2814599    0.1970257  45.87  0.000628841    1.433    0.302
       167  -9.1017     20.4391     74.8887   9.3514870976e+01   6.1340703054e+01    0.2186346    0.1783791  47.14  0.001215505    1.280    0.219
       168 -10.4183    128.1428     72.9107   5.1047265440e+01   4.2344893554e+01    0.4357273    0.2597338 -21.72  0.001657312    2.358    0.576
       169 -10.3741    119.0314     69.7380   5.2345456915e+01   4.5154870720e+01    0.5807403    0.2083691 -33.51  0.001719519    3.487    0.713
       170  -5.4017     26.4917     65.5427   8.8411099551e+01   6.3276990433e+01    0.3043419    0.2472667  57.77  0.000663099    1.319    0.242
       171 -10.7903     30.5530     71.0672   8.7592452998e+01   6.1420187639e+01    0.3820444    0.2823002  68.92 5.719918e-05    1.504    0.335
       172 -11.3604     34.5111     67.4540   8.4666090150e+01   6.1929777669e+01    0.4080223    0.2848137  49.58 0.0005844412    1.551    0.355
       173 -10.1030     34.1291     62.8396   8.3607226009e+01   6.3162739521e+01    0.4671678    0.2370052 -38.79  0.001886014    2.299    0.565
       174  -8.6009     24.2915     71.6694   9.0931201837e+01   6.1868867847e+01    0.2615018    0.1378399 -51.41  0.001159726    1.788    0.441
       175 -10.5529     17.5946     70.7072   9.4222476719e+01   6.2675463017e+01    0.2731131    0.2653255  63.54 0.0003565785    1.101    0.092
       176  -9.8709     13.3846     67.4632   9.5891441153e+01   6.3831830581e+01    0.5115956    0.2759754  12.10  0.002374654    2.118    0.528
       177 -10.6737    165.5598     69.7130   4.2204230608e+01   3.3853433606e+01    0.4158176     0.279437 -20.15  0.001519257    1.701    0.412
       178 -10.8521    181.0434     64.2075   3.8107200962e+01   3.1065840637e+01    0.5444955    0.3045196 -30.01  0.001013219    1.706    0.414
       179 -10.3706    176.9943     63.9895   3.8655268509e+01   3.2041175605e+01    0.2723687    0.2457335 -51.58 0.0003120698    1.039    0.038
       180  -9.6974     72.2582     67.5252   6.7146561649e+01   5.6015853454e+01    0.3696934    0.2893695  31.59  0.001010084    1.373    0.272
       181  -9.5634     88.3193     65.5975   6.0359676425e+01   5.3128676219e+01    0.4963912    0.3797152 -31.76  0.002331586    1.445    0.308
       182  -9.3066     41.7483     66.9792   8.0854317538e+01   6.1157817182e+01    0.2698942    0.2094088 -57.96  0.001081655    1.213    0.176
       183 -10.7846     43.3097     61.1643   7.8280319095e+01   6.2410305523e+01    0.4670802    0.3827845 -50.74  0.001726868    1.164    0.141
       184  -8.4921    231.5272     66.4803   3.2518113699e+01   2.0116813182e+01     0.127488    0.1048107 -34.97 5.407327e-05    1.006    0.006
       185 -10.5961    211.4877     49.3922   3.0315206732e+01   2.6286071876e+01      0.30086    0.2384708 -84.78 0.0007186749    1.387    0.279
       186  -9.7836    201.6971     49.6660   3.1420180381e+01   2.8379179430e+01    0.3811586    0.2387688  74.60  0.001952285    1.806    0.446
       187  -9.0802    194.5501     65.0838   3.6451930052e+01   2.7882936103e+01    0.3544449    0.1139365 -33.78 0.0008240581    2.625    0.619
       188  -9.7582    191.8154     61.4917   3.5837470440e+01   2.8998457114e+01    0.4784345    0.1765029  57.81  0.001724201    2.813    0.645
       189 -11.0645    199.8163     55.5122   3.3209262000e+01   2.8031639595e+01    0.4863825     0.356728  25.67   0.00230754    1.816    0.449
       190  -9.4835    205.9620     52.9843   3.1836574188e+01   2.7017870648e+01    0.3650492    0.2519208  14.73  0.001685087    2.122    0.529
       191 -10.5857      2.5848     64.1467   1.0131970633e+02   6.5282422217e+01    0.2467615     0.211135 -69.57 0.0002286868    1.043    0.041
       192 -10.3681      7.5199     58.2303   9.7630309524e+01   6.6608745404e+01    0.5567088    0.4312428 -25.05  0.002169382    1.400    0.286
       193  -8.6665    203.9374     63.3443   3.4794240857e+01   2.6082092151e+01    0.1728216    0.1604848 -53.51  0.000566871    1.081    0.075
       194  -8.7831    172.4733     62.9891   3.9068561615e+01   3.3258727533e+01    0.2208852    0.1365978 -31.68 0.0007514554    1.543    0.352
       195  -8.6746    208.5284     62.0937   3.3923408190e+01   2.5275306765e+01     0.198774    0.1155015 -33.10 0.0003515334    1.479    0.324
       196  -9.9150    167.7504     61.3651   3.9345746663e+01   3.4636836285e+01    0.3250599    0.2288917 -16.34 0.0007317553    1.656    0.396
       197  -9.0505    115.1693     61.2218   5.0419550100e+01   4.7719961425e+01    0.2663342    0.2095687 -27.37 0.0008644301    1.389    0.280
       198  -9.2778    100.0909     61.2919   5.4845708433e+01   5.1344184240e+01    0.3168125    0.2247962 -46.60  0.001440847    1.412    0.292
       199 -11.2445     22.0039     60.9670   8.9794111036e+01   6.4884063118e+01    0.2852343    0.2289442 -25.59  0.001571582    1.355    0.262
       200  -8.9680    224.6690     60.7635   3.1839113988e+01   2.2156739943e+01    0.1811243    0.1685072  43.71 0.0004664796    1.287    0.223
       201 -10.2666    218.9924     59.5862   3.2133403517e+01   2.3439736142e+01     0.309875    0.2134579 -45.30 0.0008171572    1.274    0.215
       202 -10.0771    222.3065     55.3977   3.0757411958e+01   2.3297678442e+01    0.3134757    0.1864767 -34.43  0.001474309    1.384    0.277
       203  -9.7677     79.1476     44.5035   5.5269854567e+01   5.9472796569e+01    0.3351187    0.2674454  73.45 0.0009695631    1.457    0.314
       204  -9.6159     90.0669     33.7162   4.6503607359e+01   5.8771595276e+01     0.576561    0.4241472  77.42  0.002714486    1.573    0.364
       205 -10.0311     78.0351     55.5947   6.0379671632e+01   5.7486275154e+01    0.3420945    0.2352649 -30.28 0.0003958194    1.677    0.404
       206  -8.3929     83.5168    249.4443   9.3355628120e+01   1.4764774953e+01    0.1122017   0.08270887  33.78 0.0001101653    1.046    0.044
       207 -11.3131     84.7035     38.9584   5.0727123172e+01   5.9198789500e+01    0.4061137    0.2890626 -44.00 0.0001872724    1.428    0.300
       208 -11.8730     90.7306     43.8232   5.0853518668e+01   5.6893520455e+01    0.3454194    0.3253314  53.37 0.0002337697    1.051    0.048
       209 -10.9435     89.1692     38.1962   4.8864419945e+01   5.8254062025e+01    0.3120334    0.2538412 -83.91 0.0009725919    1.453    0.312
       210 -10.6641     93.2305     57.1814   5.5509932045e+01   5.3767882201e+01     0.743282    0.3759331  42.35  0.002522936    2.104    0.525
       211 -11.3698    183.3548     54.2370   3.4928178949e+01   3.1956644711e+01    0.8420551    0.5856791 -67.56  0.003212616    1.595    0.373
       212 -10.5301    174.3926     53.6473   3.6007370016e+01   3.4172191564e+01    0.5533903    0.2394052 -36.54  0.002225173    2.045    0.511
       213  -8.7774    121.1825     58.1811   4.7758160488e+01   4.6780830448e+01    0.2213805    0.1764165 -64.49 0.0006737784    1.356    0.262
       214  -9.0215     27.4878     56.4105   8.5462810200e+01   6.5535135355e+01    0.2242397    0.1770517  23.28 0.0005299276    1.360    0.265
       215 -11.3074     30.5842     53.2393   8.2705059636e+01   6.5999552285e+01    0.5303404    0.3334409 -74.78  0.001500146    1.734    0.423
       216  -9.3775    213.7796     56.9436   3.2018282329e+01   2.4848089474e+01    0.2267191    0.1823546 -61.89 0.0007775826    1.254    0.203
       217  -8.5926    239.1796     56.1671   2.9381407990e+01   1.9941011954e+01    0.1770126    0.1166999 -45.80  0.001055318    1.303    0.233
       218  -9.3830    146.9920     29.4563   3.2178887429e+01   4.4396786799e+01    0.2403621    0.2047053 -23.90 9.311079e-05    1.249    0.199
       219 -12.1446    163.5751     42.6225   3.4170953629e+01   3.8382008588e+01    0.6105761    0.3744936 -69.99  0.002679579    1.948    0.487
       220  -9.0381    107.0467    246.5247   8.8397227519e+01   1.2473123021e+01    0.1546229    0.1367153  34.59  0.001034297    1.200    0.167
       221 -10.7486    128.0063     53.3414   4.4380336697e+01   4.5887855175e+01    0.4760066    0.3594936 -33.03 0.0003566181    1.350    0.259
       222 -10.4906     69.3486    217.0667   9.3928445999e+01   2.1804702709e+01     0.452634    0.2874475  69.46  0.002695545    1.766    0.434
       223 -12.2655    140.2724     37.9177   3.6312825291e+01   4.5055908448e+01    0.4551018    0.3269548  62.69 0.0002833932    1.376    0.273
       224 -11.4812    127.1220     35.0154   3.7702527074e+01   4.8945079062e+01    0.8941211    0.3202561 -40.25  0.003096762    2.639    0.621
       225  -9.8665    123.5811     30.6261   3.6676369528e+01   5.0492411951e+01    0.4181356    0.2956608  51.09  0.001644897    1.435    0.303
       226 -10.6573    117.7995     51.7706   4.6252554792e+01   4.8759107398e+01    0.6227781    0.4576625  21.05  0.002763413    1.842    0.457
       227 -11.8257    122.3746     49.8872   4.4425738849e+01   4.7907801355e+01    0.4770059    0.3484839 -46.35  0.001825019    1.362    0.266
       228  -9.3918      2.1130     50.9990   9.9751650218e+01   6.8734737268e+01    0.3644882    0.1876351 -29.94  0.001091059    2.120    0.528
       229  -9.4501     18.8652     42.9860   8.6779065212e+01   6.9731470969e+01    0.3065986    0.2119561  57.03  0.001568665    1.747    0.427
       230 -10.5604      9.4667     51.4609   9.5166891206e+01   6.8261969796e+01    0.6627012    0.2875412  30.43  0.002490295    2.390    0.582
       231  -9.7986      7.0168     46.2980   9.5671931541e+01   6.9721875918e+01    0.2747866    0.1779643 -47.86 0.0006158582    1.413    0.292
       232 -10.2575     19.8414     55.5120   8.9714959402e+01   6.6481663952e+01    0.6564561    0.1949648 -48.39  0.001604086    3.114    0.679
       233  -9.8955     26.5158     47.9942   8.3452239001e+01   6.7750132232e+01     0.459037    0.2804991 -18.16  0.002064288    2.161    0.537
       234 -11.0538     17.7382     48.6481   8.9205041795e+01   6.8408452651e+01    0.5062703    0.2840766 -49.18 0.0008377287    1.626    0.385
       235  -9.3233     21.5480     47.4805   8.6423131660e+01   6.8371416702e+01    0.3201805    0.2025257 -77.84  0.001480123    1.693    0.409
       236  -8.5524     51.2274     54.0187   7.1718897806e+01   6.2936611087e+01    0.1937592    0.1177967 -52.90 0.0005005724    1.587    0.370
       237 -10.1681    131.6654     60.5346   4.6070839802e+01   4.3731398364e+01    0.3409117    0.2522862 -63.38  0.001185056    1.506    0.336
       238  -9.3842     65.0180     51.7447   6.4250560386e+01   6.0972194117e+01    0.4838175    0.2873097  62.65  0.001893887    2.430    0.589
       239  -9.2433     62.6303     48.8194   6.4104337046e+01   6.2067362317e+01    0.3145317    0.2155734 -45.21  0.000746174    1.437    0.304
       240  -8.8241     40.8775     52.5502   7.6625672349e+01   6.4861443309e+01    0.1997176    0.1410632  33.14 0.0003484392    1.474    0.321
       241  -9.5147    194.0594     49.4102   3.2217337784e+01   3.0129830903e+01    0.2827772    0.2194993 -14.38 0.0008766241    1.422    0.297
       242 -10.3700    147.3397     50.0468   3.9271570184e+01   4.1450752913e+01    0.3184004    0.2548937  47.81  0.000612331    1.337    0.252
       243  -8.8323     54.8959     50.1331   6.8345660448e+01   6.3205444571e+01    0.2184922    0.1921648 -85.38 0.0006046572    1.296    0.229
       244 -11.5843    233.2281     48.3232   2.8042960081e+01   2.1994186220e+01    0.2519173    0.2089779 -71.59 0.0002496275    1.287    0.223
       245 -10.3826    108.1890     44.1035   4.5755292268e+01   5.2505308308e+01    0.5887625     0.308838  62.75  0.002313327    1.997    0.499
       246  -9.4804    246.3814     47.6357   2.6832701799e+01   1.9603552997e+01    0.2080285    0.1676624 -27.55 0.0004960843    1.144    0.126
       247  -9.9121     33.5632     44.4438   7.7819167223e+01   6.7785211054e+01    0.4341771    0.2391863 -44.06  0.001955137    1.773    0.436
       248 -10.2612     33.1114     37.5256   7.5233993915e+01   6.9454414655e+01    0.3006687     0.226406 -69.20  0.001572459    1.482    0.325
       249  -9.8040    110.5340     49.4605   4.7261966802e+01   5.0999600796e+01    0.5086045    0.2284319  70.31  0.001530705    3.635    0.725
       250  -9.1623    191.7541     44.2542   3.1038673531e+01   3.1327020825e+01     0.273731    0.1838572 -63.98 0.0008967426    1.553    0.356
       251  -9.4325     35.0181     51.1467   7.9428976301e+01   6.5984724603e+01    0.2023565    0.1915457 -50.00 0.0003132594    1.008    0.008
       252  -9.2711     73.4813     44.9422   5.7699073831e+01   6.0640696815e+01    0.2264191    0.1472726 -40.66  0.001014685    1.544    0.352
       253 -10.2823     67.5018     44.2186   5.9896914162e+01   6.2051687643e+01    0.5177219    0.3264669  48.65  0.001178321    1.616    0.381
       254  -9.4327    209.8927     43.2803   2.8878387200e+01   2.7380630081e+01    0.3421808       0.1294 -36.36  0.001462176    2.090    0.521
       255  -9.7332    178.4702     44.0181   3.2570871613e+01   3.4508060884e+01    0.2636704     0.188543 -82.32 0.0006398649    1.536    0.349
       256 -10.6661     62.6386     37.3939   5.8866003793e+01   6.4404170899e+01    0.6484753    0.5128536 -20.32  0.003247562    1.418    0.295
       257  -9.4069    218.4573     41.4430   2.7618112790e+01   2.5777560220e+01     0.225263    0.1887815 -46.92 0.0005700914    1.026    0.026
       258  -8.4878    195.6056     42.6917   3.0174080583e+01   3.0636875331e+01    0.1384588    0.1007554  29.70 0.0007006439    1.832    0.454
       259  -9.4115     27.9913     41.9640   8.0370023529e+01   6.9054961181e+01    0.2047437    0.1952265 -54.93  0.000536614    1.053    0.050
       260  -9.7410    240.1733     40.0021   2.5533491879e+01   2.1612591247e+01    0.3534515    0.2312942  15.12  0.001887761    2.443    0.591
       261 -10.4562    230.5495     39.3531   2.6101919421e+01   2.3553424061e+01    0.2688687    0.2150045 -71.45 0.0005811001    1.295    0.228
       262  -8.9563    226.6672     37.7035   2.6002194918e+01   2.4519152453e+01    0.2154817    0.1901821  16.78  0.001202644    1.433    0.302
       263 -10.4393     73.8155    213.8396   9.2644906955e+01   2.1862594365e+01      0.38602     0.327814  63.96  0.001998463    1.205    0.170
       264  -8.3418     97.5410     41.5430   4.7714004111e+01   5.5621704265e+01    0.1506657    0.1473089  75.03 0.0001582351    1.005    0.005
       265 -10.7094    201.8172     37.9141   2.8222876763e+01   2.9810982700e+01      0.41095     0.230103 -41.26 0.0008867559    1.511    0.338
       266  -8.6762    123.1109     39.7722   4.0395216311e+01   4.9315951282e+01    0.2167543     0.186193  69.73  0.001111448    1.142    0.124
       267  -9.2218    113.9432     39.5268   4.2415823704e+01   5.1755720271e+01    0.2860226    0.2026318  26.81 0.0009386592    1.827    0.453
       268 -10.6580    114.5499     33.8194   3.9922543731e+01   5.2450030135e+01    0.9621665    0.4371471 -54.35   0.00232804    2.958    0.662
       269  -9.4332     74.7384     40.3825   5.5109104826e+01   6.1240921867e+01    0.3386615    0.1784559  42.75  0.000923626    1.951    0.487
       270  -8.4493     48.1484     38.7900   6.6858428968e+01   6.6863543029e+01    0.4254742   0.08425139 -45.57 0.0009982857    4.922    0.797
       271  -9.3719      2.1707     38.1532   9.7328730750e+01   7.2008157718e+01     0.218232    0.1811363 -51.41  0.000296243    1.081    0.075
       272  -9.3904    250.5975     37.2822   2.4194003562e+01   1.9978966176e+01    0.2257567   0.08059749 -33.43 0.0008516654    1.998    0.500
       273 -11.1404    246.1070     32.0843   2.3303294534e+01   2.1358020496e+01    0.3463764    0.2068964 -39.48 0.0007051975    1.273    0.215
       274 -10.1017    194.6923     37.2501   2.8748050125e+01   3.1517612140e+01    0.2603376    0.2046406 -52.03 0.0003534815    1.132    0.116
       275  -9.0584     38.6497     37.1295   7.1580923228e+01   6.8756143891e+01    0.3980646    0.1889885 -42.08  0.001638437    2.131    0.531
       276  -9.9004    184.9144     35.4856   2.9275864429e+01   3.4037366081e+01    0.3276805    0.2435812  72.95  0.001474598    1.407    0.289
       277  -9.6686    106.5833     35.1873   4.2444676824e+01   5.4336370563e+01    0.2872316    0.2166095  19.31 0.0004740771    1.696    0.410
       278 -10.1260     74.1243     35.5840   5.3057634874e+01   6.2255094771e+01    0.2639611    0.2448771 -24.25 0.0001960825    1.100    0.091
       279  -9.5349     76.6831    222.7124   9.2740182037e+01   1.9921611072e+01    0.2053071    0.1383923  34.20 0.0002497518    1.175    0.149
       280 -11.3789     77.0812    219.2154   9.2360719897e+01   2.0492763301e+01    0.5968433       0.3332   9.85  0.002547897    2.685    0.628
       281  -9.1966     91.4666    214.4987   8.8696147589e+01   1.9543405566e+01    0.2537108   0.09874487  32.21 0.0007852723    2.047    0.512
       282  -9.4796    123.9658    205.9983   8.0499592493e+01   1.6657308393e+01    0.1740338    0.1437097  29.21  0.001138447    1.008    0.008
       283  -9.0933     90.3474    206.0634   8.8094575618e+01   2.1214967807e+01     0.170222    0.1477101  55.30 0.0009227922    1.156    0.135
       284 -10.3142     11.0040    202.5063   1.0667288676e+02   3.0650709577e+01    0.1782707    0.0972667  29.08  0.001038761    1.608    0.378
       285  -9.7669      1.3752    184.7618   1.0850706116e+02   3.5132281891e+01    0.3155168    0.1016039 -87.71  0.001378139    3.004    0.667
       286  -9.4589     25.0034    173.9893   1.0190771347e+02   3.5530590968e+01    0.1865081    0.1604756  57.47  0.001216702    1.065    0.061
       287  -9.2354      6.5559    168.1591   1.0665580895e+02   3.8435169160e+01    0.2147352    0.1343306  41.12 0.0003138691    1.348    0.258
       288 -10.5657      8.9811    163.5208   1.0580672976e+02   3.9323155784e+01    0.2685943    0.2252766 -21.65  0.001710098    1.603    0.376
       289 -10.2494      4.7509    163.0221   1.0697123192e+02   3.9758704497e+01    0.2244359    0.1752938  49.90 0.0005791221    1.102    0.092
       290 -10.0355      5.9515    159.7690   1.0651364112e+02   4.0433026060e+01    0.1740843    0.1442262  48.99  0.000427295    1.111    0.100
       291 -12.1488     18.3790    159.1072   1.0290883854e+02   3.9597564352e+01    0.6092171    0.3760583  77.73  0.003325288    1.485    0.327
       292 -10.8674      2.7198    153.9794   1.0723120315e+02   4.2038380729e+01    0.3678445     0.255497 -70.23  0.001543072    1.510    0.338
       293 -11.2485      7.7272    121.8499   1.0409274298e+02   4.9729179095e+01    0.7348067    0.5471172  13.88   0.00420391    1.543    0.352
       294  -9.8775    182.6998     24.6971   2.6305358325e+01   3.5837035304e+01    0.2827828    0.2262999  55.12 0.0009196407    1.409    0.290
       295 -10.6132      6.4771    148.0628   1.0587953300e+02   4.3204444761e+01    0.3579245    0.2043359  33.73  0.001113011    1.603    0.376
       296 -10.5538    170.0308     31.9528   2.9913353813e+01   3.8130171186e+01    0.5191181    0.3724021 -40.94  0.002697066    1.275    0.216
       297 -10.4872     47.3257     28.6886   6.2147266424e+01   6.9063790936e+01    0.5248908    0.3261568 -28.08 0.0006075197    1.864    0.464
       298  -9.5668     43.3167     29.3007   6.4809253772e+01   6.9654756328e+01    0.6524801    0.2168544 -42.42  0.001638246    3.019    0.669
       299  -9.5348     97.0469     33.1570   4.4140451056e+01   5.7102140501e+01    0.2172987    0.2053092  63.87 0.0002564861    1.030    0.029
       300  -8.9435     79.2441     33.4169   5.0044607334e+01   6.1444968817e+01    0.1993832    0.1430979  66.25 0.0002438399    1.536    0.349
       301 -10.8739     11.1170    144.8302   1.0429757601e+02   4.3658373031e+01    0.3927192    0.2402648  42.69 0.0008513606    1.441    0.306
       302 -10.7762     15.5135    115.7342   1.0080489436e+02   5.0784664309e+01    0.3727121    0.2905998  52.49  0.000375348    1.208    0.172
       303 -10.6406     10.4411    112.2962   1.0242967941e+02   5.2049999734e+01    0.3069245      0.25414  85.59 0.0004017909    1.060    0.057
       304 -10.6010    227.1391     18.1133   2.1150963384e+01   2.6528231927e+01    0.3408146    0.2871414  54.86  0.001371521    1.493    0.330
       305 -11.5809    132.0030     29.5083   3.4647559491e+01   4.8384341561e+01    0.3782816    0.2981198 -36.73            0    1.262    0.208
       306  -9.1259    223.8218     30.8594   2.4523334236e+01   2.5865979351e+01    0.1761516    0.1592006 -34.77 0.0004715262    1.151    0.131
       307  -9.1155     24.5116     31.1311   7.8236773280e+01   7.1985007538e+01    0.2160554    0.1665097 -31.60 0.0005620911    1.275    0.216
       308  -9.3628    216.1877     29.1795   2.4669770324e+01   2.7657235225e+01    0.2195784    0.1929366 -55.90 0.0007463615    1.078    0.072
       309  -9.1325    207.5388     30.4856   2.5703905663e+01   2.9396160688e+01    0.2593757    0.1281469  75.29  0.001226484    2.223    0.550
       310  -8.5031    229.5021     29.5167   2.3788642192e+01   2.4852184858e+01    0.1270068     0.100633 -45.17  5.95695e-05    1.016    0.016
       311  -9.6172      2.9937     29.0891   9.4433304293e+01   7.4216918859e+01    0.3293231    0.1518495  29.04  0.001419214    2.335    0.572
       312 -11.5180      6.3098    108.4747   1.0372946391e+02   5.3317819509e+01    0.8206003    0.5781181 -53.04  0.003135782    1.501    0.334
       313 -10.5272     81.8059     26.6261   4.5733257542e+01   6.1912671178e+01    0.5060502     0.418152 -80.69  0.002599118    1.418    0.295
       314  -9.7371     24.8692    116.1255   9.7350729953e+01   4.9914806646e+01    0.2463329    0.2257735 -70.77 0.0005249864    1.135    0.119
       315 -10.8147     21.6884    142.0177   1.0078556895e+02   4.3498624053e+01    0.4804112    0.2078585  56.96  0.001803534    2.190    0.543
       316 -10.3964     71.5221     26.3805   4.9357684674e+01   6.4406513523e+01    0.5654554    0.2825484  42.18  0.002282999    2.102    0.524
       317 -11.4292     16.9301    140.9155   1.0222896201e+02   4.4177750373e+01    0.4378605    0.3750923  33.87 0.0008526904    1.221    0.181
       318 -11.7348     13.8221    134.3383   1.0280546344e+02   4.6086500053e+01    0.6295695    0.4583905 -15.43  0.001433069    1.835    0.455
       319  -9.0434    206.9202     25.6488   2.4461489136e+01   3.0071022316e+01    0.2139344    0.1615441 -21.63 0.0005657735    1.358    0.264
       320  -8.8067    189.3487     26.0012   2.6059399688e+01   3.4087690909e+01    0.1891476    0.1588323 -43.25 0.0004211858    1.075    0.070
       321  -9.2380    120.1205     25.4900   3.5263581184e+01   5.2091746341e+01     0.392731    0.2541454  21.92  0.001659498    2.184    0.542
       322 -10.6433     12.0651    128.8783   1.0303584424e+02   4.7614379146e+01    0.5131058    0.2293369  27.25  0.001036976    2.145    0.534
       323 -11.0639     29.0936    151.4947   9.9205152798e+01   4.0461504721e+01    0.4326165    0.2318551 -58.45  0.001159336    2.010    0.503
       324 -10.5993     31.1308    146.8265   9.8190323292e+01   4.1414895677e+01    0.4136707    0.1472908  33.07  0.001690156    2.370    0.578
       325  -8.7198     51.1789    149.4150   9.2243636267e+01   3.8558260566e+01    0.1992811    0.1117448  42.19 0.0004981011    1.587    0.370
       326 -10.7942    110.3254     22.6979   3.6083976873e+01   5.5074904154e+01     0.277182    0.2567698  56.94  0.000369047    1.078    0.072
       327  -9.0165     60.8787    148.2960   8.9144242736e+01   3.7598331811e+01    0.1891472    0.1662465  40.29 0.0003193906    1.111    0.100
       328 -10.1146    211.9554     22.4458   2.3235334700e+01   2.9302828401e+01    0.2955627    0.2235647 -27.91 0.0009305613    1.260    0.206
       329  -8.7643    129.7157     23.8774   3.2849774643e+01   4.9704026869e+01    0.2611139    0.1353937  34.35 0.0008905208    2.813    0.645
       330  -9.0303    104.0109     23.9630   3.8093358774e+01   5.6595802658e+01    0.2123849     0.201051  72.48  0.001172264    1.014    0.013
       331 -10.0171     99.1341     23.4942   3.9080567849e+01   5.7942952680e+01    0.3265378     0.248851  84.33     0.001603    1.416    0.294
       332 -11.3683     13.9441    151.8461   1.0381310306e+02   4.1716496678e+01    0.3530433    0.2166782 -70.49  0.001905743    1.638    0.390
       333 -10.5746      3.2019    142.2233   1.0663714513e+02   4.4863134746e+01    0.3686826    0.3557919  18.05   0.00251258    1.262    0.208
       334  -9.8768      1.6551    137.5311   1.0693336008e+02   4.6126699272e+01    0.3890929    0.1458709  88.14  0.001632326    2.451    0.592
       335  -9.9296     44.5158    141.5613   9.3423327646e+01   4.1299039802e+01    0.2450123    0.2233742  71.64 0.0007853322    1.041    0.039
       336  -9.6999    248.5905     22.3650   2.0951825721e+01   2.1902828364e+01    0.1947647    0.1656312 -43.11 0.0004675231    1.118    0.106
       337 -10.1611    164.6947     22.1960   2.7396705906e+01   4.0630022666e+01    0.3260853    0.2784528  35.77  0.001387303    1.394    0.283
       338  -9.1043    143.5039     22.3008   3.0102557091e+01   4.6183145292e+01    0.2683538    0.1778919 -50.72 0.0007829825    1.468    0.319
       339  -8.7264    159.1662     22.6017   2.8170599992e+01   4.2014073515e+01    0.1987267    0.1223561  59.33 0.0009301832    1.654    0.395
       340 -10.3276    188.3895     20.7946   2.4632424333e+01   3.4889149244e+01    0.2543675    0.2281161  39.15 0.0002560684    1.354    0.261
       341  -9.9384     36.3803    141.9565   9.6073640054e+01   4.2097491374e+01    0.2374256    0.1885033 -27.90  0.000997427    1.631    0.387
       342  -9.8102     23.5742    125.2247   9.8743662411e+01   4.7636782875e+01    0.2868214    0.1908499  77.32 0.0008549503    1.419    0.295
       343 -11.6912     29.3949    136.1136   9.7781618139e+01   4.4286138572e+01    0.7935007    0.3448204 -65.85  0.003040594    2.176    0.540
       344 -10.9701     26.1784    130.5310   9.8339140094e+01   4.6024328793e+01    0.5054407    0.3235641  19.68  0.001244119    1.717    0.417
       345 -11.1167     31.0894    125.5447   9.6126609992e+01   4.6852144644e+01    0.4860954    0.3374857  59.44  0.001205456    1.358    0.264
       346  -9.9147      4.2439    131.5323   1.0582417322e+02   4.7470860951e+01    0.3464231    0.1966463  30.28  0.001465791    1.706    0.414
       347 -11.1681     48.8339    126.2640   9.0015887322e+01   4.4691667966e+01    0.4571431    0.3774508  30.86            0    1.254    0.203
       348  -9.0692     63.0145    127.5085   8.5386846507e+01   4.2485494889e+01    0.2208392    0.1395817  33.70 0.0005667435    1.547    0.354
       349  -9.2095    131.2760     19.5488   3.0883075250e+01   4.9788623038e+01    0.5173262    0.1375108  69.55  0.001561376    3.597    0.722
       350  -9.0090    117.8130     19.1767   3.3040309399e+01   5.3480365251e+01    0.2282257    0.1880906 -70.09  0.000725691    1.230    0.187
       351  -9.8703     98.4314    125.9330   7.3854678256e+01   3.7105681459e+01    0.2831194    0.2243853  44.73 0.0006656778    1.213    0.176
       352  -9.8758    230.0913    123.8168   4.5578737260e+01   1.2814011937e+01    0.3890441    0.2203423 -46.28  0.002046772    2.031    0.508
       353  -9.9347     37.8257    124.2695   9.3597616935e+01   4.6488466479e+01    0.2543674    0.1807057  87.07  0.001299044    1.372    0.271
       354  -8.2666     74.3363    124.3058   8.1066363208e+01   4.1595480162e+01    0.1489537    0.1170644 -20.75 0.0007040451    1.672    0.402
       355 -10.4236    221.2583     15.5852   2.0869432057e+01   2.8008798019e+01    0.2388182    0.1695772 -49.87 0.0002347394    1.148    0.129
       356  -9.7734     67.2980    123.4372   8.3244833993e+01   4.2894979802e+01    0.2918128    0.2232595 -23.74 0.0009139007    1.729    0.421
       357  -9.6150     83.1881    120.0780   7.7343084985e+01   4.1192869241e+01    0.3095081    0.2713008 -26.39  0.001612067    1.335    0.251
       358  -9.9889     40.2977    120.3400   9.2198202214e+01   4.7245949313e+01    0.2735228    0.2287352  63.14  0.000706144    1.119    0.106
       359 -10.4197     57.9596    118.0219   8.5504412738e+01   4.5631721467e+01    0.3761802    0.2675724  57.96  0.001258147    1.422    0.297
       360 -10.4183     46.6513    116.5952   8.9339110839e+01   4.7484427460e+01    0.3347218      0.23864 -51.64  0.001666311    1.480    0.324
       361  -9.3521    126.1383     14.8373   2.9793764176e+01   5.1699379695e+01     0.220067    0.2073613 -69.71  0.000545303    1.038    0.037
       362  -9.1827     98.9197    117.6703   7.1888369789e+01   3.8955738097e+01    0.3030546    0.2029013  34.19 0.0004400654    1.533    0.348
       363 -10.0413     67.7052    117.8004   8.2056233187e+01   4.4267509946e+01    0.3923711    0.2658343  23.02 0.0009678048    1.678    0.404
       364  -9.5216     31.0213    116.4751   9.5097277762e+01   4.9245110262e+01    0.2301402    0.1725696 -80.40 0.0007201726    1.245    0.197
       365  -8.8808    102.4505    117.5262   7.0794932387e+01   3.8323005859e+01    0.1517077     0.145033  69.29 8.741584e-05    1.029    0.028
       366  -8.8831     40.0347    114.5146   9.1469753014e+01   4.8812521286e+01    0.2172514    0.1407588  27.09  0.001037905    1.608    0.378
       367  -9.1199     84.0778    113.0466   7.5531477802e+01   4.2768812734e+01    0.2231571    0.2079382  67.28 0.0003473139    1.040    0.039
       368  -9.0686     73.0681    112.3766   7.9106504574e+01   4.4800669593e+01    0.3918998    0.1545459  21.00 0.0008608596    6.197    0.839
       369 -10.4556     62.5302    111.9222   8.2737292544e+01   4.6555188764e+01    0.2939851    0.2411259  34.58 -0.0001040802    1.243    0.195
       370 -11.7404     46.0385    103.3996   8.7337682944e+01   5.1049494706e+01    0.3987342    0.2833549 -84.83 0.0004982699    1.434    0.302
       371  -9.6299     49.8783    111.9113   8.7376854220e+01   4.8311309967e+01    0.2223783     0.199566  74.89  0.001226771    1.050    0.047
       372 -10.3704     46.6310    109.2258   8.8139231831e+01   4.9431364223e+01    0.3476775    0.2513303  86.71 0.0008571481    1.432    0.302
       373  -8.8238     38.5343    111.5032   9.1591866825e+01   4.9779185045e+01    0.1429083    0.1326062 -88.04  0.000809271    1.045    0.043
       374 -10.5495     35.0434    107.1487   9.2296536356e+01   5.1317446838e+01    0.6457456    0.2609999 -76.64  0.001337524    2.530    0.605
       375 -10.2905     28.3316    109.4554   9.5243061979e+01   5.1371756748e+01    0.4130695    0.3138669  48.02  0.001623788    1.277    0.217
       376 -11.0036     21.8616    110.3548   9.7864446126e+01   5.1708015003e+01    0.6280803    0.2316524  32.26  0.002518475    2.472    0.595
       377 -10.8006     21.4396    105.0833   9.7435402871e+01   5.3151235823e+01    0.3045833    0.2539551  67.65 0.0004138433    1.124    0.110
       378  -9.9620     16.1735    104.1716   9.9455199360e+01   5.3807126145e+01    0.3287711     0.243984  80.21   0.00179303    1.242    0.195
       379 -10.5462    120.1727    107.8387   6.3347753047e+01   3.6956936512e+01    0.3081583    0.2463382  43.52            0    1.242    0.195
       380 -10.2043     21.7247    118.7051   9.8781700140e+01   4.9506175787e+01    0.2810414    0.2283634  32.77   0.00110177    1.274    0.215
       381  -8.5289    152.4238    106.4679   5.5066371990e+01   3.0353540320e+01    0.1457422    0.1408845 -44.87 3.702856e-05    1.046    0.044
       382  -8.9321    127.1411    106.1046   6.1036659502e+01   3.5855563841e+01    0.2047287    0.1789363 -80.59  0.001035289    1.292    0.226
       383 -12.0413     80.7616    103.2609   7.4363023376e+01   4.5773355792e+01    0.3410067    0.3069046  11.88 0.0004176275    1.271    0.213
       384 -10.9255    107.8532    103.1773   6.5631971361e+01   4.0551468359e+01    0.3376091    0.2628914  36.04            0    1.329    0.248
