#   1 NUMBER                 Running object number                                     
#   2 MAG_AUTO               Kron-like elliptical aperture magnitude                    [mag]
#   3 X_IMAGE                Object position along x                                    [pixel]
#   4 Y_IMAGE                Object position along y                                    [pixel]
#   5 X_WORLD                Barycenter position along world x axis                     [deg]
#   6 Y_WORLD                Barycenter position along world y axis                     [deg]
#   7 A_WORLD                Profile RMS along major axis (world units)                 [deg]
#   8 B_WORLD                Profile RMS along minor axis (world units)                 [deg]
#   9 THETA_WORLD            Position angle (CCW/world-x)                               [deg]
#  10 FWHM_WORLD             FWHM assuming a gaussian core                              [deg]
#  11 ELONGATION             A_IMAGE/B_IMAGE                                           
#  12 ELLIPTICITY            1 - B_IMAGE/A_IMAGE                                       
         1 -11.4021    243.3588    109.9048   4.4688886057e+01   1.1885825348e+01    0.7803569     0.464747 -73.40  0.003773847    2.550    0.608
         2 -12.3015     42.6621     81.6702   8.6871896176e+01   5.6414047384e+01     1.127629     0.874297 -26.93  0.005812176    1.206    0.171
         3 -10.9573     81.6353     38.3333   5.7525026873e+01   5.7720599647e+01    0.4595922    0.3892675 -57.59  0.002754806    1.539    0.350
         4 -10.4096     39.6525      7.9084   6.0186841540e+01   6.8910359116e+01    0.5320573    0.3017125  -6.56  0.002601809    2.049    0.512
         5 -12.3814     44.0551     22.4938   6.5008895444e+01   6.6547893318e+01    0.9143211    0.8798308 -53.01  0.006482119    1.573    0.364
         6 -10.6445     71.3462      5.7299   4.7903070015e+01   6.3303139834e+01    0.4796228    0.2807561  59.39  0.002454322    1.594    0.372
         7 -11.7760     83.7491      3.9511   4.3899590546e+01   6.0883380182e+01    0.8764244    0.3338946  58.38   0.00357409    2.099    0.524
         8 -11.7202    144.2347      4.3896   3.3319667238e+01   4.7306775917e+01     1.012818    0.4450845  79.72  0.004748825    2.233    0.552
         9 -12.5035    175.5568     20.7080   3.3691096239e+01   3.8614013759e+01    0.9630634    0.6179405 -50.94  0.005697073    1.528    0.345
        10 -11.7693    155.9785     11.9092   3.3830918729e+01   4.3946315011e+01    0.5123349      0.50544 -24.39  0.003670131    1.293    0.226
        11 -11.9234    166.3468     14.7279   3.3300219521e+01   4.1312722913e+01     1.007752    0.4037257 -51.26  0.004601589    2.672    0.626
        12 -12.9399    169.3741      5.2858   3.0683201784e+01   4.1539877137e+01     1.423025    0.6308418  71.76  0.007337281    1.875    0.467
        13 -11.5987    156.1647     20.0156   3.5909275179e+01   4.3095514459e+01    0.5045474    0.2897213  60.95  0.002753058    1.534    0.348
        14 -10.5726    248.1273     16.7234   2.6714679247e+01   2.4229813253e+01    0.3640741    0.1290176 -61.58  0.001804411    2.653    0.623
        15  -9.8183    128.4474     18.0342   3.9547056850e+01   4.9697438887e+01    0.3050189    0.2838747 -65.34  0.001492425    1.190    0.159
        16  -9.2789    129.3245     12.9944   3.7899309185e+01   4.9972362574e+01    0.2936531    0.1708791  41.89  0.001305614    1.865    0.464
        17  -9.9629    226.7714     15.7601   2.7981922229e+01   2.8360397396e+01    0.4299871    0.2032424 -85.11  0.002331033    2.132    0.531
        18 -10.0528    116.2845     16.2253   4.1180552443e+01   5.2659658024e+01    0.5580194    0.2184411 -37.87  0.002511659    2.830    0.647
        19  -9.9309     69.5914     13.2163   5.1516460896e+01   6.2986307044e+01    0.2234613    0.1626517  15.98  0.001385278    1.401    0.286
        20  -9.7155     20.7739     13.8821   7.2289403640e+01   7.0932626212e+01    0.3983577    0.1962891 -18.67  0.002065735    2.341    0.573
        21  -9.3628    104.5857     12.8042   4.2385912767e+01   5.5611793109e+01    0.2932488    0.1964326  -4.12  0.001667565    1.943    0.485
        22 -11.0121    250.2876      9.0715   2.5264097819e+01   2.4691729661e+01     0.685416    0.1556899 -45.99  0.003317333    2.902    0.655
        23 -11.3656    159.0533      3.2736   3.1281796053e+01   4.4036533913e+01    0.8622747    0.2727254  68.57  0.003803243    2.498    0.600
        24  -9.3971    230.6067      8.1906   2.6307946102e+01   2.8441377802e+01    0.3065002    0.1106188 -50.97  0.001632432    2.209    0.547
        25 -10.6928    131.2016      3.9038   3.4948213901e+01   5.0326643229e+01    0.6952556    0.2067413  58.44  0.002984656    2.517    0.603
        26 -10.8737    120.9680      4.2802   3.6617838988e+01   5.2630692312e+01    0.5977046    0.3391039  70.88  0.002682126    1.507    0.336
        27 -10.0893    112.7195      5.5964   3.8428035472e+01   5.4395028284e+01    0.3040966    0.2249271  77.51  0.001901756    1.271    0.213
        28 -10.9459    106.3778      4.7559   3.9316921530e+01   5.5886246240e+01    0.5902219     0.302996  85.48  0.002674336    2.727    0.633
        29  -9.6044    208.4557      4.5009   2.7130471180e+01   3.3222463718e+01     0.184502    0.1570493 -65.17 0.0008921463    1.216    0.177
        30  -9.8860    204.0400      4.0426   2.7366795173e+01   3.4177978801e+01    0.2980153    0.1783896 -76.79  0.001869421    1.433    0.302
        31  -9.4472    222.5250      3.5075   2.5965075611e+01   3.0499519814e+01    0.2130652   0.09690672 -36.64   0.00100831    2.205    0.547
        32 -10.5343     60.6598      2.3674   4.9725849433e+01   6.5678179934e+01    0.4896484    0.2006679  45.18  0.002488245    1.896    0.473
        33 -11.7437     78.1626     13.6905   4.9156490005e+01   6.1216073829e+01     1.182168    0.5075279 -10.22  0.004719628    4.024    0.751
        34 -10.8085     50.5138     37.2169   6.8445108211e+01   6.3520042363e+01    0.7934314    0.5957758 -81.86  0.003780142    3.348    0.701
        35  -8.9968     96.9984     36.7445   5.2477476198e+01   5.4719018741e+01    0.1833235    0.1032656  52.80  0.000893237    1.580    0.367
        36  -9.2151     34.8921     52.8615   8.1246709782e+01   6.3131153771e+01    0.2310199    0.1666676  25.17  0.001356761    1.371    0.271
        37  -9.0362    215.7072     50.5469   3.5908714685e+01   2.6261383358e+01    0.2292438    0.1080135  62.55  0.001150644    2.140    0.533
        38 -10.4543     84.9836     47.6523   5.9834044711e+01   5.5742848526e+01    0.6180517    0.4787522  77.72  0.003272211    1.863    0.463
        39 -10.5953    243.8551    201.2784   6.1958410284e+01  -3.6308218450e+00    0.4928436    0.2522582 -40.97  0.002642301    1.706    0.414
        40 -10.8257      3.2078     40.9150   9.3015337423e+01   6.8298980198e+01    0.4271126    0.3885612  -6.08  0.002595378    1.275    0.216
        41  -9.7478      5.9392     35.4296   8.9647641950e+01   6.9096201775e+01    0.3311315    0.1982521  36.10  0.001920173    2.174    0.540
        42 -10.3374    185.0324     40.1396   3.7151897531e+01   3.4198412040e+01    0.3254277    0.1703261 -63.42  0.001543411    2.147    0.534
        43 -10.1275    220.0080    155.7951   5.7366358056e+01   7.7134591116e+00    0.3145814    0.2314328 -75.89  0.001598271    2.112    0.526
        44 -11.1104     40.0598     29.6430   6.9878813188e+01   6.6205522670e+01    0.4926071    0.3033415 -34.48  0.002693166    1.671    0.402
        45 -12.0340     10.4373    141.5870   1.1002935395e+02   4.4721346509e+01    0.6830377    0.3723726 -86.13  0.003231714    1.859    0.462
        46  -9.6213     11.8483     34.3528   8.6010897517e+01   6.8800695581e+01    0.3664305    0.1804099 -44.01   0.00201299    1.816    0.449
        47  -8.4252     33.3273     35.3049   7.5372824231e+01   6.6297399159e+01    0.1296268   0.08281859  -4.16 0.0003476037    1.649    0.394
        48  -9.5884    198.0252     34.3021   3.4322000833e+01   3.2092851673e+01     0.182191    0.1424513 -89.56  0.001170396    1.110    0.099
        49 -10.8635     86.3303     31.1908   5.3471679183e+01   5.7661826386e+01    0.3919977    0.2354804 -20.69  0.002023318    1.964    0.491
        50 -10.0976     89.9835     28.8240   5.1571620733e+01   5.7172318002e+01     0.313804    0.2505606 -18.77  0.001913025    1.400    0.286
        51  -9.8769     66.9483     29.0347   5.8833013518e+01   6.1766258810e+01    0.2893087     0.178195  -9.08  0.001493631    2.021    0.505
        52  -9.4740     40.0402    140.8036   1.0056419687e+02   4.2280414183e+01     0.276343    0.1990594 -64.45  0.001416027    1.263    0.208
        53  -8.9995     53.2910    143.0194   9.6701418855e+01   4.0156882333e+01    0.2160375    0.1899493 -66.94  0.001174983    1.075    0.070
        54 -12.9907    240.1234    126.7319   4.8429672116e+01   9.5863444388e+00     1.222461     0.936967 -58.11  0.007504864    1.282    0.220
        55 -10.4630     17.8967    127.5269   1.0576599164e+02   4.7759979337e+01    0.2300218    0.1799182  84.68  0.001292442    1.363    0.266
        56 -11.5137     10.6362    123.0118   1.0755813539e+02   4.9428977368e+01    0.4826609    0.2687407 -82.18  0.002307636    1.848    0.459
        57 -11.7940    203.7746    223.7189   7.3193802193e+01  -2.0920091285e+00    0.5961007    0.3451898 -11.07  0.002873882    2.153    0.535
        58  -8.5420    148.5020    111.5243   6.1658442017e+01   3.0482821345e+01    0.1506081    0.1468089 -68.52 8.638523e-05    1.010    0.010
        59  -9.7971    188.1870    117.8260   5.4908597747e+01   2.0815042471e+01    0.1974601    0.1732016  -8.45 0.0009700448    1.353    0.261
        60  -9.3092    111.9540     16.5294   4.2122546768e+01   5.3613812554e+01     0.287128    0.1441748  51.61 0.0009776037    1.680    0.405
        61  -8.9694     88.5011     20.4848   4.8913418666e+01   5.8391500552e+01    0.1280703    0.1082638  44.22 -9.461384e-05    1.006    0.006
        62 -10.4032     17.1434    104.1786   1.0218685797e+02   5.3645122320e+01    0.3449697    0.2831631 -59.94  0.002069557    1.094    0.086
        63  -9.5375     46.6283    100.1989   9.0130501762e+01   5.1719461788e+01     0.384307    0.2456487 -50.93  0.001884563    1.429    0.300
        64  -9.6900     30.5893    101.8087   9.6603284629e+01   5.3078249641e+01    0.2845011    0.1916594 -31.83  0.001339742    1.476    0.323
        65  -9.5262     94.4477     17.1966   4.6205313409e+01   5.7439158683e+01     0.291082    0.2044854 -88.89  0.001360432    1.987    0.497
        66  -8.5766    208.5193     94.5233   4.6288030603e+01   2.0930492670e+01    0.1363743     0.118006 -61.38 5.071928e-05    1.027    0.026
        67  -8.7071    178.5092     93.5005   5.0969272354e+01   2.7403383830e+01    0.1437195    0.1311602 -70.25 0.0008103999    1.033    0.032
        68 -10.2458    183.6785    216.4189   7.5991451950e+01   2.0665607608e+00    0.2648376    0.1206125  37.71  0.001155975    2.199    0.545
        69  -9.0308     64.4892     16.0219   5.4341102661e+01   6.3698420570e+01    0.1669483    0.1180273 -21.54 0.0008293013    1.557    0.358
        70 -10.4637      2.7441     86.5487   1.0457411080e+02   5.8743521151e+01    0.7843216    0.1997016 -66.08  0.002865877    3.273    0.694
        71 -11.8575      5.2201     76.5354   1.0151605218e+02   6.0880990924e+01    0.7450019     0.515219  57.03  0.004164179    2.076    0.518
        72 -12.1548     15.1545     73.0160   9.6317959531e+01   6.0999176151e+01    0.9637269    0.6069064  33.09   0.00531741    1.845    0.458
        73  -8.7959    193.9778     87.4863   4.6931273526e+01   2.5130455554e+01    0.1891019    0.1154953  89.21 0.0006018648    2.414    0.586
        74  -7.7112    220.2996     11.3044   2.7599988581e+01   3.0123707723e+01   0.09772022   0.08294994  57.61  0.000378061    1.589    0.371
        75  -9.0993    144.7106     81.0107   5.4497953294e+01   3.7215210635e+01    0.2079498    0.1989221 -61.21  0.001180716    1.055    0.052
        76 -10.0572      4.8084    124.5966   1.0972601063e+02   4.9401505065e+01    0.2589476    0.1790192  61.25  0.001338401    1.678    0.404
        77  -9.0667    169.6367     76.0895   4.8267866585e+01   3.2388677234e+01    0.2470574    0.1929125  77.50   0.00108071    1.312    0.238
        78  -8.9428    139.4935     76.4875   5.4408450134e+01   3.9197545907e+01    0.1444124    0.1373954  78.19 -3.152423e-08    1.020    0.019
        79  -9.8615     75.3503     68.6370   7.0269087879e+01   5.4097897065e+01    0.4896458    0.3322401   5.28  0.002296198    1.920    0.479
        80  -9.0665     83.8987     68.6850   6.7348180490e+01   5.2502634427e+01     0.257171    0.1959342 -23.29  0.001341698    1.398    0.285
        81  -8.3037    132.4610     63.4910   5.2281734059e+01   4.2963886851e+01    0.1408011    0.1324513  56.12 0.0003465966    1.033    0.032
        82  -9.2212    102.8133     26.0768   4.7315620254e+01   5.4695104617e+01    0.2623898    0.1350528  38.27  0.001227292    2.052    0.513
        83 -10.4186     25.2977     65.3844   8.9671326862e+01   6.1743531492e+01    0.5224184    0.2448196 -51.56  0.002494102    1.928    0.481
        84  -8.7644     76.3672     59.7839   6.6941872487e+01   5.5484782515e+01    0.1951532    0.1255255 -27.67 0.0009507739    1.689    0.408
        85 -10.0540    198.2846     53.6456   3.8595974368e+01   2.9479949857e+01    0.4491365     0.166279 -34.43  0.001830833    2.925    0.658
        86  -8.5536    138.1816     55.6004   4.8769131515e+01   4.2846441179e+01    0.2045787    0.1175354  48.59 0.0009469434    1.685    0.407
