#   1 NUMBER                 Running object number                                     
#   2 MAG_AUTO               Kron-like elliptical aperture magnitude                    [mag]
#   3 X_IMAGE                Object position along x                                    [pixel]
#   4 Y_IMAGE                Object position along y                                    [pixel]
#   5 X_WORLD                Barycenter position along world x axis                     [deg]
#   6 Y_WORLD                Barycenter position along world y axis                     [deg]
#   7 A_WORLD                Profile RMS along major axis (world units)                 [deg]
#   8 B_WORLD                Profile RMS along minor axis (world units)                 [deg]
#   9 THETA_WORLD            Position angle (CCW/world-x)                               [deg]
#  10 FWHM_WORLD             FWHM assuming a gaussian core                              [deg]
#  11 ELONGATION             A_IMAGE/B_IMAGE                                           
#  12 ELLIPTICITY            1 - B_IMAGE/A_IMAGE                                       
         1 -11.1469     19.0382     27.1063   8.1512294657e+01   6.9442097286e+01     1.059883     0.283097 -48.23     0.003063    4.206    0.762
         2 -11.2969     15.5188     42.2588   8.9318148016e+01   6.7146608361e+01     1.061664    0.4862645 -62.12  0.004553297    3.368    0.703
         3 -11.0826      6.8735     34.8891   9.1445695567e+01   6.9147664453e+01     1.184218    0.4941698 -39.38  0.006101506    1.907    0.475
         4 -10.9464     74.2554     25.6286   5.6089394187e+01   6.1149363804e+01    0.8851927    0.4486941 -11.80  0.002475983    2.846    0.649
         5 -12.4837    105.1939     20.7770   4.5492207223e+01   5.5071577702e+01    0.3252641    0.2814503  49.74 0.0003706747    1.023    0.022
         6 -12.4451    107.7999     29.0836   4.7761960484e+01   5.3595523461e+01    0.4204279     0.326661  -1.69  0.002425371    1.519    0.342
         7 -11.1040    146.0446     28.6246   3.9931553373e+01   4.4721905313e+01    0.6475381    0.3490714  55.40  0.001285423    1.645    0.392
         8 -11.1355     28.5474     30.2421   7.7721907567e+01   6.7902607817e+01    0.9601054    0.4886873 -10.32  0.004359633    2.657    0.624
         9 -10.0398     34.2780     18.6977   6.9591320058e+01   6.8819129533e+01    0.7005787    0.3367496  11.20  0.001024277    3.126    0.680
        10  -9.7281     31.1681     12.3131   6.8079048116e+01   7.0057287003e+01    0.3455476    0.2117177  43.21  0.001445875    1.956    0.489
        11  -9.9288     40.8232     20.9035   6.7441628292e+01   6.7583607398e+01    0.3566894    0.3054381 -67.87  0.001669872    2.294    0.564
        12 -10.7810     42.3218     15.7275   6.4324634620e+01   6.7992687164e+01    0.3977818    0.3072238   1.98  0.001888145    1.127    0.113
        13 -10.4024     50.2197     22.1778   6.3792203434e+01   6.5939402555e+01    0.6428568    0.2983472 -13.56  0.002602535    3.471    0.712
        14 -10.8812     85.7855     22.0843   5.1054883514e+01   5.9186095591e+01    0.4665093    0.2915276  69.08  0.001115507    2.061    0.515
        15  -9.1813    144.0683     18.3870   3.7332729481e+01   4.6272124199e+01    0.7712748    0.5150436  -1.01  0.004112723    2.235    0.553
        16 -10.6675    153.6736     22.7858   3.7115527639e+01   4.3561977540e+01    0.2780872     0.265632 -22.17 0.0003150366    1.272    0.214
        17 -10.3712    144.8634     12.6844   3.5603110114e+01   4.6634206697e+01    0.5289817    0.1663486  57.78  0.001204092    2.504    0.601
        18  -9.9517    151.7693     18.0322   3.6094022099e+01   4.4499683762e+01    0.2944329    0.1706364 -36.97 0.0003653165    1.879    0.468
        19 -10.5216    148.4834     16.4412   3.6127939243e+01   4.5427602449e+01    0.4238946    0.2454703 -30.23  0.001565319    1.982    0.495
        20  -9.6519     75.5519     11.9919   5.0066686675e+01   6.2311231718e+01    0.3294352    0.2734825   4.82 0.0003701707    1.251    0.201
        21 -11.8826     74.0853      4.6744   4.7449823564e+01   6.3243644110e+01    0.9217528     0.554814 -22.20  0.004487519    1.910    0.477
        22 -10.7491     79.4454      4.3726   4.5806572198e+01   6.2156179555e+01    0.2743412    0.2041334  44.47 0.0005467598    1.068    0.064
        23 -10.6291     68.4677     16.4808   5.4250779029e+01   6.3286485389e+01    0.4298979    0.2843424  67.49  0.001921654    2.177    0.541
        24 -10.2403     69.7403     11.4404   5.1670197017e+01   6.3531502884e+01    0.2826559    0.1995111  36.50 0.0002473469    1.152    0.132
        25 -11.9769     61.7629     17.4484   5.7063278502e+01   6.4459001755e+01    0.5454844     0.309103  24.86  0.001677447    1.778    0.438
        26 -10.7575    219.6984     19.7901   2.9155522876e+01   2.9243809849e+01    0.4040174    0.2618806 -71.45  0.002013359    1.320    0.242
        27 -10.7356    165.7829     18.7186   3.4397332276e+01   4.1165345506e+01    0.4153221    0.2732882  25.41 0.0008978235    2.428    0.588
        28 -11.2230     24.1344      6.8737   6.9041479829e+01   7.1660676922e+01    0.4826427    0.2624866  43.94  0.001017133    2.400    0.583
        29 -10.2481      6.9305      9.3937   8.0593894148e+01   7.3263990078e+01    0.3097856    0.2035377  -7.78 0.0008994985    1.192    0.161
        30 -11.4258     14.8460     11.4014   7.6695830219e+01   7.2197706104e+01      0.35129    0.2123541  23.09 0.0009017472    1.483    0.326
        31 -10.6829      5.8621     16.0920   8.4453324586e+01   7.2371586865e+01    0.4130355    0.3187197 -49.38  0.002838708    1.783    0.439
        32 -10.1858      9.8759     14.8382   8.1380636208e+01   7.2208528493e+01    0.2652417    0.1607242  -2.11 0.0007952082    1.434    0.302
        33 -10.4438    167.2940      8.1370   3.1557419220e+01   4.1858650637e+01    0.6533834     0.273418  51.52  0.003052496    2.514    0.602
        34 -11.9065    177.7443      3.4239   2.9343156423e+01   3.9931282924e+01    0.3650227    0.2648534  79.04  0.002393964    1.145    0.127
        35  -8.5103    185.0244      5.0475   2.9031178892e+01   3.8163869365e+01    0.1623748    0.1124292 -76.25 0.0003442936    1.270    0.212
        36 -10.9491    182.2803     18.4189   3.2391303306e+01   3.7431757244e+01    0.2836713      0.23339  57.35 0.0005269788    1.345    0.257
        37 -10.3059    184.9705     13.2789   3.0913220556e+01   3.7366151168e+01    0.4534606    0.2312923 -75.55   0.00225095    2.179    0.541
        38 -10.9904    175.3724     12.6461   3.1769599249e+01   3.9585984766e+01     0.703423    0.3125484  75.83  0.003075118    2.029    0.507
        39  -9.9294    225.8435     16.3346   2.7992064950e+01   2.8395819805e+01    0.3311869     0.159273 -34.83  0.001234967    2.182    0.542
        40  -9.3720    199.6735     18.4850   3.0643517841e+01   3.3589987536e+01     0.306036    0.1398014 -38.06  0.001307461    2.142    0.533
        41  -9.0088    201.0324     13.0113   2.9339458201e+01   3.3885400585e+01    0.1889286    0.1509261  28.42 0.0005822754    1.968    0.492
        42  -9.7326    238.2872     17.1380   2.7241962684e+01   2.5882389737e+01    0.1917216    0.1846161   8.94 0.0005500507    1.668    0.400
        43  -9.6569    125.9145     16.4993   3.9799882079e+01   5.0715734814e+01    0.4809499    0.2181973  38.37  0.001749683    2.717    0.632
        44 -11.1024    133.0876     12.6664   3.7398323282e+01   4.9393699882e+01    0.2283847    0.2082028  70.31 0.0002497492    1.089    0.082
        45  -9.6540    128.7959      8.8622   3.6947707659e+01   5.0731106960e+01    0.3028086    0.2725263  -6.21  0.002052149    1.363    0.266
        46 -10.7257     15.8356      3.5916   7.2051277566e+01   7.3086299749e+01     0.413687    0.2352885   9.36  0.001534567    1.593    0.372
        47 -10.0646    243.9944     13.9165   2.6273148747e+01   2.5169284707e+01    0.2734528    0.1827937  51.83  0.001794557    2.203    0.546
        48 -10.8606    212.3089      9.3474   2.7646008844e+01   3.1895976430e+01    0.4838093     0.314626 -23.14  0.002966326    2.151    0.535
        49 -10.5924    209.3234      3.7222   2.6737372482e+01   3.3085859510e+01    0.2988997    0.2782195   2.60  0.001383195    1.641    0.391
        50  -9.3748    206.3426      2.2750   2.6666283615e+01   3.3848391413e+01     0.202572    0.1565926 -84.68 0.0006602557    1.041    0.039
        51  -9.6238    117.2565     14.8093   4.0886772652e+01   5.2885540787e+01    0.2346188    0.1869084  39.41 0.0007022439    1.245    0.196
        52  -9.2389     84.3201     14.5242   4.8519809902e+01   6.0252307341e+01     0.275885    0.1467609  35.40  0.001303542    1.796    0.443
        53  -9.2146     87.4849      6.1838   4.4414808452e+01   6.0301588600e+01    0.2320831    0.1758487 -89.54 0.0008004593    1.769    0.435
        54 -11.8443     91.5479      2.4491   4.2004637027e+01   5.9706717025e+01    0.2727203    0.2252163 -67.02  0.001772467    1.580    0.367
        55  -9.3337     90.0216     13.3713   4.6528978654e+01   5.9138151413e+01    0.3492192    0.1749343  64.12   0.00137417    2.031    0.508
        56  -9.9523     92.1141      8.4369   4.4128794348e+01   5.9112119226e+01      0.63872    0.1715818  48.73  0.002522974    2.769    0.639
        57 -10.2963     97.0477     12.7822   4.4553165234e+01   5.7651951302e+01    0.3887919    0.2177987  54.71  0.000505672    1.454    0.312
        58  -9.4405    100.6915     10.6766   4.2943213430e+01   5.7024764490e+01    0.2900593    0.1669396  58.11   0.00113667    1.430    0.301
        59 -10.2365    218.3454     11.0055   2.7515638654e+01   3.0484306769e+01    0.3070325    0.1873759 -61.10 0.0009813951    1.383    0.277
        60 -10.2607    191.9238      9.1818   2.9323240989e+01   3.6247379739e+01    0.3785757    0.3117281 -71.38  0.002400418    1.104    0.094
        61 -10.8730    195.6217      3.5251   2.7771356159e+01   3.6000002998e+01    0.4921276    0.2253178  65.45  0.002673764    1.946    0.486
        62  -9.9918     50.7798      8.1483   5.7066612787e+01   6.7398636356e+01    0.3930107    0.2395404  47.25  0.002304366    1.551    0.355
        63  -8.7437    159.4872     10.9276   3.3179189218e+01   4.3392507236e+01    0.6549085    0.1943165 -30.82  0.002711684    3.517    0.716
        64 -10.1422    152.6836      5.7021   3.2648400358e+01   4.5440247349e+01    0.2752906     0.181476  64.08 0.0005638869    1.291    0.226
        65 -11.1531    155.9578      3.6310   3.1708783324e+01   4.4862796467e+01    0.2164012    0.1974761  78.26 0.0003818741    1.151    0.131
        66 -11.7379    159.8897      1.8254   3.0796459313e+01   4.4113793973e+01    0.5535266     0.335756  80.59  0.003230883    1.402    0.287
        67  -8.6161     55.8916     11.0605   5.6415310547e+01   6.6198874958e+01    0.2019713    0.1210486  20.36  0.001119876    1.652    0.395
        68  -8.7661      1.2636      9.0350   8.4111977156e+01   7.3799597332e+01    0.2855875   0.08100253 -45.17  0.001042452    3.227    0.690
        69 -10.0896    120.0377      9.9581   3.8792836987e+01   5.2672379116e+01    0.2726306    0.2206776 -66.45  0.000344152    1.429    0.300
        70 -11.0202    115.5355      2.0051   3.7024423575e+01   5.4347484246e+01    0.2751444    0.2153275  57.29 0.0003814048    1.065    0.061
        71  -9.6281    119.9895      1.7209   3.6176606271e+01   5.3344949233e+01    0.2276159    0.2073752 -45.81  0.000847279    1.309    0.236
        72 -10.6039    231.1847     14.7504   2.7296902223e+01   2.7519427629e+01    0.3067448    0.1754208 -85.07 0.0006743502    1.568    0.362
        73 -11.0250    106.5469      4.9666   3.9692462012e+01   5.6172063299e+01    0.5223159    0.4150592 -30.15  0.003392489    1.510    0.338
        74  -9.2966     51.1806     12.1509   5.8791719284e+01   6.6923795336e+01    0.1942641    0.1527318  24.58 0.0007007348    1.033    0.032
        75  -9.3880     97.8344      5.5197   4.1718768274e+01   5.8085575089e+01    0.3059201    0.2271806 -35.15   0.00190917    1.631    0.387
        76  -9.6086     63.0451      6.4907   5.1739517304e+01   6.5288284817e+01    0.3243873     0.196344  62.68  0.001752915    2.009    0.502
        77  -9.0466     37.9834      4.4483   6.0775098776e+01   6.9907325374e+01     0.314555    0.2589349  67.22   0.00200143    2.231    0.552
        78 -11.0713    249.4702      2.1612   2.3889078643e+01   2.5430907977e+01    0.2557327    0.2229494  30.43  0.001978141    2.095    0.523
        79 -10.5246    235.7361      3.2651   2.4873845316e+01   2.7871283618e+01    0.4320818    0.1983348  88.24   0.00158958    2.000    0.500
        80 -10.4283    217.6218      3.4377   2.6084120148e+01   3.1414109728e+01    0.2432118     0.218498  38.86 0.0006757331    1.694    0.410
        81  -9.9485    125.9212      2.4947   3.5462610640e+01   5.1916153646e+01    0.4520459    0.2020797  37.73  0.002036145    2.789    0.641
        82  -9.9927     30.6094      2.6378   6.3398894175e+01   7.1222374387e+01    0.2154205    0.1716742 -24.20  0.001046949    1.531    0.347
        83  -9.4521    144.9595      2.4477   3.2744405499e+01   4.7503582612e+01    0.3181773    0.1782201 -87.13  0.001651536    1.918    0.479
        84 -10.4300    135.1772      1.6379   3.3832753914e+01   4.9836986803e+01    0.2943961    0.1442355  72.69 0.0008349218    1.740    0.425
        85  -8.8360    185.7627      1.4101   2.8148091187e+01   3.8340114571e+01     0.161666   0.08982685  66.70 0.0007031833    1.588    0.370
        86  -9.3430      5.4570      1.3892   7.7389749420e+01   7.4479296442e+01    0.1922566   0.08774467  22.98 0.0005557518    1.915    0.478
        87 -10.0366      3.5388    117.8542   1.1120602910e+02   5.0723734992e+01    0.4020034    0.2114239 -75.86   0.00106446    1.697    0.411
        88  -9.7907    201.3938    249.4865   7.8995636556e+01  -6.3389129209e+00    0.2509484    0.1862723   1.32 0.0007128708    1.102    0.092
        89 -10.3527    115.9876    248.6262   9.7306936580e+01   5.6818116960e+00    0.3174682    0.2670569  87.88  0.001926693    1.497    0.332
        90 -10.2256     28.3944    113.7842   1.0178525917e+02   5.0076942972e+01    0.3352799     0.148795 -45.32  0.001406428    2.027    0.507
        91  -9.8742     32.8617    117.8687   1.0092153249e+02   4.8639328756e+01    0.2437578    0.1918108 -51.53 0.0003471605    1.113    0.101
        92  -9.9145     33.9555    114.4888   9.9894029610e+01   4.9401138482e+01    0.2309212    0.1862321 -70.73  0.000581883    1.234    0.190
        93  -9.2004     70.2421    116.1305   8.7237258298e+01   4.4576247724e+01    0.2623512    0.1836874  57.72 0.0003584144    1.858    0.462
        94  -9.9921     47.0339    114.0615   9.5046678318e+01   4.8153759042e+01    0.3240008    0.2563201 -23.97  0.000691471    1.293    0.226
        95  -8.0620    162.2658    114.0083   5.9958932838e+01   2.6999197893e+01    0.1945305    0.1302838 -42.56 0.0003701536    1.448    0.309
        96  -9.0678    129.9634    113.9731   6.7956998957e+01   3.3998175573e+01    0.2297365    0.2256812 -11.47 -0.002661949    1.004    0.004
        97  -8.3813     80.4814    114.5036   8.3314728814e+01   4.3373567717e+01    0.1547595     0.145969 -25.12 -9.541125e-05    1.002    0.002
        98  -8.3764    107.6934    112.7112   7.4048267174e+01   3.8859996790e+01    0.1587182    0.1230717  -6.63 0.0001839472    1.572    0.364
        99  -9.2905     52.5648    111.8029   9.2535698987e+01   4.8067550551e+01    0.3095431    0.1887873 -74.71  0.001306958    2.097    0.523
       100 -10.4805     45.0992    119.4942   9.6866603770e+01   4.6985527600e+01    0.3853965    0.2623443  22.61 0.0009318623    1.590    0.371
       101 -10.3349    118.6462    103.6289   6.8326292717e+01   3.8665341827e+01    0.5083367    0.2762102 -28.15            0    2.538    0.606
       102  -8.4736     37.3545    106.5108   9.7025449449e+01   5.1083157416e+01    0.2475643       0.1206 -59.10 0.0008293019    1.824    0.452
       103  -7.8976     43.2979    106.6032   9.4804681102e+01   5.0440616345e+01    0.1456126    0.1100541  74.54 0.0007003263    1.808    0.447
       104  -9.9381     69.7739    103.7453   8.4301804155e+01   4.7671414127e+01     0.487979    0.2398638 -26.90  0.001592311    3.328    0.700
       105  -9.4144     32.9527    104.0285   9.8174748026e+01   5.2122371365e+01    0.4402921    0.2293437 -31.08  0.001896539    2.121    0.528
       106  -8.6698     29.5529    102.4808   9.9157853942e+01   5.2810755049e+01    0.2030056    0.1271175 -71.54 4.649659e-05    1.688    0.408
       107  -9.1884    132.3327    103.9511   6.4633136453e+01   3.5659624782e+01    0.2655915    0.2089211  56.56 0.0006652254    1.358    0.264
       108  -9.7972     95.0584    100.1387   7.4592586491e+01   4.4169426193e+01    0.2758856    0.2493757  28.39 0.0003082771    1.100    0.091
       109 -10.4611    101.1624    102.8466   7.3389679288e+01   4.2389879856e+01    0.8047627    0.4337679  19.68  0.002707944    3.026    0.670
       110  -9.2118    100.5985     99.2411   7.2552844808e+01   4.3302041195e+01    0.3296473    0.2692971 -23.11 0.0008705709    1.284    0.221
       111  -8.8446    127.1567    102.0889   6.5514575718e+01   3.7178168498e+01     0.227748    0.2063355  -1.98 0.0002865096    1.177    0.150
       112  -9.4904    113.9710    101.0994   6.8982392172e+01   4.0191841069e+01    0.3591076    0.2461123 -82.43  0.001359268    2.651    0.623
       113 -11.6643    117.6426     97.9948   6.7035605176e+01   4.0084583923e+01    0.3454494    0.2892174 -10.27 0.0003010852    1.340    0.254
       114  -8.3853     87.4884    102.5331   7.7778256297e+01   4.5017937207e+01    0.1517999    0.1475277 -10.58 0.0008090483    1.054    0.051
       115 -10.1753     80.3647     95.5818   7.8285554143e+01   4.7848548209e+01    0.4261368    0.3864633  40.32  0.002290744    1.190    0.160
       116  -8.1507     80.5757    101.5464   7.9879185167e+01   4.6449069592e+01    0.2184991    0.1503572 -62.84 1.202507e-06    1.734    0.423
       117  -9.5806     77.9640    100.6291   8.0543137725e+01   4.7099981658e+01    0.4823571    0.1827523 -40.88  0.001185129    2.817    0.645
       118  -9.9036     51.2849    100.9823   9.0462568386e+01   5.0890536833e+01    0.4253789    0.2475299 -65.19  0.001853145    1.934    0.483
       119  -8.3012     39.6765    102.6934   9.5308620599e+01   5.1791973514e+01    0.1458259    0.1342242 -45.65  0.000396656    1.072    0.068
       120  -9.4975     44.5072     99.7448   9.2764994791e+01   5.1989644982e+01    0.4526254    0.1647251  31.38  0.001376041    2.793    0.642
       121  -9.7669     39.4993     99.1664   9.4574314210e+01   5.2672162292e+01    0.3257052    0.2422816  19.17 0.0008504184    1.432    0.302
       122  -8.8900    177.0246    101.3040   5.3676913164e+01   2.6287352230e+01    0.1938623    0.1859152  80.76 0.0003822678    1.064    0.060
       123  -9.6944     57.3303     99.8582   8.7887073060e+01   5.0382712532e+01    0.4719183    0.1700543 -42.63  0.001621965    2.765    0.638
       124 -10.2222      3.2922     92.9525   1.0762195154e+02   5.6884861265e+01    0.5595813    0.2586741  43.34  0.002369229    2.964    0.663
       125  -9.9505      2.4471     86.5573   1.0685316386e+02   5.8446951316e+01     0.532112     0.115748 -55.96  0.002035062    2.753    0.637
       126  -9.7192      3.5817     80.7646   1.0530294410e+02   5.9750050569e+01    0.4084237    0.2345887 -46.73  0.001123153    1.374    0.272
       127  -9.4672      8.7664     98.4164   1.0641657360e+02   5.5283316370e+01    0.2541679    0.1741991 -50.10 0.0006271704    1.194    0.163
       128  -8.5104      4.3014     97.8188   1.0803196321e+02   5.5659838204e+01    0.2802869     0.186613  11.73  0.001396222    1.728    0.421
       129  -9.0411    149.8155     97.6046   5.8555909964e+01   3.3070585592e+01    0.2110505    0.1888223 -33.54 0.0004682239    1.141    0.124
       130  -9.9771    125.6785     96.6713   6.4406122087e+01   3.8631271939e+01    0.2983696    0.2806413  78.53  0.001429103    1.160    0.138
       131  -9.7884     86.3776     95.9758   7.6310977581e+01   4.6702856756e+01    0.2964017      0.22277  24.37 0.0006955093    1.365    0.267
       132 -11.2088     26.6727     87.3978   9.6999788836e+01   5.6692560458e+01    0.6412424    0.4007546 -24.98 0.0008573907    1.613    0.380
       133 -10.1076     31.8370     94.2458   9.6473370225e+01   5.4611683026e+01    0.3533304    0.2571295 -70.40 0.0009145406    1.498    0.333
       134  -9.5922     34.1985     90.5882   9.4661003614e+01   5.5259328702e+01     0.317574    0.2028025 -25.71 0.0008377007    1.596    0.373
       135  -8.9838     23.0184     94.5914   1.0008358739e+02   5.5274568324e+01    0.2532539    0.1779834 -77.68 0.0008758365    1.620    0.383
       136  -9.2648     13.2621     94.3667   1.0393128895e+02   5.6005584542e+01     0.410573    0.2044714 -46.03   0.00199103    1.656    0.396
       137  -9.0794     14.5994     87.5094   1.0203638646e+02   5.7561507648e+01     0.449039    0.1736077 -40.11  0.001783744    2.297    0.565
       138 -10.5231     46.7407     91.2300   8.9763001871e+01   5.3757412284e+01    0.4665259    0.3094381 -74.03  0.000879688    2.052    0.513
       139  -9.7631    134.4500     92.2088   6.0828178530e+01   3.7591538062e+01    0.2803644    0.2094321  46.78 0.0005493055    1.321    0.243
       140  -9.2771     71.2469     90.6177   8.0147607477e+01   5.0474329694e+01    0.2593537    0.2382256 -17.84  0.001331753    1.017    0.016
       141  -8.8039     52.5704     90.7593   8.7327634096e+01   5.3145120907e+01    0.1964725    0.1373495 -64.87 0.0009428486    1.670    0.401
       142  -9.1999     18.2537     90.9860   1.0125554262e+02   5.6490696716e+01     0.206059    0.1776047  -7.68  0.001267955    1.212    0.175
       143 -10.6489    107.2652     83.4383   6.5821250258e+01   4.5252268655e+01    0.7294892    0.5454699  85.69  0.001699238    2.120    0.528
       144  -8.8803    104.8459     90.5351   6.8692332652e+01   4.4316583840e+01    0.2349736    0.1478074  42.31  0.001021591    1.567    0.362
       145 -10.4794     86.3763     88.7034   7.4180240609e+01   4.8291337735e+01    0.4195971    0.3428894 -11.91  0.000780407    1.287    0.223
       146  -9.3126     87.0251     83.6250   7.2414678600e+01   4.9238227392e+01    0.2881644    0.2126923 -46.76 0.0004476987    1.412    0.292
       147  -9.6423     90.9357     83.5589   7.1066599853e+01   4.8512475026e+01    0.3016337    0.1985624 -27.85 7.138713e-05    1.683    0.406
       148  -8.7921     93.7945     78.9543   6.8681603122e+01   4.8879999097e+01    0.2109978    0.1698945 -13.38 0.0004122505    1.333    0.250
       149  -9.4295     39.8340     88.4314   9.1825459568e+01   5.5189362744e+01    0.3216113    0.1758686 -46.79  0.001499402    1.598    0.374
       150  -9.5102     97.5225     88.5609   7.0418968226e+01   4.6198542801e+01    0.3273215     0.263874  62.71   0.00117366    1.525    0.344
       151 -11.5408     45.1270     68.7076   8.3953416911e+01   5.8911335597e+01    0.3114085    0.2329704 -37.42 0.0002540264    1.224    0.183
       152 -10.0339     61.4039     52.1218   7.1334246988e+01   5.9684845151e+01    0.3912204    0.2412219 -24.96  0.001762915    1.707    0.414
       153 -13.1115     52.9121     74.3903   8.2443132439e+01   5.6711787581e+01    0.9432576    0.4614136 -60.29  0.001290228    2.881    0.653
       154 -10.7719     51.0755     83.0974   8.5793071162e+01   5.5073671127e+01    0.5019591    0.3157559  15.09  0.002155323    1.709    0.415
       155  -9.9948     43.2489     81.7378   8.8625846803e+01   5.6335710824e+01    0.4271392    0.2379299  12.63  0.001098477    2.038    0.509
       156 -10.0607     38.1942     81.5998   9.0705637251e+01   5.6928663130e+01    0.3963726    0.2422691   6.03 0.0008429148    1.824    0.452
       157 -11.3071     54.7541     61.4513   7.7431772123e+01   5.9038366917e+01    0.5247471    0.4118702  66.60 0.0009723745    2.143    0.533
       158 -11.7761     56.2930     56.7548   7.5132685050e+01   5.9679045461e+01    0.4184985    0.3501246  62.06 0.0002624231    1.798    0.444
       159  -9.3640      6.9770     89.1459   1.0547975616e+02   5.7614330757e+01    0.2060003     0.168819  39.91 0.0009003645    1.512    0.339
       160 -10.0734    118.0416     83.5526   6.2714490883e+01   4.2919740828e+01    0.5115104    0.2758126  54.90  0.001208711    2.066    0.516
       161 -10.8638    123.5451     87.1104   6.2243537998e+01   4.1019960106e+01    0.3779581    0.3143094   5.55  0.001152104    1.398    0.285
       162 -10.8742    129.2221     85.1345   6.0156085267e+01   4.0136949161e+01    0.6598691    0.3612103  23.47  0.002150378    3.521    0.716
       163  -8.9815    146.2072     70.2607   5.1818222661e+01   3.8885921851e+01    0.2100682    0.1822721  67.00  0.001070055    1.130    0.115
       164 -10.7969    155.2085     85.0336   5.3959532847e+01   3.4224948919e+01       0.5042    0.3344845 -20.49 0.0003131376    2.027    0.507
       165 -10.9820    150.3137     80.4916   5.3784358259e+01   3.6169584325e+01    0.5713469    0.3006416  52.05   0.00175252    1.855    0.461
       166 -10.2721    145.8627     74.9381   5.3217049283e+01   3.8174057457e+01    0.3497355    0.2724836 -52.06 0.0009797123    1.345    0.256
       167  -9.3425    141.5593     75.2478   5.4277042473e+01   3.9119065155e+01    0.2029279    0.1903829 -23.01 0.0004199459    1.139    0.122
       168 -10.6802     64.4749     75.2835   7.8073076166e+01   5.4832746803e+01     1.029067    0.4404496 -51.74  0.003952509    2.592    0.614
       169 -10.6850     94.5206     71.7346   6.6133500602e+01   5.0114114903e+01     0.356411    0.3090898 -52.19 -8.180999e-05    1.325    0.245
       170 -11.0244     86.9742     67.1370   6.7126178084e+01   5.2450460489e+01     1.089337    0.3807571  38.22  0.003759599    2.887    0.654
       171  -9.2612     75.3030     65.9692   7.0874018652e+01   5.4840973705e+01    0.2739822    0.1925841 -38.21 0.0008034866    1.442    0.307
       172 -10.3192     79.5547     62.0713   6.7989602172e+01   5.4771339867e+01     0.970906    0.2462923  42.29  0.002992323    3.774    0.735
       173 -11.5670     81.0093     83.3693   7.4437942124e+01   5.0388492209e+01    0.4531219    0.3234026  -5.62 0.0003441471    1.708    0.414
       174 -11.5473     72.5973     79.5535   7.6316880695e+01   5.2636832372e+01     1.042141    0.7097522 -18.48  0.003789145    1.683    0.406
       175 -10.8829    141.4977     83.6395   5.6675487517e+01   3.7629418477e+01    0.5922071    0.3545567  57.81  0.001592109    1.754    0.430
       176 -10.3834    167.9462     78.3595   4.9604093970e+01   3.2473812332e+01    0.2693605    0.2383593 -80.69 0.0004075819    1.137    0.121
       177 -10.2594    170.0471     73.6229   4.7980537858e+01   3.2787347431e+01    0.3042656    0.2172507 -25.50  0.001033193    1.672    0.402
       178 -10.1386     20.1787     81.8983   9.8455428768e+01   5.8487583104e+01    0.3411068    0.2496369  39.45  0.001444083    1.691    0.409
       179 -10.0920    119.7386     75.9963   5.9965746274e+01   4.3960559487e+01     0.420949    0.2728097 -71.89  0.001505223    2.736    0.634
       180  -8.8615    178.5650     78.2027   4.7622252588e+01   3.0083389573e+01    0.2154801    0.1920706  75.71 0.0005651654    1.105    0.095
       181 -11.1730    175.9066     74.7668   4.7222742970e+01   3.1258425681e+01    0.5636001    0.3129962  50.21  0.002555648    1.854    0.461
       182  -9.3227    110.9940     77.0946   6.2766497928e+01   4.5675707267e+01    0.2844371    0.2026675  38.39  0.001110492    1.366    0.268
       183  -9.2097     37.1814     76.3057   8.9672154733e+01   5.8214394090e+01    0.2365091    0.1526291 -37.98 0.0006948333    1.372    0.271
       184  -9.7157     18.8215     76.5170   9.7763036076e+01   5.9815768140e+01    0.3087653    0.1649582 -40.23  0.001084233    1.583    0.368
       185  -8.3734    215.6363     75.7851   4.1394373286e+01   2.2482311485e+01    0.1776385    0.1057844 -49.66 0.0002391332    1.496    0.332
       186  -9.7689     29.0630     75.0535   9.2866873646e+01   5.9297654618e+01     0.341004    0.2065264 -40.18  0.001628749    1.420    0.296
       187  -9.4041    184.9984     75.2904   4.5805217469e+01   2.9122370922e+01    0.1897666    0.1701304  81.80 0.0003379977    1.088    0.081
       188  -8.3988    132.5032     74.4559   5.6199469155e+01   4.1346739308e+01    0.1470237    0.1408071  63.10 -5.012883e-06    1.038    0.037
       189 -11.1016     44.5429     54.5968   7.9466112969e+01   6.1746594381e+01     1.383719    0.2663257  35.11  0.004185771    4.894    0.796
       190 -11.1208      8.9959     51.2460   9.5638589855e+01   6.5881289372e+01    0.6609877    0.4129711  11.60  0.003500347    1.626    0.385
       191  -9.5014     33.6245     42.0585   7.9945742923e+01   6.5357971534e+01    0.3348612    0.1818941  20.61  0.001729678    1.775    0.437
       192 -11.1649     28.0383     63.5416   9.0031380927e+01   6.1860993112e+01    0.8376802    0.4281667 -61.77   0.00282047    2.378    0.580
       193 -10.1738     32.2856     47.7908   8.2752731962e+01   6.4496791025e+01    0.2922014    0.2564717 -69.36 0.0005689166    1.739    0.425
       194 -10.2759     21.9158     38.2832   8.4464179938e+01   6.7287419891e+01    0.3179367    0.2351574  -1.00  0.001130285    1.160    0.138
       195  -8.3870    150.5411    249.5003   8.9720624263e+01   5.5871338742e-01    0.1326178    0.1111005  15.98 0.0001413132    1.011    0.011
       196 -11.0647     24.0202     46.0338   8.6234034089e+01   6.5686201222e+01    0.6911994    0.4167169 -19.71  0.002790965    1.567    0.362
       197  -8.3412     57.0146    249.0009   1.1043092709e+02   1.3543573513e+01    0.1403021    0.1180499  57.43            0    1.016    0.016
       198  -8.6246    218.9723    245.6992   7.4937635996e+01  -7.9297457049e+00    0.1972994   0.08223815  11.81 0.0007031264    4.141    0.759
       199 -12.4175      2.3767     66.1450   1.0276596461e+02   6.3104596628e+01    0.4368831    0.2575598 -59.31 0.0003697913    1.462    0.316
       200 -11.1671      4.3861     59.4518   1.0019926538e+02   6.4450036570e+01    0.5988846      0.49075  10.42   0.00399685    1.368    0.269
       201 -11.8191     24.2915     55.7724   8.9391739481e+01   6.3789011074e+01    0.6603069    0.4084121  28.20  0.001348148    1.744    0.427
       202 -11.2478     28.8115     52.0112   8.5939853217e+01   6.4083055075e+01    0.4913191    0.1999063  29.51 0.0008427692    2.465    0.594
       203 -10.8662    157.6340     70.6884   4.9566236186e+01   3.6146783196e+01    0.3710642    0.3308432 -83.77  0.002083642    1.136    0.119
       204  -8.6398    122.8232     70.8029   5.7556947946e+01   4.4190182599e+01    0.1917463    0.1695748  87.62 0.0002763081    1.306    0.234
       205  -8.7845     23.8158     71.1838   9.4161088323e+01   6.0609669322e+01    0.1828919    0.1759497 -32.50 0.0008371586    1.234    0.190
       206  -9.5530    102.7089     69.5261   6.2840297183e+01   4.8826050750e+01    0.4165352    0.2810644   4.78  0.001798281    2.146    0.534
       207  -8.7156    106.6355     66.2612   6.0610409557e+01   4.8559376531e+01    0.2417587    0.1869199  48.30 0.0006828769    1.250    0.200
       208  -8.8755     37.0017     70.2510   8.7987036366e+01   5.9540003476e+01    0.2555761     0.181568 -17.92 0.0006393531    1.344    0.256
       209  -9.0106     38.3130     67.3320   8.6514500559e+01   6.0006519473e+01    0.2779321    0.1707506  15.35  0.001002582    1.662    0.398
       210  -9.1118     15.4511     60.3427   9.5067194034e+01   6.3578768604e+01    0.3588975    0.1788488 -23.21  0.001257369    2.052    0.513
       211  -9.7420     14.1237     65.1680   9.7021575538e+01   6.2648147150e+01    0.5383401    0.2537599 -19.78  0.002451073    2.365    0.577
       212 -10.3625    173.5342     68.8206   4.6121179374e+01   3.2765997386e+01    0.2489021     0.223957  82.19 0.0003166679    1.060    0.056
       213 -10.1939    140.8402     68.1984   5.2410485272e+01   4.0480497000e+01    0.2817244     0.234766  60.40 0.0004300269    1.158    0.137
       214 -10.1268    143.7457     65.7452   5.1062378009e+01   4.0200865983e+01    0.2439836    0.2152345 -83.16 0.0006776499    1.207    0.171
       215 -10.7143     88.8366     74.4586   6.8902756151e+01   5.0721596998e+01    0.6705789    0.4519507 -16.44  0.003045346    1.835    0.455
       216  -9.2436     20.5004     67.5360   9.4684389591e+01   6.1670814292e+01    0.2084726    0.1575768 -55.50  0.001228065    1.324    0.245
       217  -9.4318     22.4078     63.4750   9.2648515904e+01   6.2379213522e+01    0.4094947    0.1493406 -32.12  0.001497253    3.102    0.678
       218  -9.1865    120.0774     67.0317   5.7115156045e+01   4.5455255145e+01    0.2268977    0.2104454  37.14 0.0006258186    1.025    0.025
       219 -10.5502    134.6520     64.7699   5.2815640601e+01   4.2482380483e+01    0.3374606    0.3032551 -14.57 0.0008841652    1.237    0.192
       220 -10.2078    194.1207     61.0302   4.0979648184e+01   2.9324432230e+01     0.351097    0.2314214 -42.86 0.0009251429    1.458    0.314
       221  -8.9035    175.2748     62.5040   4.4213633560e+01   3.3351077734e+01    0.2396331    0.1908901  42.40 0.0007107722    1.440    0.306
       222 -10.5348    152.9003     60.8816   4.7800472055e+01   3.8814229453e+01    0.5053796    0.3334042  39.49  0.001938972    1.724    0.420
       223  -9.7395     64.5855     62.1608   7.3663367461e+01   5.7379449963e+01    0.4319808    0.2168169  28.65  0.001865324    2.046    0.511
       224  -8.3781    228.6057     62.4369   3.6986068288e+01   2.1909869583e+01     0.124208     0.102374 -62.23 5.887035e-05    1.019    0.018
       225  -9.3596    167.8771     61.3626   4.5169827842e+01   3.5234606182e+01    0.2489995    0.2350516  67.42  0.001496653    1.094    0.086
       226  -9.6286    136.5423     56.1980   4.9835350810e+01   4.3373155740e+01     0.372372    0.2221909 -26.07  0.001332908    2.017    0.504
       227 -10.4528    131.6607     60.0099   5.2082567701e+01   4.3933540023e+01    0.4866819    0.3429402  30.90  0.002368274    1.646    0.393
       228 -10.4639    126.5412     57.0000   5.2369601695e+01   4.5585429092e+01    0.5048908    0.1926468  58.94  0.001520939    2.818    0.645
       229 -10.2288    161.2115     60.0155   4.5995775523e+01   3.6994327001e+01    0.3517759    0.2353917  43.40  0.001250365    1.642    0.391
       230 -11.4027    160.8150     54.5047   4.4581175642e+01   3.7902231820e+01    0.3467368    0.2620316 -50.66 0.0003197594    1.352    0.260
       231  -9.2813     71.6171     60.6002   7.0395135644e+01   5.6470900610e+01    0.3040172    0.2329937  50.86  0.001200476    1.568    0.362
       232  -8.1546     44.2966     61.2715   8.1890067001e+01   6.0508556772e+01    0.1368362   0.09211721 -13.33 0.0003951014    1.523    0.343
       233  -9.8632    141.7518     59.1951   4.9594617913e+01   4.1696314869e+01    0.3017589    0.1824322  48.62  0.001301828    1.584    0.369
       234  -9.1659    182.0672     57.6242   4.1916999914e+01   3.2527918737e+01    0.3514747    0.1964305 -73.78 0.0009065077    2.577    0.612
       235  -8.6284    111.7156     56.9088   5.6128137994e+01   4.8975245755e+01    0.1828355    0.1747502  25.11 0.0001893573    1.048    0.046
       236  -9.4278     75.6208     55.8847   6.7230175682e+01   5.6569688458e+01    0.2849759    0.2660348  46.77  0.001699247    1.275    0.216
       237  -9.2906    187.3419     55.8590   4.0709078172e+01   3.1592481798e+01    0.2536569    0.1774222 -85.83  0.001348818    1.526    0.344
       238  -8.7754    167.4749     56.4593   4.3952563432e+01   3.6059717673e+01    0.1364536    0.1264783  80.11 0.0002928869    1.041    0.039
       239 -10.0959    164.7629     46.3028   4.1724117685e+01   3.8121283971e+01    0.5001358    0.3111538  30.93  0.002274606    2.477    0.596
       240  -9.8000     93.5017     54.0707   6.0504663334e+01   5.3352150629e+01     0.422896    0.2713982  17.64  0.001921873    1.998    0.499
       241  -9.1437     83.3372     54.5421   6.4014399886e+01   5.5327011450e+01    0.3265786    0.1986577   1.44  0.001336763    2.623    0.619
       242 -10.7645     46.0760     47.6295   7.6211565490e+01   6.2784520170e+01    0.8691782    0.3580206  21.39  0.003306593    3.156    0.683
       243  -9.4734     38.1151     47.1166   7.9701531390e+01   6.3926388447e+01    0.2952814    0.1711691  14.65 0.0009668441    1.749    0.428
       244  -9.5552     55.8748     45.1535   7.0978530980e+01   6.1734607855e+01    0.2548755    0.1926652  26.62  0.001014592    1.214    0.176
       245 -11.4337     68.5576     48.3090   6.7086308993e+01   5.9090769989e+01    0.5681258    0.3868283 -48.06 0.0004076592    1.842    0.457
       246 -12.7242     62.1321     44.2356   6.8046222258e+01   6.0851027878e+01    0.3886938    0.3187747  25.14  0.000569199    1.118    0.106
       247  -9.9414    194.5365     52.8049   3.8991291976e+01   3.0424816240e+01    0.4117686    0.2105526  71.42   0.00185159    2.027    0.507
       248  -9.8133    146.4829     52.8504   4.6791259417e+01   4.1520342871e+01    0.3063329    0.2284217  88.37  0.001580467    1.530    0.347
       249  -9.5229    142.8197     49.2142   4.6465057623e+01   4.2900376445e+01    0.2432937    0.2130031  47.86 0.0003382795    1.136    0.120
       250 -10.3431    145.9991     45.7851   4.4856133982e+01   4.2616988444e+01    0.3006085    0.2450441 -18.41 0.0007250405    1.472    0.321
       251  -9.3207    144.1991     41.3796   4.3922702329e+01   4.3622661627e+01    0.2979678    0.2245466 -83.78  0.001062671    1.493    0.330
       252  -8.6818    106.8699     52.8599   5.6123102521e+01   5.0671147549e+01    0.2206119    0.1733386  30.86 0.0004489651    1.253    0.202
       253 -10.6800    175.4143     48.7674   4.0705768686e+01   3.5309695865e+01    0.4063751    0.3361639 -52.85  0.001628597    1.199    0.166
       254 -10.8789    153.8418     47.9592   4.4028106958e+01   4.0466705223e+01    0.4314094    0.3581687 -13.24    0.0011549    1.498    0.332
       255  -9.7823    126.4900     39.7355   4.6986542336e+01   4.8008447211e+01    0.4358021     0.296152  71.85  0.002229733    1.550    0.355
       256  -9.5161    121.0310     39.0786   4.7989906003e+01   4.9363539444e+01    0.2369921     0.204351  78.12 0.0004811957    1.221    0.181
       257  -8.6714    131.4334     45.5387   4.7720483942e+01   4.6089093653e+01     0.246701     0.197842  36.60  8.26012e-05    1.298    0.230
       258  -9.9767    123.0256     50.4788   5.1168444589e+01   4.7362754408e+01    0.4379758     0.234433  55.64  0.001289245    1.725    0.420
       259 -11.0265    127.5342     48.8894   4.9618454818e+01   4.6540837454e+01    0.3267441    0.3206851 -29.97 0.0008338992    1.115    0.103
       260 -10.9570    125.9207     44.9479   4.8750985530e+01   4.7459114374e+01    0.3521767    0.2696933  70.02  0.000679028    1.330    0.248
       261  -8.6901    196.9108     48.9280   3.7783499298e+01   3.0441204318e+01    0.2142616    0.1361082 -70.99  0.001120091    1.661    0.398
       262  -9.8863    182.3467     48.3597   3.9594951394e+01   3.3777543273e+01    0.2634256     0.205969  52.75 0.0009420037    1.381    0.276
       263  -9.3654    185.5675     47.4910   3.8935684300e+01   3.3165822591e+01    0.2008702    0.1878289 -64.35 6.827431e-05    1.141    0.124
       264  -9.8390    185.2187     43.7840   3.8087881976e+01   3.3741847951e+01    0.2761565    0.2353631  20.33  0.000662836    1.644    0.392
       265  -9.0186    136.0619     49.1936   4.7843119400e+01   4.4498393986e+01    0.3406785    0.1537885  66.02  0.001084636    2.522    0.603
       266  -9.9722    114.9594     46.8253   5.1969424229e+01   4.9730630065e+01     0.378643    0.2767465  -6.34   0.00123124    1.724    0.420
       267  -9.7181     86.7780     48.7189   6.0766124559e+01   5.5556033199e+01     0.328844    0.2355641  29.70  0.001430501    1.325    0.245
       268  -9.6403    201.7571     47.3501   3.6825960597e+01   2.9599273629e+01    0.2268045    0.2102503   5.83  0.000608939    1.493    0.330
       269  -8.4292     97.5989     48.1446   5.7178263007e+01   5.3386735996e+01    0.1846249      0.13087 -13.37 0.0009289192    1.659    0.397
       270  -8.3725     79.3274     47.6668   6.2904436464e+01   5.7190468559e+01    0.1295795    0.1122727  88.07 0.0007051618    1.716    0.417
       271  -9.5349    165.9267     51.3348   4.2863084421e+01   3.7156367532e+01    0.1996305    0.1633746  69.71 0.0008582345    1.136    0.120
       272 -10.4364     80.1210     43.1459   6.0942669233e+01   5.7707614155e+01    0.4806168    0.3110751  58.36   0.00235471    1.920    0.479
       273  -9.0530    244.9862     44.5230   3.1843355452e+01   2.1261146342e+01     0.161491    0.1046762  76.24  0.000700195    1.571    0.364
       274 -10.0891    177.3964     43.9855   3.9214858612e+01   3.5498288396e+01    0.3667871    0.2051141  81.03  0.001723786    1.992    0.498
       275  -9.5845    107.4869     43.9542   5.2944998734e+01   5.1812719058e+01    0.3225439    0.2060836  48.84 0.0007827904    1.394    0.283
       276  -8.8597    108.1700     40.3702   5.1544371046e+01   5.2137988313e+01    0.2135475    0.1915639 -70.85  0.000506343    1.340    0.254
       277 -10.6581    227.1737     33.1107   3.1178061469e+01   2.6154985009e+01    0.2680524    0.2222428 -50.68 0.0002544948    1.246    0.197
       278 -10.7052    234.5192     30.1451   2.9976462644e+01   2.5076694874e+01    0.3429155    0.2007741  55.96 0.0008143262    2.107    0.525
       279 -10.6350    227.2606     41.5350   3.2857907876e+01   2.5065171043e+01    0.4930952    0.3087055 -25.47  0.002731434    2.195    0.544
       280 -10.3827    222.6776     40.4686   3.3080702435e+01   2.6124310881e+01    0.2832847    0.2671408  34.46 0.0007735282    1.523    0.343
       281  -9.0995    200.3692     42.8756   3.5981065703e+01   3.0498829709e+01    0.3022521    0.1497693  65.01  0.001057368    1.926    0.481
       282  -9.9761    203.6022     39.4582   3.4847549186e+01   3.0243589956e+01    0.2357498    0.1634249 -63.91 0.0003359219    1.317    0.241
       283 -10.7862     95.0916     35.8130   5.3510867863e+01   5.5605101336e+01    0.5499038     0.324811  28.40  0.001846261    1.919    0.479
       284  -8.8729     86.8241     43.2384   5.8750819402e+01   5.6349260269e+01    0.1943114    0.1782843  46.64 0.0005406073    1.181    0.154
       285 -10.9212     87.0498     34.0131   5.5239912854e+01   5.7537246931e+01    0.4651811    0.3197117  25.63  0.002253472    1.474    0.321
       286 -10.5956     73.3785     38.5869   6.1561113597e+01   5.9659089016e+01    0.6124053     0.330211 -11.99  0.002241866    2.793    0.642
       287 -10.9917     79.6846     31.6876   5.6693409664e+01   5.9337025929e+01    0.7867877    0.3273835  41.94  0.002390967    2.113    0.527
       288  -8.4691      1.3706    244.2101   1.2151279076e+02   2.0486124462e+01     0.158181   0.08561583  81.05 0.0004652136    1.616    0.381
       289  -8.0276     45.5736     43.2568   7.4754156257e+01   6.3594534058e+01    0.1220331   0.09912499  50.66 0.0003675732    1.774    0.436
       290  -8.8991     49.0765     40.6776   7.2157242267e+01   6.3501642901e+01    0.2991835    0.1731271  12.69   0.00130422    1.975    0.494
       291 -12.1120     40.1506     39.5473   7.5802411468e+01   6.4951841787e+01    0.2255221     0.182519  -6.77 0.0002838769    1.038    0.037
       292  -9.8634    158.5397     39.0528   4.0786662128e+01   4.0528404478e+01    0.3368085      0.17584  68.35  0.001569998    1.819    0.450
       293  -8.9732    164.4982     36.4854   3.9176950053e+01   3.9449768844e+01    0.2997956    0.1469096  58.37  0.001408647    1.841    0.457
       294  -9.4773    103.5710     37.8968   5.1902051292e+01   5.3484626353e+01    0.3021462    0.1317225 -32.91  0.001284133    2.515    0.602
       295 -10.1806    178.6774     36.9851   3.7302351413e+01   3.6104504608e+01    0.3785771    0.2550157  48.87  0.001422957    1.661    0.398
       296  -8.4037    148.5317     38.4991   4.2314382015e+01   4.2961900128e+01    0.1348047    0.1205226  68.94 0.0001977016    1.026    0.026
       297  -9.1290    136.5168     37.9669   4.4380600999e+01   4.5871830933e+01    0.1785872    0.1705945  67.63 0.0003527619    1.074    0.069
       298  -9.5698    139.4995     36.4892   4.3370114167e+01   4.5348628188e+01     0.261673    0.2041572  39.35 0.0006796718    1.367    0.268
       299 -10.9697    115.5909     34.3488   4.7694357046e+01   5.1203720593e+01    0.6523935    0.4434379  44.06  0.003498499    1.352    0.260
       300  -9.8028    244.7672    242.1485   6.9600449843e+01  -1.0348733320e+01    0.1894931    0.1338848  -5.91 0.0006989759    1.083    0.076
       301  -8.7338    146.3036    242.3129   8.9614977221e+01   2.4697146221e+00    0.1355858   0.09592681  -4.88 0.0005070525    1.615    0.381
       302  -9.2532    110.8262     23.7964   4.5241063782e+01   5.3482386187e+01    0.2152653    0.1786121  51.60 0.0005794395    1.030    0.030
       303  -7.9212     53.4027     38.4080   6.9353611658e+01   6.3184704763e+01    0.1291797    0.1092407   8.57 6.958166e-05    1.046    0.044
       304  -9.6029    239.8257     37.5535   3.0957011637e+01   2.3133881535e+01    0.2525569    0.1487293  59.90  0.001520908    1.954    0.488
       305  -8.5424    242.4067     34.5011   3.0167916839e+01   2.3031529241e+01    0.1390896   0.09996025  69.83 0.0009366445    1.508    0.337
       306  -9.2994    186.0415     35.6489   3.6033260814e+01   3.4598463619e+01    0.3047959    0.1519561 -44.18  0.001511435    1.930    0.482
       307  -9.6476    131.4150     35.7551   4.4719836590e+01   4.7346505666e+01     0.356427    0.2538035  86.12 0.0004800326    1.629    0.386
       308  -9.9393    133.4368     30.2308   4.2637355138e+01   4.7518758477e+01    0.4179738    0.2923987   6.57  0.002168296    2.041    0.510
       309  -9.5452     92.5414     42.3438   5.6634506714e+01   5.5285856687e+01    0.3988326    0.2711236  52.16  0.002084128    1.415    0.293
       310  -8.8848    145.8573     34.1157   4.1531892404e+01   4.4130312629e+01    0.2389364    0.1693661  76.13 0.0008069234    1.360    0.265
       311 -10.3535    153.0182     31.9794   3.9738208716e+01   4.2690088922e+01    0.2557456    0.2002032 -86.10  0.001490333    1.279    0.218
       312  -9.4505    187.0295    235.4834   7.9658783834e+01  -2.1648115115e+00    0.1986663     0.101467   9.57 0.0002006007    2.712    0.631
       313  -9.9276     61.7257     32.5780   6.3533142665e+01   6.2622811647e+01    0.4396512    0.2944636  -3.63  0.002388049    1.642    0.391
       314  -9.5376     66.2407     28.3287   6.0042256263e+01   6.2359045462e+01    0.4021492    0.2107959  25.05  0.001858932    2.161    0.537
       315  -8.3774    228.3553    234.2982   7.1254667503e+01  -7.3378346969e+00     0.131061   0.07770056  -5.92 0.0007035564    1.699    0.412
       316  -8.9573    221.7013    233.5554   7.2380899421e+01  -6.4148634889e+00    0.2280703    0.1082156  24.42  0.001122852    2.064    0.516
       317  -9.3284    186.6800    230.6677   7.8925775642e+01  -1.2858939584e+00     0.141204   0.09094895  -6.84 0.0007048965    1.696    0.410
       318 -10.1283     49.1337     33.5930   6.9226501085e+01   6.4571686640e+01    0.4714599    0.2021889  25.23  0.001941383    2.748    0.636
       319  -8.8476     32.0263    232.3443   1.1452962525e+02   1.9981145032e+01    0.1733082     0.138695  53.17 0.0004622254    1.103    0.093
       320  -9.0088    162.5896    225.6145   8.3332309382e+01   3.1773799328e+00    0.3352911    0.2322752  72.11  0.001424978    3.132    0.681
       321  -9.7775     34.3482     31.5775   7.5333351437e+01   6.6977754179e+01    0.2501041    0.1500705  31.88  0.001403345    1.627    0.385
       322 -10.3942     37.2560     26.5947   7.1730688074e+01   6.7326620622e+01    0.3735307    0.2328742 -12.83  0.001516517    1.611    0.379
       323 -11.2862     48.4346     26.8298   6.6633289130e+01   6.5628274257e+01     0.339051    0.2339209  37.31 0.0003773973    1.407    0.289
       324  -9.0199    223.9776    225.0191   7.0471883396e+01  -5.3552539161e+00    0.1937175    0.1521872  -8.00 0.0005256097    1.012    0.012
       325 -10.0276    248.0805     30.6038   2.9008784801e+01   2.2459155309e+01     0.250669    0.1384692 -44.32  0.001323416    1.551    0.355
       326  -9.2000    160.4925     31.5449   3.8467949044e+01   4.0982406567e+01     0.257591    0.1624778  59.73  0.001186368    1.434    0.303
       327  -9.4537     42.3732     31.0306   7.1217787103e+01   6.5960351977e+01    0.4010611    0.2675181 -43.58  0.002281607    1.852    0.460
       328  -9.3193    125.0267     30.2978   4.4317108360e+01   4.9486703475e+01    0.1899644    0.1589287  60.81 0.0006707978    1.052    0.049
       329  -8.9213    190.1888     28.8677   3.3952405858e+01   3.4489659689e+01    0.1996576    0.1453569 -74.75  0.001207733    1.260    0.207
       330  -9.5752    222.7482     27.3036   3.0403937366e+01   2.7750438359e+01    0.2106151    0.1977381  17.82  0.001525351    1.624    0.384
       331  -9.2556    211.7457     26.7751   3.1281553191e+01   3.0077070329e+01    0.1811606    0.1661155  82.44 0.0006565071    1.271    0.213
       332  -9.5018    161.3887     26.5108   3.7004242374e+01   4.1348615431e+01    0.2633539    0.1861221  73.68 0.0008964447    1.248    0.199
       333  -9.5678    204.1558     25.0338   3.1633220922e+01   3.1888004338e+01    0.3335601    0.1875534  46.43  0.001722303    2.487    0.598
       334  -9.5818    101.0128     26.0950   4.8397485912e+01   5.5450986206e+01    0.2614719    0.1614906  50.13 0.0005262142    1.370    0.270
       335  -8.4832     80.4808     22.4671   5.2801571615e+01   6.0249970146e+01    0.1983371    0.1622661   8.80 0.0006251042    1.232    0.189
       336  -8.7041     80.3540     19.2754   5.1567480453e+01   6.0613723743e+01    0.1693913    0.1202843   9.25 0.0002619243    1.541    0.351
       337  -9.0042     82.9893     25.9463   5.3396821333e+01   5.9346296861e+01    0.1937478    0.1584562  33.97   0.00118596    1.034    0.033
       338  -8.7683    132.3476    225.2400   9.0263549755e+01   7.9066558775e+00    0.1767073    0.1353509 -64.87 0.0004450037    1.603    0.376
       339 -10.6368      2.0590     25.1099   9.0609484486e+01   7.1189992733e+01    0.2263561     0.145302 -34.66 0.0004105139    1.248    0.199
       340 -10.1527    131.5390     22.2520   4.0559507203e+01   4.8829276946e+01    0.3583104    0.2677464  -2.98  0.002051763    1.752    0.429
       341  -9.5878    232.7822     23.5446   2.8849124424e+01   2.6204544374e+01    0.3585936    0.1642348 -86.81  0.001380316    2.438    0.590
       342 -10.1474    174.1824     22.9676   3.4420672718e+01   3.8778322704e+01    0.4018801    0.2550794  76.27  0.001550949    1.398    0.285
       343  -8.1234    169.3604     23.2502   3.5092815580e+01   3.9856286746e+01    0.1261214     0.085344  49.32  0.000592204    1.610    0.379
       344  -8.4308    125.5120    225.5064   9.1925878082e+01   8.9050313474e+00    0.1407983    0.1269349  29.49 0.0008103132    1.033    0.032
       345  -9.5711     89.3167    220.7069   1.0001509846e+02   1.5372357909e+01    0.2572314    0.2346109  -8.01 0.0008730085    1.249    0.199
       346  -8.4499    243.5499    219.5111   6.5938907019e+01  -6.8808725268e+00    0.1239176   0.09454132 -15.06  1.26972e-06    1.021    0.021
       347  -8.6512    117.6974    211.9731   9.1759953802e+01   1.3047321498e+01    0.1932656     0.189336 -49.01 0.0005458837    1.100    0.091
       348  -8.4522      2.6662    212.3275   1.1962017633e+02   2.7309388899e+01    0.1343894   0.07039644  62.00 0.0007051707    1.718    0.418
       349  -8.9795    242.6306    209.9870   6.4404397993e+01  -5.2831667689e+00    0.1813153    0.1688191 -28.04   0.00064401    1.475    0.322
       350  -8.7054    230.9242    209.7004   6.6442606916e+01  -3.7605061467e+00    0.1762788    0.1413538  -4.97 0.0006481888    1.083    0.076
       351  -8.4955    194.5183    209.4573   7.3530319844e+01   1.3771470253e+00    0.1406143    0.1162389  -6.70 0.0002928872    1.051    0.048
       352  -9.7518    123.9909    205.9970   8.9232276730e+01   1.3379186410e+01    0.2070014    0.1934526  16.13  0.001159114    1.017    0.017
       353 -10.3937     72.3805     14.9636   5.2304842871e+01   6.2667987575e+01    0.3177679    0.2136434  64.39  0.001179801    1.805    0.446
       354  -8.3356    221.6328    198.6971   6.6128717682e+01  -6.3823639952e-01     0.140618    0.0899573  -7.41 0.0007034574    1.741    0.426
       355 -10.8810     62.2833     22.5327   5.9077609697e+01   6.3791063520e+01    0.2758997    0.1937369  19.36 0.0007981242    1.314    0.239
       356  -8.6124     96.0643    195.6810   9.4753897154e+01   2.0245611860e+01    0.2059993    0.1860413  28.68 0.0005168332    1.096    0.088
       357  -9.1007    122.7309     22.7746   4.2386692884e+01   5.0838135235e+01    0.3138561    0.1735101 -64.00   0.00134851    2.910    0.656
       358  -9.2286    116.9255     22.4329   4.3457890694e+01   5.2221345140e+01      0.17707    0.1592208  48.68 0.0003041939    1.071    0.066
       359  -9.3853     26.1843     22.6495   7.5628713408e+01   6.9328777615e+01    0.2055301    0.1434245 -28.03 0.0006126787    1.357    0.263
       360  -9.3197      7.3041    195.0206   1.1747044319e+02   3.0996907631e+01    0.3603484    0.2079782  45.55  0.001854679    1.651    0.394
       361  -8.4201    188.3251     21.3228   3.2416346785e+01   3.5764991845e+01    0.1181557   0.08896753  44.91 0.0002824569    1.685    0.407
       362  -8.6172    241.9912    193.7492   6.1541884666e+01  -2.5632116770e+00    0.1449262    0.1036568  24.61 0.0004730485    1.520    0.342
       363  -9.3624     96.5364     20.4146   4.7482073745e+01   5.7039162543e+01    0.2712138    0.1749011  75.96  0.001126758    1.990    0.497
       364  -9.9077      6.2621    174.9702   1.1622678223e+02   3.6011378152e+01    0.2889861    0.1515302  59.63   0.00108297    1.968    0.492
       365  -9.9886     17.9669    174.6601   1.1313154868e+02   3.5163556614e+01    0.2604614    0.1966777 -25.81  0.001461547    1.684    0.406
       366 -10.2280     15.0489    165.0596   1.1299791574e+02   3.7855957650e+01    0.2417001    0.1849734  34.51 0.0003041211    1.432    0.302
       367 -10.2055     11.5665    167.3070   1.1416468880e+02   3.7550702165e+01    0.3926114    0.1619462 -70.96  0.001724874    2.016    0.504
       368 -10.1814      7.5059    166.3138   1.1517166468e+02   3.8103408975e+01    0.3000466    0.1945478  18.40  0.001280543    1.840    0.457
       369  -9.6513    193.3328     20.0540   3.1608875311e+01   3.4798065944e+01    0.1983708    0.1641327  59.25 0.0002656269    1.371    0.271
       370  -9.3338    195.2512     15.6452   3.0440234369e+01   3.4855320335e+01     0.213765     0.152136 -89.84 0.0005381881    1.194    0.163
       371 -12.2934     40.5331    161.5315   1.0529354415e+02   3.6432203735e+01    0.8831093    0.4133523  52.47  0.001159822    2.566    0.610
       372 -11.9859     30.6852    154.6109   1.0730699090e+02   3.9233066012e+01     0.652743    0.4588222  59.44  0.002735005    1.548    0.354
       373 -10.2038     24.5177    162.8739   1.1010867414e+02   3.7631133979e+01    0.2091944    0.1946839  42.60 0.0004411739    1.187    0.158
       374  -9.7643      8.1309    161.8734   1.1460227472e+02   3.9188869823e+01    0.1976842    0.1547491  78.77 0.0003026464    1.202    0.168
       375 -11.0274      1.8545    158.3033   1.1600985483e+02   4.0518028169e+01    0.5866584    0.1687011 -71.15 0.0007752337    2.671    0.626
       376  -9.9836      9.8542    157.7120   1.1372751284e+02   4.0131710177e+01    0.2554238    0.1911059  61.27   0.00147366    1.376    0.273
       377  -9.2364    138.5343     19.1861   3.8441210473e+01   4.7494284266e+01     0.369416    0.1723792  48.45  0.001720577    2.067    0.516
       378  -8.5496     48.5235    157.4785   1.0233065746e+02   3.6621797272e+01    0.1451455    0.1341101 -74.73 0.0005040366    1.010    0.010
       379  -9.4569    248.9964    153.9641   5.2811029852e+01   3.2235470612e+00    0.2037189    0.1615442 -31.72 0.0005407488    1.033    0.032
       380 -11.5640     19.7892    151.1521   1.1013905459e+02   4.1081007365e+01    0.6540693    0.3151781 -66.11  0.002986213    1.738    0.425
       381  -8.4006    113.0563     20.0000   4.3467073728e+01   5.3358219562e+01    0.2182576   0.06461134  60.87 0.0007932844    2.879    0.653
       382 -10.8919     10.1944    146.9559   1.1252486459e+02   4.2877807356e+01    0.5779815     0.258924 -32.60  0.002196324    3.022    0.669
       383 -10.0846     15.9781    142.9684   1.1031902165e+02   4.3503169326e+01    0.2055559    0.1987984   0.95 0.0003455796    1.203    0.169
       384 -10.5482     11.0092    151.4832   1.1276613707e+02   4.1653256756e+01    0.2737256    0.2526351 -43.36 0.0009242945    1.196    0.164
       385  -9.9604     14.8988    150.5175   1.1151935568e+02   4.1622394016e+01    0.2551553    0.2274224  56.33 0.0006895363    1.211    0.174
       386  -8.2686     63.0373    148.9862   9.6458170203e+01   3.7077630189e+01    0.1746339    0.1666577 -60.45            0    1.010    0.010
       387  -9.4980     35.6864    149.0436   1.0502634257e+02   4.0221098467e+01    0.2075666    0.1632753 -65.62 0.0002690381    1.137    0.121
       388  -9.8910      3.6113    145.5715   1.1432892700e+02   4.3655115131e+01     0.284886    0.1820955 -51.39  0.001090689    1.464    0.317
       389  -8.5273     55.4572    145.5202   9.8243487684e+01   3.8965581664e+01    0.1491889    0.1371729 -54.23 0.0001475249    1.029    0.028
       390  -9.5994    240.1710    143.0477   5.2005083131e+01   6.4674283838e+00    0.3647139    0.1612838 -55.87  0.001344149    3.505    0.715
       391  -9.3012     38.2757    143.1479   1.0333849022e+02   4.1520216902e+01    0.2162319    0.1908358 -12.70 0.0002615744    1.265    0.210
       392  -8.3989    111.5760     15.1578   4.2147343756e+01   5.4160648222e+01      0.15449    0.1182766  12.81 0.0004565414    1.555    0.357
       393  -9.6037     20.9562    140.6991   1.0848433925e+02   4.3716677103e+01    0.2793466    0.1897874 -83.17  0.001447664    1.423    0.297
       394  -9.7776      1.8589    139.7221   1.1426108059e+02   4.5252559921e+01    0.2862611     0.177859  82.84  0.001496992    1.635    0.388
       395 -10.4377     41.5921    138.8815   1.0158943645e+02   4.2305029124e+01    0.3279539    0.2563947  71.33   0.00148973    1.457    0.314
       396  -9.6201    235.7786    136.5829   5.1376211380e+01   8.3215605656e+00    0.2107209    0.1304389  41.51 0.0007494689    1.939    0.484
       397  -8.3901     82.7234    135.7003   8.7548238473e+01   3.7674966405e+01    0.1572251    0.1166625 -25.31 0.0001516688    1.537    0.349
       398  -8.4326     58.4919    135.4858   9.5417695736e+01   4.1230382273e+01    0.2435915    0.1671896 -35.04 0.0008461255    1.550    0.355
       399 -10.1844     60.7387    131.4818   9.3878222555e+01   4.1985336687e+01    0.4118152    0.3554787 -85.30  0.002157265    1.273    0.214
       400  -9.7090     15.9076    135.1257   1.0936085122e+02   4.5544720836e+01    0.2240823    0.1352859 -41.62  0.001116482    1.659    0.397
       401  -8.7631    248.9926    134.0054   4.8906157234e+01   6.6467433757e+00    0.1984402    0.1392882 -19.08 0.0006299689    1.660    0.398
       402 -11.4119      7.4103    131.7771   1.1166051312e+02   4.6964665322e+01    0.8340675    0.4853339 -28.54  0.004176008    1.998    0.499
       403  -9.0137     46.7669    133.0371   9.8869073088e+01   4.3281906618e+01    0.3062575    0.1540884  51.16  0.001179881    2.606    0.616
       404  -9.1819     30.9586    132.9586   1.0413754232e+02   4.4899189728e+01     0.301199    0.1368159  62.45 0.0009643566    4.178    0.761
       405  -8.0699     23.3567    133.3064   1.0669828349e+02   4.5455152722e+01    0.1496183   0.08988085 -38.56 0.0007041113    1.723    0.420
       406  -8.9815     41.8864    130.3773   1.0003780520e+02   4.4508782043e+01    0.1991451    0.1368261  -0.17 0.0009463669    1.768    0.434
       407  -9.9791     18.5991    126.4917   1.0729301382e+02   4.7586267880e+01    0.3497785    0.1756072 -53.23 0.0001072385    1.677    0.404
       408  -8.3202    114.9825    127.0059   7.5546457855e+01   3.4055913498e+01     0.185508    0.1784506 -28.71            0    1.017    0.016
       409 -10.2881     50.5834    126.5427   9.6347029655e+01   4.4539448361e+01    0.2646174    0.2508111  16.83 0.0002246186    1.134    0.118
       410  -9.2177    233.3436     10.2865   2.6312125479e+01   2.7588571672e+01   0.09798408   0.08004835  58.49 0.0007020056    1.645    0.392
       411 -10.2595     30.3784    121.3520   1.0242259606e+02   4.7967555135e+01    0.3978933    0.1901394  40.12  0.001356795    2.391    0.582
       412  -9.5723     38.2109    118.9002   9.9203923039e+01   4.7861896679e+01     0.314518    0.1458264 -40.91  0.001262659    2.177    0.541
       413 -10.5612     38.3750    123.6466   1.0003229967e+02   4.6621384971e+01    0.4162172     0.297691 -17.71  0.001764168    1.597    0.374
       414  -9.2056    241.3072    123.9381   4.7991056052e+01   9.6190902534e+00    0.2217901    0.1371862 -51.18  0.001182367    1.487    0.327
       415 -10.5173     61.6648    121.5416   9.1465989086e+01   4.4427953211e+01    0.4080968    0.2428666 -44.25 0.0002732507    1.599    0.375
       416  -9.0856     84.7117    121.6898   8.3672186075e+01   4.0899170689e+01    0.4669782    0.1661524 -41.83  0.001421353    3.164    0.684
       417 -10.2187      8.0986    121.6407   1.1015735816e+02   4.9515250029e+01    0.3020209    0.2245001 -53.74  0.001307282    1.156    0.135
       418  -9.9164      3.3386    109.0389   1.1008377053e+02   5.2943167433e+01    0.3128336    0.2496644 -78.15  0.001370344    1.200    0.167
       419 -10.8866     15.0070    107.6537   1.0562327619e+02   5.2626289591e+01    0.5298499    0.3850891 -85.05  0.001572522    1.489    0.328
       420 -10.7273     10.1722    114.8209   1.0849093945e+02   5.1123620129e+01    0.8112324    0.3787453  72.62  0.002897713    3.953    0.747
       421  -9.6514     13.9749    113.5252   1.0694662614e+02   5.1216627994e+01    0.2538058     0.219211 -60.94 0.0004244634    1.041    0.040
       422 -11.6361     21.8468    119.2475   1.0506633620e+02   4.9208955476e+01    0.4953548    0.4321101  75.05  0.002662268    1.290    0.225
       423 -11.1235     21.1997    108.6117   1.0349524700e+02   5.1956033942e+01    0.7696559    0.3437099 -64.53  0.003352327    1.933    0.483
       424  -9.8905    221.5399    119.3373   4.9997011813e+01   1.3902353689e+01    0.2818213    0.2505304  26.48 0.0007788308    1.345    0.257
       425  -8.6090    103.9726    119.0150   7.6839010252e+01   3.8098529772e+01    0.1924212    0.1795488  25.14 0.0003218424    1.076    0.071
       426  -9.0505     93.8952    118.9634   8.0003678332e+01   3.9976731768e+01    0.2504837    0.2043952 -17.05 0.0006264448    1.342    0.255
       427  -9.4310     55.6422    118.2234   9.2853717200e+01   4.6061790377e+01    0.4267726    0.2216088  49.16  0.001161856    2.533    0.605
