#   1 NUMBER                 Running object number                                     
#   2 MAG_AUTO               Kron-like elliptical aperture magnitude                    [mag]
#   3 X_IMAGE                Object position along x                                    [pixel]
#   4 Y_IMAGE                Object position along y                                    [pixel]
#   5 X_WORLD                Barycenter position along world x axis                     [deg]
#   6 Y_WORLD                Barycenter position along world y axis                     [deg]
#   7 A_WORLD                Profile RMS along major axis (world units)                 [deg]
#   8 B_WORLD                Profile RMS along minor axis (world units)                 [deg]
#   9 THETA_WORLD            Position angle (CCW/world-x)                               [deg]
#  10 FWHM_WORLD             FWHM assuming a gaussian core                              [deg]
#  11 ELONGATION             A_IMAGE/B_IMAGE                                           
#  12 ELLIPTICITY            1 - B_IMAGE/A_IMAGE                                       
         1 -12.2110     84.1692    113.6804   7.1884278089e+01   4.2589295100e+01    0.9952207    0.3898125 -44.93  0.003359541    2.704    0.630
         2 -13.4031     33.8085      5.7221   5.2623252170e+01   7.1835180245e+01     1.187507     0.554501  49.51  0.005936583    2.230    0.552
         3 -13.4959      4.5606     28.4472   8.1883638399e+01   7.1933408356e+01    0.9311435    0.8421053  73.71  0.005727627    1.603    0.376
         4 -12.9333      3.0923     10.5954   7.4851674699e+01   7.5194874674e+01     1.324214    0.5033879 -44.20  0.006681791    2.352    0.575
         5 -13.9785     14.4613     14.2483   6.8791313247e+01   7.3440892411e+01     1.209055    0.9890182 -28.08  0.008261423    1.222    0.182
         6 -11.7203     52.6339      2.0554   4.2340960173e+01   6.8756104941e+01    0.3843711    0.1338825  48.94  0.001721427    2.301    0.565
         7 -10.3006    221.3399    243.3195   6.4524908765e+01  -5.5568806612e+00    0.1191781   0.06962932  -5.19 0.0007049772    1.714    0.416
         8 -11.1213    189.1216    250.1025   7.1315577888e+01  -2.8087144281e+00    0.3314953    0.1309017  22.56  0.001524911    2.645    0.622
         9 -14.4466      7.4821    191.1548   1.0624356134e+02   3.2249254861e+01     2.955653     1.065548 -83.63   0.01235623    2.640    0.621
        10 -14.7482      7.8353    226.1506   1.0801811655e+02   2.4251066617e+01     1.444424     0.797364  69.40  0.007973007    1.580    0.367
        11 -13.5463    122.1225    230.8493   8.2437211858e+01   9.2501915422e+00     1.603569    0.9363461  35.87   0.00840007    1.487    0.327
        12 -10.2191     62.5519    235.5187   9.6440486304e+01   1.6314460066e+01    0.2285582    0.1962552  54.49 0.0008496699    1.037    0.036
        13 -12.4573    144.0608    227.9268   7.7221128208e+01   6.6805350521e+00    0.5235583    0.3361824  18.76  0.002807237    1.553    0.356
        14 -11.4092     93.0658    225.0742   8.8356115346e+01   1.4471962182e+01    0.6275752    0.4412802 -13.89  0.003217372    2.067    0.516
        15  -9.9965     86.8644    224.6570   8.9757820159e+01   1.5409839075e+01    0.2223626    0.1994908 -80.49 0.0008954302    1.224    0.183
        16 -11.1550    160.8788    225.9420   7.3362986446e+01   4.6609881627e+00    0.3004359    0.2524006   1.85  0.001681821    1.089    0.082
        17 -11.9896     42.4036    220.5546   9.9837458377e+01   2.1909771433e+01    0.3778557    0.3543464  64.48  0.001531489    1.149    0.130
        18 -11.2989     41.5243    213.3020   9.9463502083e+01   2.3634818725e+01     0.381151    0.2657492  70.81   0.00151606    1.356    0.262
        19 -11.3872    149.2102    217.5053   7.4563525213e+01   7.8469353357e+00    0.3518358    0.2184091 -38.70  0.001837607    1.713    0.416
        20 -11.9038     97.5834    216.1739   8.6209603309e+01   1.5698772840e+01    0.5208804     0.322497  81.28   0.00235239    2.478    0.597
        21 -10.8649     63.1624    223.6490   9.5225277743e+01   1.8738132180e+01    0.4718902    0.2551385 -64.07  0.002374669    1.980    0.495
        22 -10.5368    105.1523    212.9837   8.3986724811e+01   1.5278326078e+01    0.3154732    0.2182177 -42.90  0.001654436    1.641    0.391
        23 -11.9401    112.3516    222.2523   8.3527678947e+01   1.2320314448e+01    0.7110335    0.5622398  79.82  0.004054211    1.593    0.372
        24 -11.2276     60.1199    240.0364   9.7366679960e+01   1.5692358631e+01    0.3127762     0.171795  28.28  0.001537881    1.718    0.418
        25 -10.4613     78.3698    214.9711   9.0690777576e+01   1.8641138842e+01    0.4048338    0.2255196 -52.48  0.001959848    2.000    0.500
        26 -10.2961     54.2170    205.1114   9.5601426154e+01   2.4015358380e+01    0.2998206    0.1753743 -82.74  0.001254491    1.848    0.459
        27 -10.7436     43.5672    199.5810   9.7758923283e+01   2.6590855450e+01    0.3989985      0.22585  39.25  0.001998169    1.583    0.368
        28 -11.0498    122.9788    197.4994   7.7438697938e+01   1.5864944221e+01     0.387223      0.13164  34.13  0.001373307    2.768    0.639
        29  -9.8242     89.6853    194.9779   8.5351759777e+01   2.1558598251e+01    0.2034443    0.1799986 -71.37  0.001154572    1.185    0.156
        30 -11.2867     41.7075    183.8853   9.6711614695e+01   3.0626141397e+01    0.6911769    0.3849461  81.77  0.003113889    2.034    0.508
        31 -12.2937     19.6642    186.2981   1.0279782643e+02   3.2332691127e+01    0.3985561    0.3018255  66.59  0.001468105    1.167    0.143
        32 -10.2805     25.1593    179.8306   1.0080854547e+02   3.3403379262e+01    0.2187201    0.1632026  64.89 0.0009622739    1.223    0.182
        33 -11.9359     20.3148    172.7248   1.0152018964e+02   3.5655428842e+01     0.620851    0.3835541  57.35  0.002208339    1.538    0.350
        34 -10.8677     41.4593    175.3362   9.5870284788e+01   3.2802722634e+01    0.4617684    0.3421538 -29.09  0.002385165    1.772    0.436
        35 -15.6261     24.6126    238.4935   1.0502718704e+02   2.0009126020e+01     2.475158     1.809009  56.94     0.016361    1.092    0.084
        36 -10.6523     37.6370    167.0047   9.6030533725e+01   3.5362319257e+01    0.3686334    0.2822251  31.42  0.001609157    1.357    0.263
        37  -9.7810     13.8953    161.4879   1.0236775336e+02   3.9088190442e+01    0.1904867     0.130273  27.14   0.00102727    1.575    0.365
        38 -11.9214     21.6741    139.8790   9.7783314983e+01   4.4047564971e+01    0.8703291    0.4965018 -53.41  0.003895657    1.695    0.410
        39 -11.4373     20.9144    130.2407   9.6843114714e+01   4.6652201620e+01    0.5636318    0.3737903 -67.28  0.001832991    1.341    0.254
        40 -11.4835     35.1862    144.3724   9.3987236633e+01   4.1545076557e+01    0.6503509    0.3958642   7.34  0.002932271    2.180    0.541
        41 -12.5037      4.4954    128.9906   1.0226343615e+02   4.8212867300e+01     1.062121    0.4378748 -75.16  0.004559455    2.089    0.521
        42 -12.4329     11.0665    128.3483   9.9972242837e+01   4.7930630013e+01    0.7135831    0.5170007 -86.48  0.002409362    1.272    0.214
        43 -11.2083     32.0649    139.4299   9.4331432120e+01   4.3176131146e+01    0.5221174     0.329122 -48.23  0.001853507    1.629    0.386
        44 -11.4088     41.5976    132.3105   9.0095518915e+01   4.4026149971e+01    0.4971432     0.289586 -52.11  0.002264566    1.653    0.395
        45 -11.2267     36.0283    132.7448   9.2050506066e+01   4.4529732700e+01    0.4138666    0.2839204 -89.55  0.001441961    1.534    0.348
        46 -11.4790     32.4331    123.8105   9.1910215358e+01   4.7263567413e+01    0.6598748    0.4184608 -66.39  0.002993894    1.435    0.303
        47 -10.4329     51.0618    113.4873   8.3309004970e+01   4.7784875959e+01    0.2218785    0.1467426  27.70  0.001036559    1.602    0.376
        48 -11.4926     57.4912    117.8640   8.1920765665e+01   4.5784443143e+01    0.4231339     0.278331 -63.86  0.001961635    1.481    0.325
        49 -10.9542     45.0356     94.1355   8.1277444994e+01   5.3441700371e+01    0.4715139     0.339656  46.53  0.001991826    1.532    0.347
        50 -10.2757     13.0244     89.1308   9.3559578136e+01   5.7862634453e+01     0.286126    0.1980351  15.23  0.001213949    1.598    0.374
        51 -11.2765     28.4946     82.6568   8.5461618889e+01   5.8123820053e+01    0.5368169    0.3592731  11.02  0.002218156    1.663    0.399
        52 -10.4065     47.0045     80.9912   7.7064723059e+01   5.6330083706e+01    0.3409368    0.2675304 -19.44  0.001447026    1.380    0.275
        53 -10.2136      2.2490     80.9948   9.6853644564e+01   6.0530828701e+01    0.1779598   0.09786861 -69.07 0.0008902687    1.597    0.374
        54 -11.4637    162.9978    246.5025   7.5884585361e+01   9.7856730270e-01    0.3923284    0.2429399  -5.01  0.002129091    1.981    0.495
        55  -9.9221      1.5282     69.0037   9.4993714225e+01   6.3435090364e+01    0.1989006    0.1112115 -66.61  0.001029426    1.584    0.369
        56 -11.4562    249.5784     58.2728   2.6342167397e+01   1.8577252036e+01    0.3392214     0.157001 -49.82  0.001855691    1.695    0.410
        57 -11.8439    244.6918     53.3682   2.5791927382e+01   2.0105580048e+01    0.3783953    0.2012376 -46.31  0.001712341    1.456    0.313
        58 -11.6721      1.7507     47.2667   8.9800838102e+01   6.8313408027e+01    0.4893428    0.1688939 -68.75  0.001941642    3.270    0.694
        59 -10.6244     27.1280     49.5076   7.6502712100e+01   6.5667833352e+01    0.2854782    0.1435459 -37.83  0.001340391    1.950    0.487
        60 -10.6036    245.9600     44.6791   2.3980225228e+01   2.1023564134e+01    0.1653447    0.1283337 -68.33 0.0009347224    1.110    0.099
        61 -11.4991    157.6082    246.3695   7.6953407945e+01   1.6984306728e+00    0.6494424    0.2518828  21.28  0.002540994    3.333    0.700
        62 -14.8527      3.9736    233.9989   1.0918659122e+02   2.2946243138e+01     1.799678    0.6727971  86.58  0.008452907    2.715    0.632
        63 -12.8419    140.3686    240.7196   7.9770486607e+01   4.9342972130e+00    0.6844516    0.6517691 -66.90  0.004752061    1.330    0.248
        64  -9.9519    101.1406    244.1008   8.8669120774e+01   9.6385041425e+00    0.2966512    0.1476219  36.11   0.00135567    1.652    0.395
