#   1 NUMBER                 Running object number                                     
#   2 MAG_AUTO               Kron-like elliptical aperture magnitude                    [mag]
#   3 X_IMAGE                Object position along x                                    [pixel]
#   4 Y_IMAGE                Object position along y                                    [pixel]
#   5 X_WORLD                Barycenter position along world x axis                     [deg]
#   6 Y_WORLD                Barycenter position along world y axis                     [deg]
#   7 A_WORLD                Profile RMS along major axis (world units)                 [deg]
#   8 B_WORLD                Profile RMS along minor axis (world units)                 [deg]
#   9 THETA_WORLD            Position angle (CCW/world-x)                               [deg]
#  10 FWHM_WORLD             FWHM assuming a gaussian core                              [deg]
#  11 ELONGATION             A_IMAGE/B_IMAGE                                           
#  12 ELLIPTICITY            1 - B_IMAGE/A_IMAGE                                       
         1 -13.5803    247.3420    103.8792   2.7475282466e+01   1.4025234588e+01     2.503619    0.7755597 -28.64  0.009686203    3.693    0.729
         2 -12.8262    248.8109    155.7762   3.7047436867e+01   6.8933414747e+00     1.872909    0.5138279 -35.65  0.008586273    2.753    0.637
         3 -11.7196     45.3817     49.2003   5.7371676641e+01   6.5764687125e+01     0.433324    0.2872653 -40.40 0.0005558507    1.576    0.365
         4 -10.9581     40.9501     13.8441   3.9351573765e+01   7.3046557623e+01    0.2456448    0.2164254  32.31 0.0002630924    1.084    0.078
         5  -9.5790     97.7374     12.2780   2.0522321454e+01   5.9049882348e+01    0.3307741     0.201646  -6.84  0.001514987    2.194    0.544
         6  -7.9913      6.7024      4.7167   5.9951409621e+01   8.0644474746e+01    0.1256793   0.08917782  -8.31 0.0001629754    1.545    0.353
         7  -8.5293     51.8660      3.1571   2.6654976666e+01   7.1716689808e+01    0.1845061    0.1407116  38.34 0.0002408564    1.302    0.232
         8  -8.8900     67.5214      1.3012   2.0862323664e+01   6.7938235108e+01     0.217447    0.1111225  70.66 5.938471e-05    1.741    0.426
         9 -11.9114    249.2416    225.9884   4.8262952821e+01  -1.6560260188e+00    0.5825846    0.2055611 -37.00   0.00343231    2.544    0.607
        10 -10.6882    174.0516    245.0108   6.2910230440e+01   3.1293416730e+00    0.4870753    0.2862253 -43.18  0.003194225    1.994    0.499
        11 -11.4967    166.1926    242.0534   6.3977421779e+01   4.3429026293e+00    0.8859364    0.3001854  23.85  0.003879438    2.737    0.635
        12 -10.2726    161.4458    248.7906   6.5707197361e+01   3.9237456686e+00    0.3302022    0.1735387 -52.39  0.001918274    2.750    0.636
        13 -11.4089    166.4913    247.8324   6.4650277316e+01   3.5311532102e+00    0.4676938    0.2465132  20.03  0.002904119    1.566    0.361
        14  -9.9228     56.9694    246.7953   8.7506646531e+01   1.5532722430e+01    0.2663159    0.1852206  23.31 0.0008723814    1.243    0.196
        15 -10.6074     13.9570    250.1240   9.7266977950e+01   1.8999138283e+01    0.5122683    0.1678343  20.09  0.002036657    2.902    0.655
        16  -9.9067     20.9083    250.1974   9.5740988622e+01   1.8378058158e+01    0.3400631    0.1766035  83.90  0.001988312    2.176    0.540
        17 -10.8151     16.8433    245.5019   9.6489490392e+01   1.9609878149e+01    0.3578975     0.163028  46.99  0.001779973    1.624    0.384
        18 -10.0643    250.3930    241.7413   5.0312326260e+01  -3.4182828951e+00    0.2216268    0.1068388 -24.87 0.0008419561    1.584    0.369
        19 -11.0403    249.3438    237.2349   4.9837164025e+01  -2.8675118123e+00    0.2948595    0.1882768 -18.51   0.00191366    1.170    0.145
        20  -8.9526     73.9923    243.2652   8.3409015944e+01   1.4367146663e+01    0.1591849    0.0849907  27.86 0.0004319246    1.475    0.322
        21  -9.5077     97.8564    241.7491   7.7941489007e+01   1.1986500149e+01    0.1992232    0.1303495  11.17 0.0008178187    1.505    0.335
        22  -8.6463    235.3127    240.3141   5.2254530594e+01  -2.0418847876e+00    0.1204476   0.07681331  20.38  0.000455102    1.533    0.348
        23  -9.6124    238.2841    239.3265   5.1687343711e+01  -2.1840940134e+00    0.1453987   0.07955316  15.65 0.0003511725    1.595    0.373
        24 -10.8368    107.9128    238.5341   7.5409352120e+01   1.1385543281e+01    0.3483441    0.2593713 -42.79  0.002287992    1.572    0.364
        25 -10.0598     90.1939    235.5675   7.9063586476e+01   1.3935457136e+01    0.2977383    0.2168645 -42.42  0.001875266    1.643    0.391
        26 -11.6800     89.3194    225.3008   7.8255092969e+01   1.5923095031e+01    0.8381304    0.4284142 -58.59  0.004332794    2.277    0.561
        27 -11.8475     98.4755    225.2212   7.6112059929e+01   1.4841314572e+01    0.5700078    0.4436713 -75.95  0.001952924    1.670    0.401
        28 -10.7637     95.5633    217.6689   7.5963707058e+01   1.6619721855e+01     0.418532    0.3041688  59.01  0.001681361    1.610    0.379
        29 -10.2395     99.9779    217.2693   7.4872389709e+01   1.6147548082e+01    0.2883258    0.2356991  35.70 0.0006300524    1.111    0.100
        30  -9.8773      3.8108    249.3035   9.9461199989e+01   1.9999839301e+01    0.2541856     0.132875  39.87 0.0007274904    1.334    0.251
        31 -10.6928    163.5939    232.6116   6.3234295641e+01   5.9516937355e+00     0.852203     0.224871  32.38  0.003622762    3.230    0.690
        32 -11.1375    162.4200    225.6474   6.2514185622e+01   7.1066205930e+00    0.3814959      0.25578   6.04   0.00242857    1.357    0.263
        33 -11.3331    238.1415    230.3484   5.0449601337e+01  -1.1869566984e+00    0.3118565    0.1970842  -1.06  0.001328467    1.233    0.189
        34 -10.2341    131.2140    214.4694   6.7403531042e+01   1.2707305016e+01    0.6258191     0.262499 -61.72  0.002466339    4.100    0.756
        35 -11.8320    126.3986    221.1294   6.9334282496e+01   1.2152255976e+01    0.6538374     0.514272 -85.00   0.00314516    1.992    0.498
        36 -10.2312    122.1170    223.2704   7.0543286944e+01   1.2308840891e+01    0.3025911    0.2269801  89.07  0.001744552    2.208    0.547
        37  -8.8954    144.8825    227.7818   6.6289749080e+01   8.8211602462e+00    0.1867619    0.1359121   4.02 0.0005606183    1.247    0.198
        38 -10.2382    117.8110    227.2639   7.1976315590e+01   1.2141480700e+01    0.3433075    0.1758237  35.85  0.001105585    1.694    0.410
        39 -10.9710    231.1550    233.8567   5.1968100221e+01  -9.6956638292e-01    0.3055722    0.1792357 -29.34  0.001397438    1.488    0.328
        40  -9.7035    169.5636    224.7580   6.1024603928e+01   6.4218476342e+00    0.3449128    0.2041545  47.85  0.001844855    2.741    0.635
        41 -10.1328    108.4800    222.6987   7.3530502684e+01   1.4085201318e+01    0.3015564    0.1969747 -25.17  0.001494881    1.884    0.469
        42  -8.7574    174.3928    222.2996   5.9770350608e+01   6.2317788535e+00     0.139114    0.1050408 -41.32 0.0009379828    1.557    0.358
        43  -9.8250    114.9570    221.0558   7.1865911760e+01   1.3582382419e+01     0.239066    0.1731931 -38.80 0.0009102179    1.536    0.349
        44  -8.6164    157.3055    221.5630   6.2947982072e+01   8.3248752030e+00     0.159697   0.09782257  15.67 0.0009291182    1.494    0.331
        45  -8.8677    149.3638    219.7407   6.4291296336e+01   9.5648260928e+00    0.2162191    0.1330107 -33.84 0.0009502759    1.679    0.404
        46  -9.1168    151.9700    216.1789   6.3260036246e+01   9.8204091319e+00     0.267989     0.145161   5.72  0.001286186    2.392    0.582
        47  -9.5229    220.5118    218.9166   5.1417043063e+01   1.7873318967e+00    0.1596647    0.1332512   0.74 0.0008667107    1.328    0.247
        48  -9.7840     74.6283    218.9727   8.1161165882e+01   1.8897290825e+01    0.2715259     0.160778  46.65  0.001217966    1.560    0.359
        49 -10.2894     84.2813    217.0465   7.8611588644e+01   1.8126592027e+01    0.2841291    0.2047059 -51.72  0.001662395    1.604    0.377
        50  -9.0035    143.5715    216.7959   6.5079568666e+01   1.0756752077e+01    0.2130288    0.1113202 -42.73  0.001126198    2.018    0.504
        51  -9.5402    190.5326    215.2733   5.5817257870e+01   5.4167315334e+00    0.2752542    0.1510252 -22.48  0.001595121    1.779    0.438
        52 -10.4406    170.2959    215.2565   5.9517221298e+01   7.7505362331e+00    0.2521169    0.1963642  -6.06  0.000776784    1.093    0.085
        53  -9.6057    119.0879    215.3887   7.0222942302e+01   1.4086337200e+01    0.2037393    0.1658243 -26.30 0.0007589808    1.312    0.238
        54 -10.4323     22.7517    215.2026   9.3918801765e+01   2.5215824490e+01    0.4694262    0.1747146  24.42  0.001740073    2.306    0.566
        55  -8.0522    176.2707    215.6419   5.8450194706e+01   6.9908781789e+00   0.09724177   0.09443173  62.12 0.0006997784    1.644    0.392
        56  -9.6344    115.7044    210.8094   7.0401965213e+01   1.5365678797e+01    0.2305821    0.2082045 -11.72  0.001480559    1.143    0.125
        57 -10.2120    228.5127    214.0096   4.9463009090e+01   1.6084111323e+00    0.1824513    0.1174796   4.69  0.001067384    1.355    0.262
        58 -10.3182    229.8412    210.3076   4.8701200922e+01   1.9329299755e+00    0.2050217    0.1133715 -25.42  0.001012778    1.444    0.307
        59 -10.6419     77.4046    211.2170   7.9708825846e+01   2.0147016318e+01    0.3349932    0.3130827 -10.69  0.001998508    1.205    0.170
        60  -8.9731     63.0344    213.4465   8.3546853685e+01   2.1387279777e+01    0.2059191    0.1124064  27.25 0.0008311885    1.582    0.368
        61  -9.9569    202.4417    212.4954   5.3354427689e+01   4.4878327437e+00     0.189923   0.09315908 -35.16 0.0005809107    1.841    0.457
        62 -10.2435    212.5956    207.5993   5.0937151464e+01   4.0497216763e+00      0.31786    0.2404577  13.91  0.001780458    1.268    0.211
        63  -9.7201    212.1222    203.2129   5.0322904479e+01   4.6874188921e+00    0.3392718    0.1627222  34.39  0.001969506    2.252    0.556
        64  -8.7085    212.5218    198.9611   4.9578860846e+01   5.2199315532e+00    0.2595403    0.1077183 -27.54  0.001121577    2.370    0.578
        65 -10.3779    124.0185    205.9922   6.7843402292e+01   1.5173518094e+01    0.1842169    0.1604147  14.33            0    1.007    0.007
        66  -8.5511     98.8491    205.8867   7.3781448639e+01   1.8521882468e+01    0.2840826    0.1597871  80.17  0.001056458    4.111    0.757
        67 -11.6219    240.0844    210.4304   4.7236627634e+01   9.3201172478e-01    0.4528501    0.1999733  25.09  0.002809648    2.354    0.575
        68  -9.2817    130.3897    201.8476   6.5808370394e+01   1.5089521544e+01     0.288592    0.2149297 -65.61  0.001638134    1.785    0.440
        69 -10.8736    179.4813    191.5587   5.4057094606e+01   1.0297418287e+01    0.5185717    0.2428361 -51.49  0.002369205    2.906    0.656
        70 -10.1481    172.7940    190.1257   5.5080955023e+01   1.1408289026e+01    0.3259958     0.168702 -44.55  0.001418046    1.964    0.491
        71 -11.1689    177.4757    197.0220   5.5331739266e+01   9.6896246160e+00    0.5455953    0.3349886  -8.50  0.002996877    1.855    0.461
        72 -10.9848    172.9666    195.4925   5.5936090729e+01   1.0512149766e+01    0.4137129     0.243121 -36.78  0.001496823    1.619    0.382
        73  -9.9446    250.1851    178.2880   4.0737104073e+01   3.8586472801e+00    0.3941148     0.128806 -33.15  0.001881366    2.364    0.577
        74 -10.1758    249.8995    184.3797   4.1778769309e+01   3.1315877258e+00     0.393284    0.1635191 -31.82  0.002329025    1.834    0.455
        75 -10.3304    249.9989    200.2927   4.4307743720e+01   1.1993991158e+00    0.2670546    0.2024246 -25.70  0.001464547    1.331    0.249
        76 -11.2103    249.1049    193.3539   4.3332828751e+01   2.1145664259e+00    0.5324744    0.2918015 -22.88  0.003658933    1.406    0.289
        77  -9.0078     57.9624    201.1493   8.3761418257e+01   2.4651739763e+01    0.2462517    0.1116151  47.61  0.001035451    2.033    0.508
        78 -10.2593    166.9993    197.4950   5.7416677789e+01   1.0962349586e+01    0.3054461    0.2114472 -31.97  0.001848695    1.375    0.272
        79  -9.9244    144.3092    198.1332   6.2183561333e+01   1.3878366918e+01    0.2824256    0.2193745 -27.69  0.001441131    1.279    0.218
        80  -9.5108    128.9994    188.5112   6.4095648622e+01   1.7823623177e+01     0.269475     0.191835  -4.68  0.001290168    1.646    0.392
        81 -10.6750    126.2678    196.8268   6.6005916069e+01   1.6599503111e+01    0.3347138    0.2323507   8.15 0.0009482129    1.553    0.356
        82  -9.1488    113.0201    194.2702   6.8764555070e+01   1.8950246353e+01    0.2246123      0.18996 -23.64 0.0003298122    1.255    0.203
        83  -9.5319    105.2364    197.5444   7.1127216292e+01   1.9361196368e+01    0.2501054    0.1984305 -28.50 0.0009032843    1.400    0.286
        84  -9.3158    112.8383    198.0708   6.9350131660e+01   1.8211990747e+01    0.3410465    0.1742318  53.22   0.00140875    2.776    0.640
        85  -9.1349     66.7088    194.6255   8.0764867515e+01   2.5072684973e+01    0.3605537    0.1598322  53.98  0.001377332    2.589    0.614
        86  -8.8594     77.4785    192.9919   7.7682535571e+01   2.4069512570e+01    0.1930571    0.1117204  75.24 0.0008099809    2.553    0.608
        87  -8.6378     43.7861    193.2130   8.6937832679e+01   2.8089002367e+01    0.2527297   0.09950639  56.45 0.0009501674    2.779    0.640
        88  -9.7238    225.1269    191.5953   4.6431488225e+01   4.8189980857e+00    0.2262815    0.1108358 -23.67 0.0009755832    1.874    0.467
        89  -9.7196     16.4178    191.1534   9.4461421664e+01   3.1292213958e+01    0.3844402    0.1808669   1.09  0.001483098    3.395    0.705
        90  -8.8939    138.8616    189.5431   6.2018065221e+01   1.6210664238e+01    0.2023207    0.1573087 -51.22 0.0005782342    1.438    0.305
        91  -9.3614    104.4533    188.8196   7.0098278798e+01   2.1289079169e+01    0.2578391     0.186297  10.66 0.0005583306    1.508    0.337
        92 -10.7749     98.3770    188.5686   7.1613386323e+01   2.2203035557e+01    0.4490255    0.2865689  45.62 0.0007626137    1.548    0.354
        93 -11.4168     94.5599    182.9126   7.1807985682e+01   2.3988333328e+01    0.5637532    0.4777057 -62.00  0.002368843    1.288    0.224
        94 -10.0612      7.6962    187.6562   9.6756554842e+01   3.2870262292e+01    0.3032533    0.1815722 -54.34  0.001537378    2.023    0.506
        95 -10.3254    231.4947    186.5006   4.4655212624e+01   4.7963951839e+00    0.2212569    0.1497001  -5.77  0.001285621    1.328    0.247
        96 -10.7738    228.2923    184.3113   4.4753486198e+01   5.4401917175e+00    0.3837673    0.2216642 -24.70  0.002465585    1.411    0.291
        97  -9.0978    162.4726    193.0954   5.7600176400e+01   1.2295720480e+01    0.3783253    0.1661574 -55.39  0.001517374    3.589    0.721
        98 -10.3910    109.5298    184.5736   6.8188225718e+01   2.1458596295e+01    0.3817509    0.3249594  49.82  0.001677016    1.230    0.187
        99  -8.7449    210.1286    184.6249   4.7582657783e+01   7.5048933093e+00    0.1618504   0.09624144  17.88 0.0009567205    1.809    0.447
       100 -10.1510    174.1944    181.9182   5.3408057938e+01   1.2579383151e+01    0.4195065    0.2010923 -47.06  0.002012762    2.211    0.548
       101  -9.6104      5.4970    183.0137   9.7205159795e+01   3.4179070888e+01    0.2752281    0.1388364  72.52  0.001300994    1.841    0.457
       102 -10.8686      3.4231    178.1062   9.7626167997e+01   3.5555664974e+01    0.4554876    0.2960239  29.02  0.002463768    1.431    0.301
       103 -11.1330     20.2391    181.3369   9.2841025472e+01   3.3354180267e+01    0.4286661    0.3082678  59.08  0.001193191    1.215    0.177
       104 -10.0081     10.1641    179.8647   9.5721227092e+01   3.4590044865e+01    0.2353597    0.1849032  88.41 0.0004190632    1.243    0.195
       105 -10.5138     14.0186    178.4965   9.4519321780e+01   3.4612695489e+01    0.3654371    0.2637704  69.25  0.001177345    1.243    0.195
       106 -10.1817     11.6037    187.3757   9.5641191170e+01   3.2618743026e+01    0.2403431    0.2195271  57.69 0.0003462782    1.116    0.104
       107  -8.6324     44.4424    182.5352   8.5832601452e+01   3.0589456400e+01    0.1441394    0.1204112  53.25 0.0001569005    1.060    0.057
       108  -9.5562    147.5247    180.0177   5.8518284582e+01   1.6741231044e+01    0.2490121    0.1781106  48.15 0.0009791142    1.655    0.396
       109  -9.2051    138.9248    179.9595   6.0413144183e+01   1.8031745534e+01    0.2108504    0.1657148  65.37  0.001132433    1.787    0.441
       110  -9.9008    104.1673    179.7662   6.8820492145e+01   2.3284422174e+01      0.27818    0.1857751 -42.30  0.001379445    1.627    0.385
       111  -9.3522     88.9175    177.1911   7.2503094202e+01   2.6100688916e+01    0.2902601    0.1867806  54.95 0.0008161704    1.712    0.416
       112  -9.8485    203.3769    187.0695   4.9098263072e+01   7.9692877577e+00    0.3388641     0.292453  67.75  0.002247483    2.137    0.532
       113 -10.2893    204.8811    175.4520   4.6834103325e+01   9.5043507222e+00    0.2455077    0.1950747   1.24  0.001680264    1.170    0.145
       114  -9.8529     77.1582    175.4813   7.5550329144e+01   2.8174129266e+01    0.2983647    0.1881799  60.85 0.0009157056    1.824    0.452
       115  -9.3962    182.9748    174.1224   5.0379413314e+01   1.2653462189e+01    0.4027898    0.1451179 -36.34  0.001681119    2.680    0.627
       116  -8.1852    159.3156    175.6405   5.5250517290e+01   1.5802204222e+01    0.1237051    0.1066466  85.17  0.000704329    1.754    0.430
       117 -10.4712    149.2478    174.1057   5.7102900203e+01   1.7596826658e+01    0.4885526    0.3283093  18.00  0.002549671    1.599    0.375
       118 -10.2029    105.2434    174.6923   6.7741731343e+01   2.4243117041e+01    0.3213185    0.2105071  79.38  0.001366941    2.517    0.603
       119 -10.5340     24.1700    174.4339   9.1228425543e+01   3.4731992202e+01    0.3053539    0.1764117  79.25  0.001143742    1.740    0.425
       120  -9.9107     88.7151    172.6116   7.1882275081e+01   2.7197401766e+01    0.4682936    0.2280336  24.96   0.00187266    2.176    0.541
       121 -13.0607    234.8234    131.6093   3.4310969896e+01   1.1946547855e+01     1.152112    0.8815119 -84.21  0.007275457    2.351    0.575
       122  -8.8947     54.8716    169.2676   8.1345594346e+01   3.2673392395e+01    0.2698397    0.1180748  58.07 0.0009498778    2.828    0.646
       123  -8.5284     89.2924    168.6707   7.1117485564e+01   2.8041740501e+01     0.150002    0.1076579  64.65 0.0005623497    1.626    0.385
       124  -8.6007    200.0219    166.6778   4.6046196112e+01   1.1490765159e+01    0.1635233    0.1349163  -2.87  0.000322566    1.128    0.114
       125 -10.1461     13.2942    165.9416   9.4062440006e+01   3.7896124796e+01    0.3840235    0.2043353 -72.09  0.001598093    1.859    0.462
       126 -10.2424     17.1882    163.8051   9.2696362062e+01   3.8127420855e+01    0.2651683    0.2112814  16.51  0.001058349    1.368    0.269
       127  -9.9528    213.6233    163.7521   4.3339097416e+01   1.0117553012e+01    0.2770053   0.09677135 -39.98 0.0008567465    2.454    0.592
       128 -11.2569    146.2356    162.7838   5.5669615844e+01   2.0256296401e+01     0.470004    0.3684845  67.96 0.0004637728    1.807    0.446
       129  -9.3595     98.7262    165.8138   6.8033312250e+01   2.7267386885e+01    0.3535886    0.1991837  53.40   0.00118227    2.100    0.524
       130  -9.3371     80.3500    164.3081   7.3014718753e+01   3.0428453666e+01    0.3788898    0.2142311  69.98  0.001428885    2.710    0.631
       131 -10.6214    142.7742    158.6041   5.5639496833e+01   2.1655087695e+01    0.5974461    0.2265368  40.85  0.001811035    2.676    0.626
       132  -8.6553     47.5053    164.0010   8.3031153218e+01   3.4933991441e+01    0.2201573    0.1097693  73.40 0.0008106577    2.626    0.619
       133  -9.2724      9.3634    161.8486   9.5088389238e+01   3.9287949988e+01    0.2779775    0.1128747  83.08  0.000987479    2.501    0.600
       134  -8.6207    177.9415    160.9600   4.8853722797e+01   1.5610746251e+01    0.1915658     0.163158 -78.90  0.001126513    1.766    0.434
       135  -9.6354    139.5783    165.1904   5.7624524691e+01   2.0850567543e+01    0.3554698    0.2707198  73.71  0.001582319    1.996    0.499
       136  -9.3774     92.5685    159.9859   6.8774764655e+01   2.9613286049e+01    0.3312314    0.2294444  67.68  0.001438073    1.810    0.448
       137  -9.5057    219.0920    165.7511   4.2876658533e+01   9.1204046595e+00    0.3611042    0.2269989  35.00  0.001830478    1.830    0.454
       138  -8.8868     31.4066    160.2155   8.7820175710e+01   3.7731143526e+01    0.2102093    0.1258025  81.59 0.0009441215    1.727    0.421
       139  -9.6464    196.7464    155.3215   4.4446508780e+01   1.3755906968e+01    0.4350208    0.2110689 -42.98   0.00215774    1.899    0.473
       140  -9.0453    168.0442    157.9685   5.0170172787e+01   1.7673501989e+01    0.1954947    0.1666572 -84.70 0.0009321909    1.717    0.417
       141  -8.5575    128.3450    158.6792   5.9047346730e+01   2.4043779778e+01    0.1444706    0.1130276  72.58 0.0005088501    1.730    0.422
       142  -9.9152    105.2209    157.1520   6.4738107830e+01   2.8240610907e+01    0.3256758    0.2475339 -84.10 0.0008332865    1.661    0.398
       143  -9.2861    208.5174    156.8397   4.2840775956e+01   1.1846892021e+01    0.2323242    0.1002214 -34.43  0.001123091    1.993    0.498
       144  -9.2408    188.4727    156.1514   4.6019440013e+01   1.4841817872e+01    0.3402802    0.1115978 -40.97   0.00135728    2.714    0.632
       145  -9.4427    157.8162    156.3198   5.1918581924e+01   1.9624564069e+01    0.3082799    0.1812059 -59.35  0.001178939    2.337    0.572
       146  -9.7092     49.7830    154.9313   8.1216484476e+01   3.7047139251e+01    0.4417258    0.2025756  56.63   0.00161634    2.504    0.601
       147  -8.1840    178.3311    155.3174   4.7682318558e+01   1.6531616518e+01    0.1353831   0.09444052  -7.41 0.0007047256    1.687    0.407
       148  -9.4621    142.5242    148.5271   5.3674395336e+01   2.3745652674e+01    0.3382221    0.2041805 -52.19  0.001561752    1.726    0.421
       149 -10.3680    133.7761    153.5996   5.6743962782e+01   2.4202061812e+01    0.5294705    0.3754427  89.79   0.00164401    2.435    0.589
       150 -10.5095    138.2669    147.5794   5.4459927240e+01   2.4686245393e+01    0.4911744    0.3453163 -47.47  0.002160497    1.400    0.286
       151  -9.2471    119.3737    154.7075   6.0527232085e+01   2.6422426177e+01    0.3097858    0.2355329  75.15  0.001279365    1.787    0.441
       152  -9.7197     81.7071    154.2966   7.1004965109e+01   3.2711739616e+01    0.3194828    0.2207153  62.90 0.0006479357    1.652    0.395
       153 -10.7145     68.0498    153.0448   7.5039177221e+01   3.5079171804e+01    0.5707411    0.3366359 -86.65  0.002142305    2.167    0.539
       154  -9.2686    219.4452    154.0275   4.0665188600e+01   1.0786116305e+01    0.1860024   0.09545226 -35.11 0.0009293965    1.582    0.368
       155 -10.1987    205.3606    151.7907   4.2369350998e+01   1.3072684285e+01    0.4776654    0.1728291 -36.05   0.00209168    2.397    0.583
       156  -9.4333    133.9829    147.4957   5.5455089633e+01   2.5457783860e+01    0.2776072    0.2218618 -10.74 0.0008982828    1.450    0.310
       157  -9.2524    100.0204    153.7154   6.5548690992e+01   2.9910135354e+01    0.2701938    0.2134858 -83.10 0.0004808551    1.494    0.331
       158  -8.9931     95.8474    154.1739   6.6817742649e+01   3.0487223101e+01    0.2046189     0.174628  -0.99 0.0004350027    1.345    0.257
       159  -8.9782    183.8645    151.5322   4.5924489874e+01   1.6325847825e+01    0.2850316    0.1944948 -89.93  0.001111648    4.404    0.773
       160  -9.3754    182.8652    142.2563   4.4216870102e+01   1.8085676022e+01    0.3415689    0.2330516 -59.64  0.001761918    1.935    0.483
       161 -10.4074    189.7132    149.5183   4.4497211603e+01   1.5763037565e+01    0.5011554    0.2998562 -54.23  0.002495717    2.121    0.529
       162  -8.7301    186.5006    144.5108   4.4042087341e+01   1.7112363832e+01    0.1638255    0.1289891  52.51 0.0002159237    1.593    0.372
       163  -8.9847     89.4824    151.0845   6.8115415676e+01   3.2279141962e+01    0.3124737     0.211497  30.95  0.001438291    1.470    0.320
       164  -8.7157    162.4208    150.2635   4.9752871111e+01   2.0009917974e+01    0.1917515    0.1234121 -52.93 0.0006474002    1.711    0.415
       165  -9.4488     28.2623    148.9875   8.7823479591e+01   4.1087664156e+01    0.4906841    0.1817019  72.03  0.001440849    4.091    0.756
       166  -9.9075    223.0979    147.9513   3.8996346014e+01   1.1187863882e+01    0.3189367    0.2217912  35.33  0.001777025    1.709    0.415
       167  -9.1138    119.2446    147.7841   5.9188301035e+01   2.7993429627e+01    0.4221029    0.2408039  61.36  0.001582576    2.774    0.639
       168  -9.0345    199.5536    147.2573   4.2406820659e+01   1.4642219351e+01    0.3081026    0.1066185 -37.79  0.001282678    2.496    0.599
       169 -10.9821    149.3362    145.0905   5.1436311228e+01   2.3250822264e+01    0.5722963    0.4048303 -81.53  0.002144676    2.450    0.592
       170  -9.8879    148.8685    137.2396   4.9849880259e+01   2.4910497124e+01    0.4330488    0.2205779 -27.84  0.001602273    2.854    0.650
       171 -10.4534     56.8803    145.9474   7.7615616655e+01   3.8527704413e+01    0.7476107    0.3210708  58.58  0.002383401    3.290    0.696
       172  -9.4402     39.7714    147.4179   8.3667541770e+01   4.0280971336e+01    0.5312028    0.1718884  50.43  0.001639869    3.400    0.706
       173 -10.3539    106.9317    144.0035   6.1729487586e+01   3.1035472377e+01    0.7130861    0.4644567  72.43  0.002869169    2.381    0.580
       174  -9.0149    106.8007    137.7986   6.0476343101e+01   3.2530717276e+01    0.2487685      0.19823   4.57  0.001184242    1.565    0.361
       175  -8.5676    175.7847    146.1919   4.6317763390e+01   1.8548413702e+01     0.203341    0.1458054 -81.66 0.0009356575    2.722    0.633
       176 -10.3052     78.3970    144.5406   7.0334494194e+01   3.5714238673e+01    0.5229967    0.2130083 -58.69  0.001874626    2.433    0.589
       177  -8.5370     13.4074    146.1839   9.2773257312e+01   4.3196933679e+01    0.2080168    0.1203193  78.55 0.0004976129    1.664    0.399
       178  -8.8340    195.3144    144.8961   4.2626720839e+01   1.5669301033e+01    0.2639808   0.09836639 -44.67  0.001091086    2.552    0.608
       179  -9.3693    166.1597    144.3284   4.7777296977e+01   2.0492307474e+01    0.2474506    0.2066105 -87.26  0.001123205    1.698    0.411
       180 -10.4343    124.9213    142.5127   5.6640302110e+01   2.8157534512e+01    0.5801781    0.3161476 -67.34  0.001969495    2.932    0.659
       181  -9.4258     87.9862    143.4977   6.7159518954e+01   3.4418133936e+01    0.2874867    0.2138863 -88.76 0.0007193818    1.618    0.382
       182  -9.9052    206.3453    141.8651   4.0265602952e+01   1.4487198418e+01    0.2462479     0.212395  58.60  0.001314021    1.573    0.364
       183 -10.8395     69.7816    140.9622   7.2488355968e+01   3.7992414873e+01    0.5088947    0.2933284  77.93  0.001859229    2.621    0.618
       184  -8.9657      3.3106    142.6648   9.6119689743e+01   4.4902145513e+01    0.1586653   0.08562806  56.20 0.0007044021    1.680    0.405
       185  -9.8877     40.7785    140.0129   8.2386097056e+01   4.2203958780e+01    0.3491226    0.2115241  -3.08  0.001192012    2.436    0.590
       186 -11.4269    196.5429    136.4218   4.0695685778e+01   1.6871639341e+01    0.5189385    0.4176393  21.92  0.002977249    1.403    0.287
       187 -13.1393    200.7732    115.1869   3.5511983451e+01   1.9640420999e+01     1.122375    0.4858406 -39.31  0.005163921    1.912    0.477
       188 -12.6973    174.8550    101.4877   3.6391904124e+01   2.6715150841e+01     1.616812     0.515052 -36.41  0.005597119    2.999    0.667
       189  -9.2664    138.6169    137.0977   5.2136246689e+01   2.6820692557e+01    0.3399659    0.1351331 -46.90  0.001249001    2.432    0.589
       190 -10.0312     57.4732    136.2712   7.5887607639e+01   4.1067610751e+01    0.3810963    0.2192618 -21.39  0.001309306    3.184    0.686
       191 -12.0776    248.9363    133.2417   3.2939037040e+01   9.8662328019e+00     1.632308    0.2764398 -35.32  0.005608122    4.573    0.781
       192 -10.4973    188.1226    134.7623   4.1736018639e+01   1.8513766110e+01    0.5836441    0.1795834 -40.82  0.002193963    2.824    0.646
       193  -9.6144    162.6425    135.9774   4.6689610500e+01   2.2675574998e+01    0.2547197    0.2091961 -64.24  0.001271563    1.433    0.302
       194  -9.7501    160.8254    130.1914   4.5770733430e+01   2.4108800652e+01    0.4281159    0.1862985 -38.44  0.001707952    2.220    0.550
       195 -10.1242     39.1582    135.8619   8.2423855035e+01   4.3549326985e+01    0.2761112    0.1982545  85.36  0.000824669    1.409    0.290
       196  -9.8996     38.9889    131.9950   8.1957090163e+01   4.4652073905e+01    0.3074505    0.2015965  73.46   0.00115216    1.628    0.386
       197  -9.5090    180.1984    133.2978   4.2795821691e+01   2.0099924849e+01    0.4009927    0.2187144 -50.48  0.001870014    1.944    0.486
       198 -10.8794    131.8783    128.9951   5.1912502988e+01   2.9821703503e+01    0.9371323     0.335453 -50.48  0.003139131    2.867    0.651
       199  -9.3690    112.7739    132.9555   5.7760798833e+01   3.2570692027e+01    0.3868488    0.2511867  75.08  0.001313015    2.544    0.607
       200  -9.6342    116.8300    114.5864   5.2276496925e+01   3.6018656413e+01    0.3653615     0.201178 -40.58  0.001386743    1.914    0.477
       201 -10.5618    110.8246    128.5264   5.7297995348e+01   3.3976787960e+01    0.6266034    0.4210038  10.40  0.002517439    2.342    0.573
       202 -10.7117    116.4107    124.7878   5.4893218167e+01   3.3767542427e+01    0.6008555    0.4237013  54.39  0.002429521    1.535    0.349
       203 -10.3729    116.2595    119.2049   5.3585735790e+01   3.5079505378e+01    0.4867493    0.3901645  34.69  0.001703729    1.329    0.247
       204 -10.3199     83.7057    131.6422   6.6144300681e+01   3.8163200763e+01    0.5242817    0.3298866  70.00  0.001445721    2.216    0.549
       205  -9.6059     83.5316    123.1198   6.4364680087e+01   4.0390373845e+01    0.6443232    0.3933434 -27.42  0.002371805    2.597    0.615
       206 -10.2793    143.0175    130.2571   4.9586582073e+01   2.7423824101e+01    0.5602055    0.2066494 -45.50  0.001998632    2.583    0.613
       207  -9.7861    192.6817    128.9367   3.9741752720e+01   1.8742545506e+01    0.3346147    0.1343811 -43.73  0.001426403    2.229    0.551
       208 -10.1613    169.1638    129.1686   4.3913582379e+01   2.2784501765e+01    0.3601811    0.2872077 -65.39  0.001593718    1.505    0.336
       209 -10.3313    153.0289    128.0416   4.6888253955e+01   2.5978219597e+01    0.6349603    0.2652081 -48.42  0.002422337    2.379    0.580
       210 -11.6983    108.6030    112.6021   5.4056739762e+01   3.8158812489e+01     1.172032    0.6172654 -41.91  0.003431132    2.011    0.503
       211 -10.6423     98.8193    127.3223   6.0496890313e+01   3.6533649716e+01    0.6523412    0.4204491 -85.63  0.002055264    2.423    0.587
       212 -10.0245     98.5010    120.4817   5.9000754612e+01   3.8272576690e+01    0.4736153    0.3391892 -29.31  0.002070251    1.756    0.430
       213 -10.0763     72.8138    128.1901   6.9057623655e+01   4.0901221437e+01    0.5210907    0.3064394 -82.96  0.001965278    2.313    0.568
       214  -9.3212     12.6045    128.8781   9.1734049779e+01   4.8094734858e+01    0.4974501    0.1785991  62.70  0.001623653    3.225    0.690
       215 -10.3697    247.4441    247.8715   5.1548984747e+01  -3.8136369714e+00    0.2282332    0.1556249   4.86  0.001147834    1.227    0.185
       216 -10.5966     59.5048    123.8936   7.2942931726e+01   4.4158989815e+01    0.6960686    0.3558248  75.06  0.002115942    3.667    0.727
       217 -10.7061     43.4404    122.5524   7.8811796189e+01   4.6765002583e+01    0.9014527    0.5071071  86.30  0.003489245    2.185    0.542
       218  -9.8254     29.8179    123.7110   8.4373621797e+01   4.8013207379e+01     0.463625     0.237578  68.58  0.001487043    2.302    0.566
       219  -9.6197     27.0232    119.3379   8.4921734900e+01   4.9545814040e+01      0.41608    0.2628869 -35.16  0.001377464    1.935    0.483
       220  -9.8935    177.5518    169.1899   5.0480765219e+01   1.4254446522e+01    0.3757887    0.2680506 -39.15  0.002203916    1.326    0.246
       221 -11.5989    187.3609    126.4231   4.0071005630e+01   2.0067804882e+01     1.095794    0.3282988 -33.13  0.003433668    4.160    0.760
       222 -10.0543    158.8318    119.9289   4.3802347067e+01   2.6456768866e+01    0.5284287    0.2862368 -46.10  0.001841668    1.726    0.421
       223 -10.4197    159.4307    110.1691   4.1325547302e+01   2.8205217439e+01    0.6095334    0.2486247 -40.18  0.001911922    2.266    0.559
       224 -13.0023    183.0256    113.1515   3.7808606211e+01   2.3124110907e+01      1.40021    0.5866014 -34.06  0.004674972    2.330    0.571
       225  -9.8786    172.9792    120.4110   4.1220237527e+01   2.3692791483e+01    0.3518007    0.2097937 -47.46  0.001663103    1.583    0.368
       226 -10.9751    141.6673    117.6092   4.6893862575e+01   3.0303326103e+01    0.8705518    0.3374885 -49.97   0.00303981    2.665    0.625
       227 -10.4247    130.6039    117.1178   4.9373234672e+01   3.2644560937e+01    0.6138384    0.2978218 -52.46  0.002193127    2.140    0.533
       228  -9.9429     71.0264    119.1062   6.7770532598e+01   4.3617266027e+01    0.4836346    0.2664852 -75.30  0.001777336    2.308    0.567
       229  -9.8206      2.9398    116.6387   9.4672038122e+01   5.2217236216e+01    0.6139473     0.202836  70.84    0.0019232    3.568    0.720
       230  -9.4448    172.8273    138.0681   4.5167285403e+01   2.0507379731e+01     0.392892    0.2568841 -69.09  0.001742694    2.641    0.621
       231 -11.1103    248.0013    116.7903   2.9924681206e+01   1.2198828231e+01    0.4929051    0.3248304 -24.10  0.003287546    1.337    0.252
       232  -8.8439    153.4881    114.4954   4.3579525510e+01   2.8559972304e+01    0.2591838    0.1261823 -51.73 0.0009013866    2.174    0.540
       233 -10.1862     92.5641    111.9514   5.8753295526e+01   4.1528174815e+01    0.5772777    0.3393944 -71.02  0.001774691    2.269    0.559
       234  -9.5549     92.5091    104.6999   5.6875088340e+01   4.3326125189e+01    0.4791211    0.3412565 -14.53   0.00192438    2.238    0.553
       235  -9.9915     79.4678    112.8957   6.3361178638e+01   4.3769285403e+01    0.5326681    0.3337556  77.72  0.001752816    2.485    0.598
       236 -10.2308     21.6307     92.1020   8.3195388806e+01   5.7841461773e+01    0.6495274    0.3009294 -34.59  0.002298023    2.900    0.655
       237 -11.7064     15.8503    106.9032   8.8122549292e+01   5.4116336431e+01      1.15076    0.5033759 -52.64  0.004445404    2.257    0.557
       238  -9.5994     23.2950    137.7934   8.8503375882e+01   4.4673598562e+01    0.6166946    0.2458462  64.14  0.002071287    3.034    0.670
       239 -10.8257    122.2850    110.4852   4.9778686333e+01   3.5809947832e+01    0.7077425    0.3773003 -38.56  0.002649324    2.024    0.506
       240 -13.4339    189.1989    107.2838   3.5467311279e+01   2.2986464735e+01     1.182816    0.6247974 -49.01   0.00559321    1.823    0.451
       241 -10.8912     66.3042    109.2899   6.7275988631e+01   4.7039651501e+01    0.6700881    0.3769623 -74.54  0.002514136    2.188    0.543
       242 -10.7387     61.0525    106.6131   6.8673510406e+01   4.8632955050e+01     0.516949    0.3564093 -32.11  0.002195434    1.843    0.457
       243 -10.9477     32.8487    109.5219   8.0990513923e+01   5.1729722769e+01    0.5684351    0.3563026 -74.61  0.001643172    1.543    0.352
       244 -10.1424    133.6074    108.2873   4.6400044389e+01   3.3906032799e+01    0.5168028    0.2831443 -49.83  0.001840119    1.785    0.440
       245 -10.5256     24.0868    102.6739   8.3779285112e+01   5.4600880242e+01     1.022447    0.3544542  56.25  0.002878644    4.289    0.767
       246  -9.4795     78.7243    105.7308   6.1829194502e+01   4.5756295588e+01    0.4401667    0.3023371  -5.15  0.001666119    2.547    0.607
       247 -11.6149    166.5092    102.3936   3.8066662916e+01   2.8223067818e+01    0.6989733    0.3836427 -35.01  0.003133528    1.758    0.431
       248 -10.3712    165.2884     92.7391   3.5821732069e+01   3.0210627643e+01     0.449485     0.244683 -35.27  0.001997354    1.760    0.432
       249 -10.2666    139.7833    102.7116   4.3510836303e+01   3.3745387660e+01    0.5806687    0.2972111 -45.78  0.002372724    1.841    0.457
       250 -10.6234     45.7064    102.0739   7.3980651740e+01   5.2209523381e+01    0.9032687    0.4130166  63.86  0.002601511    4.035    0.752
       251 -10.8053    150.1727    100.0253   4.0584957270e+01   3.2058640615e+01    0.8000929    0.2758555 -43.43  0.002766249    2.657    0.624
       252  -9.3486      6.6002    102.7890   9.1888588840e+01   5.5947404857e+01    0.2114871    0.1253668  82.98 0.0004824279    1.647    0.393
       253  -8.8673    135.0422    171.3131   5.9791180749e+01   2.0336698974e+01    0.1945824    0.1752359  23.31 0.0007146429    1.076    0.071
       254 -10.0580    160.0089     99.5283   3.8533703844e+01   3.0082490418e+01    0.5557259    0.1939011 -41.69  0.001985308    2.568    0.611
       255 -10.6646    128.9581     99.3822   4.5124784905e+01   3.6775239490e+01    0.6240376    0.3712037 -34.75  0.002309778    1.857    0.461
       256 -10.8709    108.7346     98.2752   5.0139751192e+01   4.1435347256e+01    0.8203653    0.4964437  77.70   0.00260399    3.056    0.673
       257  -9.8004    108.2105     91.8731   4.8425285440e+01   4.2985440891e+01     0.493531    0.3194238  25.67  0.001825449    2.313    0.568
       258  -9.4737     81.7895     99.1255   5.8972095934e+01   4.6844224882e+01    0.4807032    0.2670448 -72.61  0.001655268    2.674    0.626
       259 -10.4830     64.0040     96.0473   6.4838590049e+01   5.0954484249e+01     0.588164     0.354334  78.56  0.001917843    2.768    0.639
       260  -9.3991     94.8824     96.5252   5.3828396283e+01   4.4807820837e+01    0.3698786    0.2217335 -58.91  0.001110335    1.773    0.436
       261  -9.4663     96.3086     90.8192   5.1687323111e+01   4.5840021526e+01    0.5202348    0.3259162 -14.65  0.001640889    3.781    0.736
       262 -10.2457     44.4703     92.0657   7.2218310580e+01   5.5146183708e+01    0.5500939    0.3252185  10.62  0.002127984    2.351    0.575
       263 -10.0468    138.8382     89.4044   4.0060370859e+01   3.6599979585e+01    0.5493172    0.2757456 -38.75  0.002049647    1.952    0.488
       264  -9.9577    124.4801     90.5023   4.3697021601e+01   3.9622741177e+01    0.4741681    0.3256101 -73.06  0.001510231    1.867    0.464
       265  -9.9876    124.4799     86.0273   4.2372382078e+01   4.0540492203e+01    0.7031513    0.4561891   5.68  0.002279485    4.001    0.750
       266  -9.3916     57.8859     91.8753   6.6237601257e+01   5.3106562782e+01    0.2261411    0.2128739 -26.72 0.0002976901    1.166    0.142
       267  -9.6364      5.3370     91.6828   9.1321815418e+01   5.9183982949e+01    0.3684036    0.1188349  54.49  0.001132994    3.792    0.736
       268 -10.2356      7.6064     84.3961   8.9230878027e+01   6.1108625631e+01    0.6507701    0.2837515 -41.10  0.002494516    2.505    0.601
       269  -9.8586     23.1129    130.7904   8.7850344308e+01   4.6663524158e+01    0.5228868    0.2265598 -35.40  0.001700916    3.648    0.726
       270  -9.8386     34.7683     89.0783   7.6099689960e+01   5.7263661483e+01    0.6252865    0.3075094 -85.79  0.002138379    2.868    0.651
       271  -9.9951     36.2821     81.5874   7.3522108191e+01   5.9124082105e+01    0.5315778    0.3156287 -18.40  0.002003348    2.646    0.622
       272  -9.1388    151.0692     87.5559   3.7042157290e+01   3.4218705718e+01    0.3033794    0.2058964 -33.65  0.001441298    1.496    0.332
       273  -9.9509     87.0806     86.8068   5.3492525183e+01   4.8759571128e+01    0.5317394    0.3263912  79.60  0.001717235    2.997    0.666
       274 -10.2120     86.9252     80.3142   5.1460147727e+01   5.0299630860e+01    0.4782488    0.3144716  15.54  0.001739303    2.795    0.642
       275  -9.6404     64.9208     86.9735   6.1892748045e+01   5.3140123914e+01    0.4928119    0.2800495  15.24  0.001617208    3.278    0.695
       276 -10.6412     52.1616    249.8088   8.8770809825e+01   1.5480609584e+01    0.3477162    0.1788364  20.99  0.000915312    1.730    0.422
       277  -9.2507    157.9990     89.9941   3.6402367230e+01   3.2256495143e+01    0.3160261    0.1858243 -38.98  0.001440468    1.571    0.363
       278  -8.9868    164.4752     85.5115   3.4059013041e+01   3.1655633671e+01    0.2498235    0.1333545 -28.00  0.001023536    2.206    0.547
       279 -14.0625    183.1455    102.0296   3.5174238531e+01   2.5007937308e+01     1.753639     1.091901  34.73  0.008529007    2.172    0.540
       280  -9.8325     48.6721     84.2797   6.8227526597e+01   5.6616437210e+01     0.412398    0.2856555  73.91  0.001404181    1.824    0.452
       281  -9.7889     49.1414     77.2130   6.5916734692e+01   5.8389155487e+01    0.5432616    0.3231287 -23.11  0.001940438    2.890    0.654
       282  -9.2273    116.8478     83.3229   4.3468269657e+01   4.2855913674e+01    0.2897593    0.2164164 -37.06 0.0003824626    1.403    0.287
       283  -9.2670    119.1301     78.0892   4.1245818556e+01   4.3384568661e+01      0.47796    0.2108159 -42.59  0.001753253    2.192    0.544
       284 -10.0825    104.3329     82.3360   4.6603445442e+01   4.5948393432e+01    0.5320279    0.2685392 -58.48  0.001427557    2.442    0.591
       285  -9.8073    140.7960     81.1004   3.7250925948e+01   3.7738213369e+01    0.4541511    0.2494806 -44.74  0.001913051    1.692    0.409
       286  -9.4288    171.0564     81.4179   3.1897516014e+01   3.0943665316e+01    0.2960433    0.1774883 -18.87   0.00125233    2.416    0.586
       287  -9.6990    158.7184     80.7379   3.3753556283e+01   3.3745638254e+01    0.3095704    0.2278758 -19.38  0.001202389    1.687    0.407
       288  -9.7420     24.7126     80.5808   7.9321925623e+01   6.0762219066e+01    0.4662349    0.2568348  71.40  0.001357804    2.463    0.594
       289  -8.8596     74.7163     80.5880   5.5988621025e+01   5.2817389948e+01     0.275952    0.1934523 -75.88 0.0008265579    1.776    0.437
       290  -9.5914    150.4559     77.9725   3.4458326169e+01   3.6091522855e+01    0.4108339    0.2358893 -29.40  0.001748158    1.973    0.493
       291 -11.1679    184.8136     75.5159   2.8367599807e+01   2.9009511777e+01    0.5102872    0.2223281 -27.92  0.002003612    2.674    0.626
       292  -9.7689    167.9474     75.5267   3.0806132163e+01   3.2594621540e+01    0.2623397    0.1973805 -20.91  0.001304824    1.569    0.363
       293  -9.6850    128.2703     70.4356   3.6654771836e+01   4.2670410416e+01    0.3981611    0.2968617   7.48   0.00155525    2.184    0.542
       294  -9.1965    157.8915     74.3841   3.2120082931e+01   3.5024438589e+01    0.2868809    0.1925776 -20.06  0.001102543    1.933    0.483
       295  -9.4782    140.6239     73.0030   3.4874081093e+01   3.9258521002e+01    0.4305052    0.2215965 -35.07  0.001558644    1.971    0.493
       296 -10.2486     10.4073     74.2600   8.6065339288e+01   6.3753527839e+01    0.3894154     0.224269  16.37  0.001388551    1.850    0.460
       297  -9.6725     82.5219     72.4236   5.0303754473e+01   5.3044542239e+01    0.4640472     0.294253 -75.32   0.00156647    2.384    0.581
       298 -10.4532     27.6236     71.1518   7.5387736770e+01   6.3004064260e+01    0.9142471    0.4138592 -21.50  0.002338462    6.006    0.834
       299  -9.0681    115.5853     71.2410   3.9911988936e+01   4.5575711060e+01    0.3927775     0.150098 -38.31  0.001312184    2.700    0.630
       300  -9.6625    105.7152     71.5431   4.2638541895e+01   4.7880152468e+01     0.279858     0.180648 -62.80  0.001166107    1.795    0.443
       301  -9.5463     94.9838     70.3776   4.5408957586e+01   5.0650867814e+01    0.5345757    0.2077597 -52.34  0.001694617    2.985    0.665
       302  -9.0130     42.3998     71.6369   6.7512090031e+01   6.0886966280e+01    0.3028501    0.1457166 -75.87 0.0009538083    3.408    0.707
       303 -10.3387    180.7796     77.8011   2.9507612769e+01   2.9484776964e+01    0.2693932    0.2042014  -0.12  0.001386939    1.943    0.485
       304 -10.1058     51.3980     69.4094   6.2261911293e+01   5.9976434305e+01    0.5668475    0.2917742 -73.63  0.001843479    3.315    0.698
       305  -9.2702    127.8501     75.0319   3.8204783695e+01   4.1912309242e+01    0.3919759    0.1936062 -50.64  0.001457552    2.059    0.514
       306  -9.0486    163.1715     69.6766   2.9935725612e+01   3.4614804337e+01    0.2680326    0.1899756  -5.94  0.001231236    2.205    0.546
       307  -8.8636     16.5111     69.9754   8.1582671437e+01   6.4450853264e+01    0.2797296    0.1416712 -78.55  0.001094871    2.081    0.520
       308  -9.9570     17.6669     62.4860   7.9024766400e+01   6.6353201141e+01    0.5805476    0.1357155 -52.34  0.001795771    3.485    0.713
       309  -9.0009      1.4555     69.0057   9.0585297794e+01   6.5717225717e+01    0.2222404    0.1261287 -73.70 0.0009347746    1.591    0.372
       310  -8.6881    157.3006     68.3402   3.0493026737e+01   3.6170250315e+01    0.1379238    0.1147458   9.55 0.0003221228    1.669    0.401
       311  -9.5840    147.0725     65.3602   3.1350398752e+01   3.9055026436e+01    0.5300741     0.242669 -27.99  0.001935481    2.734    0.634
       312  -8.5920     44.3236     67.3248   6.5086581183e+01   6.1678284772e+01    0.1572092     0.116592 -22.46 0.0007048048    1.687    0.407
       313  -9.4991    138.7749     62.7968   3.2073197857e+01   4.1476419856e+01    0.5098281    0.3398749   8.77  0.001955332    3.102    0.678
       314  -9.9169     83.1973     64.8872   4.7307678537e+01   5.4522713416e+01    0.4970572    0.3245179   9.60  0.001678871    3.481    0.713
       315 -10.2040    206.7276    168.0843   4.5211080272e+01   1.0374635864e+01    0.3501352    0.2058325 -28.83  0.001493801    1.470    0.320
       316  -9.6459    121.7659    169.5303   6.2660243539e+01   2.2799609733e+01    0.3394703    0.2612655  76.05  0.001206222    1.819    0.450
       317  -8.5398    159.2759     63.6731   2.8830363003e+01   3.6471154442e+01    0.1501802   0.09685079 -61.59  0.000464277    1.589    0.370
       318  -9.3077    111.0409     58.7548   3.6727248274e+01   4.9021508894e+01    0.3019962    0.2189365   1.47  0.001154808    2.303    0.566
       319  -9.0917    170.0000     61.4277   2.6628872489e+01   3.4378022717e+01    0.3109805   0.07183947 -34.07 0.0009314137    3.908    0.744
       320  -9.0455    100.4059     60.1426   4.0067947880e+01   5.1389557107e+01    0.2290696    0.1358033 -52.76 0.0009439834    1.765    0.434
       321  -9.5047     99.9144     55.3931   3.8409545566e+01   5.2389793901e+01    0.3641734    0.2135894 -28.78  0.001474987    2.083    0.520
       322  -9.6032     73.2854     59.2781   4.8788142497e+01   5.7929312582e+01    0.3846073    0.2538293 -63.15  0.001086728    1.802    0.445
       323  -9.1397    164.5000     59.5082   2.6856295831e+01   3.5918880733e+01    0.1424914    0.1237502 -58.19 0.0008106289    1.008    0.008
       324  -9.5884     39.0379     57.9687   6.4560288593e+01   6.4814207213e+01    0.2486699    0.1790199 -20.47   0.00114035    1.763    0.433
       325 -10.2515      7.5136     57.4785   8.4506513138e+01   6.8488538686e+01    0.3189578    0.1703341  56.52 0.0009579802    2.303    0.566
       326  -9.1979    106.4170     66.8276   4.0810960649e+01   4.8645855160e+01    0.2135739     0.149799 -30.04 0.0006497882    1.658    0.397
       327  -9.1130    130.6226     55.9346   3.1407665435e+01   4.4622808951e+01    0.3560172    0.1393402 -34.85   0.00127251    2.546    0.607
       328  -8.5424    119.3295     55.6641   3.3671607174e+01   4.7490626703e+01    0.1634695    0.1096823 -70.69 0.0007052042    1.729    0.422
       329  -9.6929     62.6797     54.1424   5.1049545164e+01   6.1300377596e+01    0.3338432     0.183931 -57.16  0.001296223    2.123    0.529
       330  -9.8600    107.4647    247.2910   7.6398372569e+01   9.9949153028e+00    0.2705969    0.2054953  78.41  0.001750822    2.005    0.501
       331  -9.1922      1.5912     55.1993   8.8173035679e+01   6.9428404476e+01    0.2144287    0.1062332 -60.29 0.0009545963    1.749    0.428
       332  -9.5194     75.4438     49.9223   4.4042747325e+01   5.9310708326e+01    0.3908193    0.2387816  36.95  0.001639226    1.921    0.480
       333  -9.4272     53.9123     53.2227   5.4730034023e+01   6.3277977115e+01    0.3814805    0.1989857 -65.21  0.001325362    3.020    0.669
       334  -8.7420     20.3367     52.6547   7.4293198232e+01   6.8619861253e+01    0.1508601    0.1052882  62.43 0.0007048899    1.773    0.436
       335  -9.1680    121.4902     65.5725   3.6591996965e+01   4.5208233564e+01    0.3734884    0.1187796 -46.03  0.001061413    3.114    0.679
       336  -9.2403     92.5038     50.5078   3.8612681971e+01   5.5100268621e+01    0.2829694    0.1293286 -49.13  0.001031423    2.355    0.575
       337  -9.1859     31.0755     51.1327   6.6649905179e+01   6.7644389884e+01    0.2324334    0.1734521  70.71 0.0008049181    1.735    0.424
       338  -8.9401     81.8175     46.2099   4.0170197285e+01   5.8479427553e+01    0.3308309    0.1727725 -43.29 0.0008741231    1.940    0.485
       339  -9.0119     64.2696     46.9919   4.7178916551e+01   6.2406348791e+01     0.322534    0.1859375  26.73  0.001184508    2.765    0.638
       340  -9.7436     22.5894     46.6994   7.0541282342e+01   6.9825709701e+01    0.4135452    0.1908938  17.07    0.0014716    2.675    0.626
       341 -10.7860     29.2124    168.7221   8.9248874588e+01   3.5713752152e+01    0.4393159    0.1696185 -59.50  0.001696609    2.652    0.623
       342  -8.4792      1.4925     46.0034   8.6255996781e+01   7.1826303467e+01    0.1961086    0.1251037 -70.26 0.0003773806    1.464    0.317
       343  -9.0185    150.1326     44.0138   2.4251295318e+01   4.1613794249e+01    0.3488297   0.08947384 -31.61  0.001076692    3.744    0.733
       344  -9.5895     16.8182     40.3621   7.2236968494e+01   7.2002897487e+01    0.4083481   0.09668088 -46.66  0.001225374    4.093    0.756
       345  -9.4573    113.6387     41.5542   2.9714083851e+01   5.1200945499e+01    0.3019645    0.2449595  16.24 0.0002108434    1.677    0.404
       346  -9.5882     58.6794     42.6984   4.7615651425e+01   6.4451612528e+01    0.2955648    0.1740998 -63.14  0.001161583    2.460    0.594
       347 -10.2216      4.8811     40.6962   8.2039592047e+01   7.2968499903e+01    0.4979591    0.2467403  87.82  0.001966864    2.921    0.658
       348  -8.8432     69.0490     41.0235   4.2409548957e+01   6.2433137230e+01    0.2414111    0.1795647 -80.40 0.0009679204    1.744    0.427
       349  -8.9454    123.5532     40.2768   2.7277205202e+01   4.8834522451e+01    0.2375427    0.1639034  46.13 0.0005285897    1.676    0.404
       350  -8.9740     83.9335     39.8467   3.6648664627e+01   5.9042812033e+01    0.2346813    0.1964344  33.43 0.0007367897    1.360    0.265
       351  -8.7636     95.6833     38.3370   3.2626225623e+01   5.6311813273e+01    0.1588966    0.1088003 -70.02 0.0007048308    1.699    0.412
       352  -8.9594    106.0495     37.0161   2.9571833684e+01   5.3834272481e+01    0.2320719    0.1753457  32.74  0.000582144    1.678    0.404
       353  -9.0497     26.1438     36.4580   6.3386097930e+01   7.1705648687e+01    0.2673843    0.1874252 -73.07  0.001296627    1.859    0.462
       354  -8.8900     36.8826     40.8059   5.8355876773e+01   6.9072872571e+01    0.1968819    0.1705358  72.59 0.0005327465    1.368    0.269
       355  -9.6878    217.5077     35.0284   1.5203426950e+01   2.7982280640e+01    0.1951935   0.09636081 -34.45  0.001047063    1.632    0.387
       356  -8.5753     38.3210     35.3213   5.4610700547e+01   6.9948245875e+01     0.145179    0.1103065  -3.62 0.0004334393    1.672    0.402
       357  -9.6455      6.3769     33.7293   7.8311200616e+01   7.4557045077e+01    0.2673518    0.1908549 -47.72 0.0008178069    1.286    0.222
       358  -8.6769    119.3919     33.1912   2.5394957931e+01   5.0896986257e+01     0.211362    0.1200393 -44.93 0.0006025852    1.681    0.405
       359  -9.1881    222.4840     32.4650   1.4295830142e+01   2.7338870728e+01    0.1230389   0.08912402 -50.71 0.0001440803    1.030    0.029
       360  -8.4520     60.5251     32.4860   4.1557083447e+01   6.5862301817e+01    0.1445799     0.136415  79.95 0.0001832993    1.084    0.078
       361  -9.1990     25.9831     54.8202   7.1301248020e+01   6.7421769114e+01    0.2443056    0.1581433 -16.76  0.000787867    2.021    0.505
       362  -9.0454     12.9007     30.8105   7.1185279495e+01   7.4632904721e+01    0.2503931    0.1766658  80.96  0.001231667    2.087    0.521
       363  -9.1622    148.2332     28.7495   1.9614936386e+01   4.4095172043e+01    0.2238123   0.09090269  59.70 0.0008983173    2.480    0.597
       364  -8.9943    101.2212     28.2123   2.6944814914e+01   5.6305889322e+01    0.2386111   0.09222574 -41.07 0.0008815576    2.489    0.598
       365  -8.8469      1.6802     27.4715   8.0309977375e+01   7.6370082156e+01    0.1853483    0.1168919  -8.98 0.0004349968    1.667    0.400
       366  -9.1946     44.3295     25.1954   4.5161739805e+01   7.0616914123e+01    0.2248904    0.1763011  37.04  0.000446499    1.247    0.198
       367  -8.5543    118.5140     24.4922   2.2195706470e+01   5.2227984015e+01    0.1444998    0.1281581 -79.94 3.753361e-05    1.000    0.000
       368  -8.7577    110.4809     24.4556   2.3542210032e+01   5.4342901810e+01    0.1443188    0.1300583 -87.36  6.61243e-05    1.017    0.017
       369  -8.1076     58.9914     22.2297   3.6400236671e+01   6.7787194895e+01    0.1820411      0.11132  57.42            0    1.537    0.349
       370  -9.8667     13.1045     21.0457   6.5567536426e+01   7.6715637740e+01     0.275563     0.201605  28.18 0.0005666803    1.346    0.257
       371  -8.6992     84.8614     21.2038   2.7521472989e+01   6.1457152766e+01    0.2200354    0.1793357 -76.49 0.0005467961    1.256    0.204
       372  -8.1459     48.3175     21.6689   4.0851885732e+01   7.0313888121e+01    0.1399067    0.1095808 -78.02 0.0003615443    1.687    0.407
       373  -8.5633     40.8246     21.1972   4.4552474442e+01   7.1991152705e+01    0.1895344    0.1539606  18.66 0.0003566269    1.335    0.251
       374  -8.5450     63.3388     20.6753   3.3806486975e+01   6.6955727722e+01    0.1471928    0.1068695 -73.05 0.0007051248    1.724    0.420
       375  -9.6693     30.6239     18.5117   4.9180352555e+01   7.4437789424e+01     0.311564    0.1268871 -35.74  0.001069273    2.730    0.634
       376  -9.8260    188.9336     20.5222   1.3533871002e+01   3.5510483918e+01    0.2044784    0.1464323 -42.97 0.0009155602    1.184    0.155
       377  -8.6859     50.2644     15.5472   3.5927214170e+01   7.0730173608e+01    0.2046995    0.1143577  45.50 0.0009394346    1.707    0.414
       378  -8.1180     93.3119    249.6884   7.9670293538e+01   1.1160381202e+01    0.1192022   0.07357809  46.92 0.0003618507    1.630    0.386
       379  -8.7970    195.9771    248.2920   5.9505960982e+01   5.6218928750e-01    0.1515542    0.1069399   7.00  0.001164479    1.083    0.077
       380  -8.5197     27.3533     13.2998   4.7613871123e+01   7.5888097532e+01    0.1386594   0.09811957  13.76 0.0007037151    1.698    0.411
       381 -11.4238    243.2052    223.9638   4.8809666011e+01  -9.1364430949e-01    0.3126091     0.204662 -42.59   0.00187335    2.226    0.551
       382 -10.4122      5.7250    243.2677   9.8909811504e+01   2.0977853763e+01    0.2898292    0.1582336  21.46  0.001175238    1.670    0.401
