#   1 NUMBER                 Running object number                                     
#   2 MAG_AUTO               Kron-like elliptical aperture magnitude                    [mag]
#   3 X_IMAGE                Object position along x                                    [pixel]
#   4 Y_IMAGE                Object position along y                                    [pixel]
#   5 X_WORLD                Barycenter position along world x axis                     [deg]
#   6 Y_WORLD                Barycenter position along world y axis                     [deg]
#   7 A_WORLD                Profile RMS along major axis (world units)                 [deg]
#   8 B_WORLD                Profile RMS along minor axis (world units)                 [deg]
#   9 THETA_WORLD            Position angle (CCW/world-x)                               [deg]
#  10 FWHM_WORLD             FWHM assuming a gaussian core                              [deg]
#  11 ELONGATION             A_IMAGE/B_IMAGE                                           
#  12 ELLIPTICITY            1 - B_IMAGE/A_IMAGE                                       
         1 -12.3466    199.6894     38.8031   4.7811788068e+01   3.0496199203e+01     1.370725     1.051117  25.45  0.006683106    1.744    0.427
         2 -11.9491    215.5059     25.5172   4.2453965266e+01   2.8335416191e+01    0.9290959    0.7732736  38.90  0.002366673    1.505    0.336
         3 -11.6681    207.6601     33.4097   4.5361351456e+01   2.9242923291e+01    0.7720846    0.5635476 -42.88  0.003843507    1.321    0.243
         4 -10.8465      1.8867     38.5316   1.0815664819e+02   6.7753117575e+01     1.033184    0.1066303 -61.83   0.00282724    7.326    0.864
         5 -10.7827      2.3013     19.7670   1.0189479432e+02   7.1263415954e+01    0.8958979    0.1400259 -55.97   0.00303897    5.245    0.809
         6  -9.8960      2.2500      7.0588   9.6699843325e+01   7.3418192259e+01    0.6972153    0.1094289 -50.28   0.00253976    4.836    0.793
         7 -11.8800    225.0435     15.8368   3.9159114510e+01   2.7229140418e+01    0.7693685    0.6041847 -69.15  0.002731759    1.108    0.098
         8 -10.3925     40.0493    234.1315   1.2298173034e+02   2.1107241105e+01    0.3818997    0.1809494  74.87  0.001663547    2.062    0.515
         9 -10.5990     99.9458    247.4626   1.1303751616e+02   1.0732449391e+01      0.56968    0.1653279  35.25  0.002147354    3.723    0.731
        10  -9.8496     82.9339    245.4492   1.1601410266e+02   1.3512100168e+01    0.2500134    0.1984852 -45.03  0.001504605    1.859    0.462
        11  -9.4170     86.8421    245.6107   1.1530475461e+02   1.2935770764e+01    0.2311787   0.08949459  44.71   0.00102587    2.000    0.500
        12  -9.8229     70.2124    248.8103   1.1860968755e+02   1.4650187588e+01    0.3541089    0.1942827  66.76  0.001690434    1.698    0.411
        13  -9.8404     75.7440    248.1037   1.1755503716e+02   1.4032810833e+01    0.2807427    0.2503916 -43.13  0.002064464    1.702    0.412
        14  -8.9573     65.7906    250.3733   1.1951757516e+02   1.4957269605e+01    0.2511212    0.1431042  39.76  0.001277218    1.605    0.377
        15  -9.6448     61.4873    249.6357   1.2022537259e+02   1.5642726179e+01    0.3442587    0.1833466  87.29  0.001820254    2.016    0.504
        16 -12.2819     25.2510    223.2772   1.2497533440e+02   2.4849557183e+01    0.9922407    0.7251984  87.04  0.005121108    1.169    0.144
        17 -11.3141     31.4921    247.8492   1.2528549321e+02   1.9566947917e+01    0.7428246    0.6682134  67.48  0.006183888    1.424    0.298
        18 -13.8972      5.1387    139.8450   1.2316876283e+02   4.4840224173e+01     6.268248     1.311073 -79.45   0.01946241    5.055    0.802
        19  -8.7869    168.4942    225.9810   9.6991089863e+01   3.4413181696e+00    0.1638441    0.1153453 -80.99 0.0008105166    2.607    0.616
        20 -10.2699     48.7599    216.1557   1.2004880309e+02   2.3588271126e+01    0.4265704    0.2476708 -68.64  0.002544421    1.717    0.418
        21  -9.6721     45.7511    221.0203   1.2100770327e+02   2.2974969881e+01    0.3355716     0.166503  71.02   0.00180085    1.967    0.492
        22  -8.5533     36.9542    223.9573   1.2287220774e+02   2.3424087854e+01    0.1714315    0.1347391  74.72 0.0008129838    1.078    0.073
        23  -8.8790    165.4774    222.4960   9.7063776230e+01   4.5174369099e+00    0.1309152    0.1117309  37.52  0.000809913    1.040    0.039
        24  -8.6485     94.7029    221.9802   1.1142144833e+02   1.6150672865e+01     0.172401    0.1474265  75.25  0.000456752    1.101    0.091
        25 -11.6726     34.9180    208.7206   1.2218664220e+02   2.6727248917e+01    0.5346118    0.4224366  29.23  0.001596054    1.663    0.399
        26 -11.5940    129.0677    230.8906   1.0555024287e+02   9.1264977651e+00    0.7546402     0.308741  32.34  0.003121034    2.743    0.635
        27  -9.2425     48.9849    224.9929   1.2069316263e+02   2.1799372429e+01    0.2804597    0.1720724  60.13  0.001244306    1.319    0.242
        28 -11.0892     89.2985    228.9925   1.1324530125e+02   1.5609733123e+01    0.4452306    0.2640551 -84.81  0.001379764    1.982    0.496
        29 -10.5769     83.8116    225.0577   1.1393316995e+02   1.7154689109e+01    0.4284399    0.3433767 -85.78  0.002843596    1.255    0.203
        30  -8.5688    191.9910    192.7825   8.6632448792e+01   4.8955317235e+00    0.1874273    0.1595821 -70.84   0.00104277    1.632    0.387
        31 -10.3585     61.8764    180.7116   1.1382054829e+02   2.9579450710e+01    0.3884467    0.2964973 -28.19  0.001616935    2.032    0.508
        32 -10.1993     66.9893    175.1350   1.1194963975e+02   3.0179108805e+01    0.3024806    0.2405516 -42.23 0.0004710367    1.597    0.374
        33  -7.4816    162.2907    167.6401   8.8059374422e+01   1.5315441648e+01    0.1483982    0.1182692  88.11 0.0006353057    1.693    0.409
        34 -10.4586     74.0056    155.6862   1.0748345196e+02   3.3797130984e+01    0.6178572    0.3395538 -74.48  0.002770412    1.928    0.481
        35 -11.7833     68.2395    144.5781   1.0723167531e+02   3.7294076137e+01    0.8371016    0.5491744  82.05  0.002712774    1.796    0.443
        36 -10.1095     76.7529    165.2041   1.0822658768e+02   3.1132689250e+01    0.2950887    0.2572552 -51.04 0.0003858144    1.291    0.225
        37 -11.2886     83.3308    158.8492   1.0559614058e+02   3.1663242433e+01    0.8394417    0.5965014 -47.32  0.001800747    1.542    0.352
        38 -11.7890     64.0324    161.2114   1.1082534642e+02   3.3846417745e+01    0.5084918    0.2935371 -47.13  0.001549816    2.009    0.502
        39 -11.9602      3.9876    184.1232   1.2668325639e+02   3.4967990150e+01     1.096642    0.3527223 -84.04  0.001851128    2.724    0.633
        40  -9.0708    134.2710    147.5847   9.0493754806e+01   2.5269169068e+01    0.5008091    0.1357747 -55.41  0.001209116    5.424    0.816
        41 -10.5754     86.1875    142.5296   1.0202528009e+02   3.5151637829e+01    0.3209635    0.2679564 -43.28 0.0006026562    1.299    0.230
        42  -8.4833     32.3415    144.0627   1.1668435800e+02   4.1599865151e+01    0.1922647    0.1438994 -79.96  0.001163372    1.114    0.102
        43  -9.9511     99.1666    142.6938   9.8562456945e+01   3.2975521475e+01    0.6652707    0.3504888 -32.80  0.002319198    3.263    0.694
        44 -10.7031     59.1061    134.2533   1.0803534962e+02   4.1018814967e+01    0.5472904    0.2529904 -73.83  0.002199629    2.402    0.584
        45  -9.2271    109.1840    132.1098   9.3642399264e+01   3.3719231974e+01    0.3525549    0.2312867  30.47  0.001169663    1.747    0.428
        46 -12.7973      9.5136    207.0769   1.2693578525e+02   2.9664715001e+01    0.9449754     0.729779  30.29  0.004299087    1.722    0.419
        47  -8.7463     96.5299    128.1903   9.6282485322e+01   3.6920281736e+01    0.2717239    0.2270862  -7.43  0.001372281    1.526    0.345
        48  -8.6833    135.0000    121.0422   8.4142090366e+01   3.1134573243e+01    0.2641149   0.08860592 -46.50 0.0008032623    2.948    0.661
        49 -13.4005     44.3713    198.6015   1.1946641938e+02   2.7782056878e+01     2.834576     1.053354  64.35   0.01111687    3.485    0.713
        50  -8.3059    106.7197    120.2442   9.1600679682e+01   3.6989397726e+01    0.1983006    0.1749649 -18.10 0.0003497453    1.292    0.226
        51  -8.0924    205.9911    110.4723   6.5633961163e+01   1.7240928872e+01    0.2207627    0.1505297  52.83 0.0006274412    1.553    0.356
        52  -9.5768    103.1518    229.0226   1.1050302785e+02   1.3537565643e+01    0.2332681    0.1602129  46.17  0.001396936    1.223    0.182
        53  -7.9412     32.6751     95.3294   1.0913042197e+02   5.3285559150e+01    0.1295132   0.09370943  76.01 0.0003792405    1.701    0.412
        54 -10.0788    122.5930    225.7033   1.0619808265e+02   1.1095836449e+01    0.2910826    0.2317607  58.46   0.00124242    1.145    0.127
        55 -10.4087      1.9107     54.1665   1.1205173642e+02   6.4553642352e+01    0.6655812    0.1122062 -63.73  0.002370115    3.992    0.750
        56  -7.6360     47.5362     62.4448   9.5578888457e+01   5.9170053854e+01    0.1317475    0.1131501 -34.92 0.0008068821    1.019    0.018
        57  -9.0739     13.4859     60.0478   1.0863166047e+02   6.2685311650e+01    0.1710111     0.146006 -37.84 0.0004872661    1.121    0.108
        58 -10.4439     87.6701    250.0344   1.1554560421e+02   1.2051507586e+01    0.7668468     0.173475  35.47  0.002476773    5.357    0.813
        59 -10.0257    114.6869    243.2150   1.0981134014e+02   9.2545986306e+00    0.2127572    0.1498826  44.72 0.0009747976    1.157    0.136
        60 -13.5273      6.9246    239.2193   1.2894272302e+02   2.3705611317e+01     2.096834     1.000924 -85.10   0.01369297    1.791    0.442
        61  -9.2580    126.4715    241.3269   1.0732999664e+02   7.7519219396e+00    0.2364788   0.09417978  40.69  0.001097383    2.035    0.509
        62  -7.6005     53.2998    240.6994   1.2104648425e+02   1.8285058269e+01    0.1195269   0.06435241  64.36 0.0002093595    1.582    0.368
        63  -8.8913     62.9188    237.7432   1.1907271574e+02   1.7607288015e+01    0.2319549     0.141066  85.76 0.0007900171    1.623    0.384
        64  -8.7349    137.8143     44.2202   6.0400281350e+01   4.5328431752e+01     0.246736    0.1526168 -70.81 0.0009424426    2.763    0.638
