#   1 NUMBER                 Running object number                                     
#   2 MAG_AUTO               Kron-like elliptical aperture magnitude                    [mag]
#   3 X_IMAGE                Object position along x                                    [pixel]
#   4 Y_IMAGE                Object position along y                                    [pixel]
#   5 X_WORLD                Barycenter position along world x axis                     [deg]
#   6 Y_WORLD                Barycenter position along world y axis                     [deg]
#   7 A_WORLD                Profile RMS along major axis (world units)                 [deg]
#   8 B_WORLD                Profile RMS along minor axis (world units)                 [deg]
#   9 THETA_WORLD            Position angle (CCW/world-x)                               [deg]
#  10 FWHM_WORLD             FWHM assuming a gaussian core                              [deg]
#  11 ELONGATION             A_IMAGE/B_IMAGE                                           
#  12 ELLIPTICITY            1 - B_IMAGE/A_IMAGE                                       
         1 -12.5114    151.8824     51.3708   2.9044775133e+02   6.2403035448e+00   0.05749429   0.04709533 -48.36  0.004246854    1.230    0.187
         2 -11.6245    157.9853     22.4812   2.9019423558e+02   6.5300644006e+00   0.04196146    0.0248515 -75.64  0.003878632    2.123    0.529
         3 -11.9592    163.5903     20.3751   2.9011533748e+02   6.5189820622e+00   0.04328621   0.03304798 -77.12  0.003778231    1.480    0.324
         4  -9.3257    120.0645      9.2507   2.9055500844e+02   6.9165268231e+00   0.01817082   0.01463545 -40.53  0.001380653    1.276    0.216
         5  -9.9727    204.4331    175.0163   2.9061102340e+02   4.5083473312e+00   0.01773329   0.01403006  74.21   0.00120062    1.505    0.336
         6  -9.4019    157.0617    247.5372   2.9161894126e+02   3.9790623474e+00   0.02739852  0.008633718 -54.06  0.002025153    2.933    0.659
         7 -18.7057     87.4847    225.1580   2.9229189621e+02   4.6656263467e+00    0.2858809    0.2770325 -23.88   0.01592126    1.035    0.034
         8  -9.7060    196.5485    176.5806   2.9071293468e+02   4.5397109501e+00   0.02156634    0.0124747  32.21   0.00167683    1.662    0.398
         9 -10.9799    193.4047    167.2680   2.9069117339e+02   4.6651127408e+00   0.03723062   0.01909682 -66.61  0.002296147    2.170    0.539
        10 -10.0532    180.0795    176.0089   2.9090173600e+02   4.6488067244e+00   0.01785556   0.01014402 -60.70  0.001704068    1.790    0.441
        11 -14.0041     66.1784    244.3966   2.9266111661e+02   4.5789199330e+00    0.0294765   0.02071878 -77.30   0.00188432    1.661    0.398
        12  -8.5565     16.0000    199.0058   2.9296459497e+02   5.4059190812e+00   0.01821918  0.007884371 -54.52  0.001542791    2.226    0.551
        13  -9.2503    200.2239    168.0176   2.9061622532e+02   4.6140960826e+00   0.01814058   0.01141908 -54.58  0.001478168    1.578    0.366
        14  -8.9459    203.9351    162.7406   2.9053972549e+02   4.6509133847e+00   0.01857435  0.009873086 -62.70 0.0009121929    1.957    0.489
        15  -9.4830     16.8775    193.4174   2.9291943925e+02   5.4640688733e+00   0.01637418   0.01107323 -62.59 0.0004498468    1.522    0.343
        16  -9.1642    188.7247    159.5281   2.9069723290e+02   4.7822183683e+00   0.01458658   0.01097471   2.51 0.0008720999    1.514    0.339
        17 -10.5635    170.2653    193.6875   2.9112733066e+02   4.5090007485e+00   0.01833935   0.01425452 -52.54 0.0007320256    1.290    0.225
        18  -8.5957    172.4247    150.2229   2.9082927152e+02   4.9895103464e+00   0.01309887  0.009503461  66.97  0.001350099    1.702    0.412
        19  -9.0392     27.6892    146.2017   2.9249773395e+02   5.9342494762e+00   0.01670149   0.01133679 -71.47  0.001321442    1.643    0.391
        20  -9.3133    176.8242    227.3045   2.9126146822e+02   4.0861119044e+00   0.02192361   0.01577949 -65.66   0.00162238    1.460    0.315
        21  -8.9729    162.5445    145.4872   2.9091502791e+02   5.1048668483e+00   0.01184802  0.005521209  39.29 0.0006980376    2.094    0.522
        22  -9.1265     14.8286    219.5923   2.9310674187e+02   5.1789550606e+00   0.01738911  0.009141089 -61.22  0.001212446    1.937    0.484
        23  -9.2278    206.0219    192.9501   2.9070507673e+02   4.2946945322e+00   0.01006045   0.01003174  10.83 0.0006080999    1.025    0.025
        24  -8.6537    159.4832    134.9255   2.9088447267e+02   5.2439494554e+00  0.009795039  0.006570034 -59.56 0.0004615773    1.509    0.337
        25  -8.7820      9.5153    213.0294   2.9312796031e+02   5.2864704065e+00   0.01099092  0.009246427 -36.94 0.0003736931    1.226    0.185
        26  -9.7732    160.6067    128.9224   2.9083361236e+02   5.3051632255e+00   0.01822079   0.01451219 -56.10  0.001744751    1.265    0.210
        27  -9.0809     10.3035    127.8163   2.9258633078e+02   6.2509060306e+00    0.0219445   0.01317384 -15.04  0.001894435    2.520    0.603
        28  -9.5546    164.9555    188.4355   2.9115642940e+02   4.6017447022e+00   0.01827786   0.01415332  18.85  0.001476686    1.316    0.240
        29  -8.6699    152.9814    125.4788   2.9090115351e+02   5.3917850262e+00   0.01063157  0.006432837  29.07  0.001037615    1.610    0.379
        30  -7.9868    199.9998    124.2828   2.9034393113e+02   5.1123046049e+00  0.008832974   0.00821822  19.00 0.0002922507    1.059    0.056
        31 -10.7268    165.9010    181.4441   2.9110152121e+02   4.6753221902e+00   0.03554663   0.01612551  42.74  0.001236766    2.275    0.560
        32  -8.1101    197.3465    187.6297   2.9077298304e+02   4.4091962637e+00  0.009884779    0.0073486  62.22 0.0003903451    1.580    0.367
        33  -8.9065     18.0547    214.5818   2.9303775552e+02   5.2160096255e+00   0.01317914   0.01158452 -65.36 0.0006320707    1.175    0.149
        34 -10.0916    131.5169    111.5155   2.9106453543e+02   5.6840799689e+00   0.02145416   0.01049193  42.87  0.001880509    2.104    0.525
        35  -9.5877    132.4741    120.9636   2.9111269810e+02   5.5707599646e+00   0.01237642  0.009300992  33.87 3.563376e-05    1.296    0.229
        36 -11.5353    133.4064    116.7641   2.9107540469e+02   5.6126793742e+00   0.03339091   0.02283356  59.24  0.002905884    1.757    0.431
        37  -9.3969     90.0214    119.5086   2.9160048793e+02   5.8512412211e+00   0.01450518    0.0112383  35.43 0.0005842806    1.263    0.208
        38  -9.8606     84.9060    116.6449   2.9164241610e+02   5.9155631780e+00   0.01977392   0.01327956 -89.83  0.001334773    2.014    0.503
        39 -10.2933    245.6770    115.1274   2.8975281800e+02   4.9311081230e+00   0.01330094   0.01203474  21.35  0.000463018    1.090    0.082
        40 -11.0748     12.1954    207.3937   2.9306145220e+02   5.3340175616e+00   0.03928594   0.02428872  31.37  0.003119808    1.563    0.360
        41 -11.8544     65.1493    107.4910   2.9181637818e+02   6.1422487877e+00   0.05014215    0.0353339 -19.60  0.004546919    1.736    0.424
        42 -10.1048     18.5912    183.3221   2.9283633834e+02   5.5683151462e+00   0.02695567   0.01480283 -38.30  0.002432589    2.111    0.526
        43  -9.8996    120.6230    102.1787   2.9113337108e+02   5.8579585498e+00   0.01414819  0.009673742 -30.11  0.001429632    1.699    0.411
        44  -8.0225    191.3337    101.9923   2.9030497086e+02   5.4195154334e+00  0.009162513  0.008598655 -57.82 0.0004347962    1.086    0.079
        45  -9.5410    111.0829     99.7731   2.9122994491e+02   5.9446334441e+00   0.01651459   0.00974686  36.96  0.001422552    1.642    0.391
        46  -9.9420    124.0044     97.2066   2.9106253542e+02   5.8934124945e+00   0.01239267  0.009820003 -58.58  0.001212551    1.279    0.218
        47  -8.6580    248.4542     96.5838   2.8960360720e+02   5.1242129790e+00   0.01392388  0.009040247  72.16 0.0009246789    2.205    0.546
        48  -7.4947     44.6151    101.3184   2.9201825198e+02   6.3397452282e+00  0.007327034  0.004872084  59.07 3.312064e-05    1.835    0.455
        49  -8.0666    231.1167    212.1656   2.9053278988e+02   3.9200270743e+00  0.009364089  0.007767909  61.32 0.0004856978    1.331    0.249
        50  -9.2741    181.4246    184.7547   2.9094091386e+02   4.5410416060e+00    0.0191765  0.006844786 -63.46  0.001406543    3.060    0.673
        51  -8.0233     77.0086     90.4973   2.9157076694e+02   6.2617787190e+00  0.009917361  0.006489194  27.23  0.000390223    1.504    0.335
        52  -8.5167    140.3013     82.9978   2.9078241287e+02   5.9533623478e+00  0.009562862  0.008459194 -58.93 0.0004603899    1.151    0.131
        53  -7.2211    215.2776     75.2574   2.8985674710e+02   5.5735423025e+00  0.006484462  0.005019034 -21.12 0.0001796764    1.467    0.318
        54 -11.6413    143.5840     65.7442   2.9063540603e+02   6.1288466564e+00   0.03355761   0.03270338  55.83  0.002303746    1.055    0.052
        55  -9.8080    221.6828    177.3524   2.9042428647e+02   4.3742732634e+00   0.01597711   0.01255476 -79.94 0.0008494745    1.444    0.307
        56 -11.1849    155.5317     41.8471   2.9034503047e+02   6.3256399564e+00   0.02407755    0.0237827  87.89  0.001006267    1.049    0.047
        57  -8.9693    160.1185     58.8537   2.9039848433e+02   6.1040116613e+00  0.009862467  0.008774032  55.40            0    1.180    0.153
        58  -8.4619    197.4762     53.9873   2.8993079393e+02   5.9261029520e+00  0.009552042  0.008681635  22.13 0.0003444958    1.083    0.076
        59  -9.6037    137.0123     44.5787   2.9057907437e+02   6.4100776945e+00   0.01699527   0.01188388  57.09 0.0004345429    1.660    0.398
        60  -8.3439     14.2619    178.9770   2.9285986883e+02   5.6445217234e+00   0.01012767  0.008202065 -33.69 0.0006933165    1.302    0.232
        61  -9.4630    170.0564    238.3646   2.9140977821e+02   4.0025138582e+00   0.01774928   0.01288854 -72.60   0.00188934    1.526    0.345
        62 -10.3939    146.0083     20.7838   2.9032377727e+02   6.6240192722e+00   0.01126574   0.01056937 -51.69 0.0002253834    1.080    0.074
