#   1 NUMBER                 Running object number                                     
#   2 MAG_AUTO               Kron-like elliptical aperture magnitude                    [mag]
#   3 X_IMAGE                Object position along x                                    [pixel]
#   4 Y_IMAGE                Object position along y                                    [pixel]
#   5 X_WORLD                Barycenter position along world x axis                     [deg]
#   6 Y_WORLD                Barycenter position along world y axis                     [deg]
#   7 A_WORLD                Profile RMS along major axis (world units)                 [deg]
#   8 B_WORLD                Profile RMS along minor axis (world units)                 [deg]
#   9 THETA_WORLD            Position angle (CCW/world-x)                               [deg]
#  10 FWHM_WORLD             FWHM assuming a gaussian core                              [deg]
#  11 ELONGATION             A_IMAGE/B_IMAGE                                           
#  12 ELLIPTICITY            1 - B_IMAGE/A_IMAGE                                       
         1 -10.6197     54.7065     18.0161   2.9137658424e+02   7.2233902347e+00   0.02521769   0.01611719 -30.77  0.001549515    1.877    0.467
         2 -11.0699     78.2614      6.8345   2.9102988440e+02   7.2040082208e+00   0.04195482   0.02074735 -41.47  0.003619372    2.282    0.562
         3 -12.6636     62.6047      4.1110   2.9119639252e+02   7.3321568931e+00    0.1010937    0.0224885  30.50  0.006394526    3.950    0.747
         4  99.0000     17.2453     39.9230   2.9195383574e+02   7.2068413534e+00   0.08018792   0.05440819  86.07  0.007828789    2.020    0.505
         5 -12.8577     26.0078     89.1143   2.9215980547e+02   6.5937261576e+00    0.1499786   0.05480915 -54.25   0.01187479    2.584    0.613
         6 -11.6965     52.2181     34.2104   2.9150764729e+02   7.0549985708e+00   0.09288821   0.06511501  46.69  0.009836595    1.489    0.329
         7 -12.0619     41.0131     16.6195   2.9152845955e+02   7.3241718425e+00   0.06468614   0.03401307 -56.49  0.006033679    1.874    0.466
         8 -12.6477     43.8275     66.9593   2.9181184934e+02   6.7350865968e+00   0.09811997   0.04486286  52.81  0.007437056    3.101    0.678
         9 -10.7877     24.6595     36.3052   2.9184411397e+02   7.2020221435e+00   0.03404612   0.01631477 -78.06  0.001329421    3.497    0.714
        10 -11.8322     29.3203     26.2304   2.9172610433e+02   7.2875418188e+00   0.05671076   0.03294006 -56.81  0.003612713    1.709    0.415
        11 -12.0572     18.7015     13.6673   2.9177174364e+02   7.4959060703e+00   0.04765697   0.03200306 -56.88  0.004207827    1.490    0.329
        12 -11.2504     13.5607      8.8772   2.9180197123e+02   7.5820908077e+00   0.02208899   0.01814475  36.58  0.000248134    1.198    0.165
        13 -12.0507      7.0275     27.1597   2.9199356730e+02   7.4149897349e+00   0.08087578   0.03136267  22.39    0.0060406    2.970    0.663
        14 -13.1013      3.8077     10.7080   2.9192798203e+02   7.6216528267e+00    0.0846433   0.04469366 -56.81    0.0079145    1.868    0.465
        15 -12.6854     38.4632     47.5592   2.9175289387e+02   6.9887047284e+00   0.07855282   0.04443376  50.33  0.007236557    2.037    0.509
        16 -11.9624     58.2103     68.8524   2.9165511846e+02   6.6243860323e+00     0.144884   0.04664542 -65.61  0.009646286    3.854    0.741
        17 -12.7216     70.0991     31.2502   2.9127931635e+02   6.9776248148e+00   0.08381318   0.04053053  29.50  0.007472543    1.996    0.499
        18 -11.1286     88.6012     33.0876   2.9107394621e+02   6.8418103607e+00    0.0388229   0.03475182 -21.17  0.003498453    1.161    0.139
        19 -10.9822     88.3463     22.1773   2.9100824714e+02   6.9672293924e+00   0.04295944   0.01981899  28.98  0.003023371    2.101    0.524
        20 -11.8148     67.0092     21.3281   2.9125311505e+02   7.1094363469e+00   0.02877544   0.02744025 -33.34   0.00239072    1.055    0.053
        21 -10.0194     79.7016     16.0180   2.9107082863e+02   7.0908573376e+00   0.02102665   0.01556244 -69.18  0.001267854    1.453    0.312
        22 -11.2315    143.4223     38.8044   2.9046763638e+02   6.4356680681e+00   0.06029392   0.03979023  -7.70  0.004966027    2.029    0.507
        23 -11.1582    121.7219     38.5811   2.9072039374e+02   6.5733919738e+00   0.08446474   0.05167305 -19.98  0.007585142    2.322    0.569
        24 -12.5746    136.0052      5.4039   2.9034397118e+02   6.8608332631e+00   0.06257416   0.03428968  30.56  0.004532236    1.758    0.431
        25 -10.0194     92.9393     15.6686   2.9091340588e+02   7.0125307183e+00   0.01708306   0.01316144  -3.46 0.0002565089    1.486    0.327
        26 -12.2079    114.4806      8.5123   2.9061579527e+02   6.9596763882e+00   0.04859674   0.03954751   3.45  0.003637621    1.327    0.246
        27 -11.0823    123.6035     10.1802   2.9051939511e+02   6.8839390279e+00   0.01739599   0.01669047  68.67 0.0007927918    1.092    0.084
        28 -12.8101    112.8415     22.3859   2.9072243154e+02   6.8124778085e+00   0.03623067   0.02506551  39.76  0.003838626    1.430    0.301
        29 -12.3405    131.0578     20.0608   2.9049433801e+02   6.7254095720e+00   0.05156121   0.02588069  23.86  0.003096802    2.074    0.518
        30 -11.9460    127.0299     15.8434   2.9051494491e+02   6.7983510694e+00   0.06875433   0.03397334   4.52  0.004718139    3.977    0.749
        31 -12.8289    100.1200      6.5211   2.9077158499e+02   7.0716462051e+00   0.04509025   0.02870653 -79.31  0.002106923    1.995    0.499
        32 -12.2094     92.9857      8.6601   2.9086871086e+02   7.0917602479e+00   0.03946246   0.02807043  -4.50  0.003626015    1.723    0.420
        33 -10.9118    167.1443     27.0592   2.9011588412e+02   6.4209832768e+00   0.04617442   0.02669929 -35.18  0.004250671    2.071    0.517
        34  -9.8697    159.5982     24.5274   2.9018825501e+02   6.4967897837e+00   0.01496701   0.01336563  28.69 0.0008918145    1.097    0.088
        35 -11.0495    149.0711     16.4936   2.9026085973e+02   6.6535863875e+00    0.0460632   0.02459595 -47.79  0.003860322    1.898    0.473
        36 -10.3295    156.2557     14.9414   2.9016694062e+02   6.6263773792e+00   0.02675732   0.01682117 -65.04  0.002380232    1.684    0.406
        37 -10.2677    162.9519     16.9493   2.9010120490e+02   6.5618219400e+00   0.02182998   0.01596645 -31.82  0.001508401    1.515    0.340
        38  -9.6501    170.0816     13.8872   2.8999843028e+02   6.5520496406e+00   0.01417119   0.01096659  82.02 0.0003618787    1.578    0.366
        39 -11.5520    164.5571      7.5506   2.9002312754e+02   6.6583906752e+00   0.04888206   0.02621286 -57.04  0.004594279    1.847    0.458
        40 -10.3761    184.9468     14.8292   2.8983040620e+02   6.4485400722e+00   0.03709692   0.02166698 -75.21  0.003399555    2.156    0.536
        41 -10.3077    177.8209     14.3693   2.8991089008e+02   6.4982597592e+00   0.01840479   0.01535275  40.32 0.0009537034    1.193    0.161
        42 -11.5211    184.2502     26.9362   2.8991493113e+02   6.3155884750e+00   0.02841576   0.01776972 -24.03  0.001292588    2.124    0.529
        43 -11.1808    147.4453     26.0278   2.9034000811e+02   6.5555658325e+00   0.03463756   0.02163547 -43.01  0.003450516    1.681    0.405
        44 -10.9708    247.4164      6.0531   2.8904468358e+02   6.1572943814e+00   0.02729883   0.02280605  44.28  0.002370495    1.210    0.173
        45 -10.1989    242.6687     12.6617   2.8914187267e+02   6.1121389474e+00   0.02621353   0.01499932 -58.09  0.001932667    1.747    0.427
        46 -10.7373    241.7872     19.1499   2.8919313233e+02   6.0441274680e+00   0.04790179   0.01310336  32.67  0.003339316    3.228    0.690
        47  -9.7585    237.0988     14.4608   2.8921830239e+02   6.1266160501e+00   0.02111788    0.0118628  36.32  0.001684447    1.714    0.417
        48 -10.1806    232.8416     11.5423   2.8924961832e+02   6.1863347343e+00   0.02058429   0.01369646 -60.02   0.00213379    1.526    0.345
        49  -9.8509    231.6599     17.5506   2.8930135805e+02   6.1256334224e+00   0.01981725   0.01383243  70.06  0.001456674    1.867    0.464
        50  -9.7634    230.9599      2.1737   2.8921245247e+02   6.3042749805e+00   0.04941013   0.02071705 -37.00  0.003496431    3.528    0.717
        51 -10.4042    221.7908     11.0742   2.8937581639e+02   6.2607847934e+00   0.02619152    0.0188367  24.76  0.002819726    1.383    0.277
        52 -10.8265    216.5396     16.1968   2.8946953742e+02   6.2355663792e+00   0.04136439    0.0164388 -48.98  0.003332935    2.516    0.603
        53 -10.4946    211.8190     13.9498   2.8951054568e+02   6.2905602995e+00   0.03315445   0.01610919 -53.67  0.002975552    2.009    0.502
        54  -9.4040    225.4294      5.5301   2.8929828266e+02   6.3008522665e+00   0.01645294   0.01132074 -61.46  0.001076499    1.489    0.328
        55 -10.9722    222.3658      2.0753   2.8931227788e+02   6.3591720066e+00   0.02708824   0.01366046  24.57  0.002025965    2.043    0.510
        56 -10.7563    202.1239     19.3597   2.8965805757e+02   6.2898382892e+00   0.02380289   0.02042661  13.34  0.001802936    1.186    0.157
        57  -8.8477    192.0069     12.3499   2.8973216119e+02   6.4325420171e+00  0.009572596  0.008181716  29.96 0.0005467891    1.144    0.126
        58  -9.7897    189.9823      8.3432   2.8973056217e+02   6.4906190529e+00   0.01210076   0.01073422   1.87 0.0004124416    1.168    0.144
        59 -10.8523    195.4377      4.4048   2.8964188181e+02   6.5011720962e+00   0.03374678   0.03088105  -1.92  0.003804625    1.119    0.106
        60 -11.6631    204.1435      6.7501   2.8955485579e+02   6.4201654449e+00   0.02549917   0.02054213  -9.64 0.0003009981    1.392    0.282
        61 -11.3719    209.4953      3.7557   2.8947336631e+02   6.4206394254e+00   0.03153612   0.01474461  39.70  0.001876877    2.096    0.523
        62  -9.6183    173.5971      8.7110   2.8992462576e+02   6.5887965112e+00   0.01098812   0.01033563  66.14 0.0005490654    1.121    0.108
        63 -10.4889    175.0739      4.6520   2.8988172784e+02   6.6255956926e+00   0.01839686   0.01744284 -69.62   0.00101826    1.094    0.086
        64  -8.8266     36.4835      6.2490   2.9151636867e+02   7.4699392355e+00    0.0125829   0.01033729  82.32 0.0008040836    1.420    0.296
        65  -9.1189     35.0326      3.0000   2.9151295353e+02   7.5157974205e+00   0.01354459  0.008859074   2.62   0.00129857    1.934    0.483
        66 -11.0720     26.3631      4.4850   2.9162405797e+02   7.5526647131e+00   0.03537001   0.01484931 -43.68  0.002806958    2.664    0.625
        67  -8.8483     30.6762      4.6948   2.9157475128e+02   7.5235635181e+00   0.01281028   0.01002621 -16.12  0.001402852    1.452    0.311
        68  -9.3881    157.7500      7.3250   2.9010140368e+02   6.7034298064e+00   0.01340347  0.009853098  60.34 0.0009011669    1.586    0.369
        69  -9.3583    180.2844      7.8163   2.8984071408e+02   6.5571785722e+00   0.01840222   0.01018439 -64.70  0.001712812    1.929    0.482
        70 -12.1161     50.6351     10.8089   2.9137899597e+02   7.3304422109e+00   0.02267971   0.01725234  13.44 0.0006063057    1.390    0.280
        71  -8.7432    241.6771      1.4381   2.8908257996e+02   6.2455166664e+00   0.01250634  0.006021605  33.63 0.0009616166    1.968    0.492
        72  -8.2086    189.4783      1.4623   2.8969302935e+02   6.5717706115e+00  0.006658385  0.006392071  -8.70 8.614672e-05    1.043    0.041
        73 -10.0839     31.2488     11.3405   2.9160983826e+02   7.4446028656e+00    0.0169307   0.01242496 -28.66  0.001490238    1.536    0.349
        74 -10.4439    124.1295      3.0935   2.9046855201e+02   6.9610432042e+00   0.02104699   0.01723575   1.16  0.001728331    1.324    0.245
        75  -9.9116     13.1786    117.2394   2.9248642646e+02   6.3533929319e+00   0.01808176   0.01140602  28.99  0.001289044    1.546    0.353
        76  -8.5264    125.1896    250.3909   2.9200903409e+02   4.1446584224e+00   0.00989722  0.005792513  38.76 0.0009475753    1.672    0.402
        77  -9.7389     54.3796    115.6446   2.9199368546e+02   6.1163582176e+00   0.01808063   0.01131953 -34.21  0.001148418    1.858    0.462
        78 -10.1323    132.5978    110.8508   2.9104770930e+02   5.6849062602e+00   0.03013366   0.01568928 -51.06  0.002782573    1.898    0.473
        79  -9.0892     92.6357    111.4933   2.9151956369e+02   5.9261061045e+00    0.0144895   0.01019671  17.23  0.001516588    1.497    0.332
        80  -9.4458     34.8549    109.9652   2.9218684034e+02   6.3019229007e+00   0.01757532    0.0131672 -56.81  0.001932813    1.342    0.255
        81  -8.7831     38.6233    107.2596   2.9212572157e+02   6.3093374422e+00   0.01104267  0.008137923 -11.89 0.0007433666    1.626    0.385
        82 -10.5619     67.5437    107.7976   2.9179025211e+02   6.1239066410e+00   0.03636857   0.01826689 -44.83  0.003231587    2.103    0.524
        83 -10.0615     74.2830    108.4416   2.9171534958e+02   6.0747616823e+00   0.01751458   0.01482543  48.03  0.001278232    1.216    0.177
        84  -9.4986     75.5107    102.7616   2.9166531933e+02   6.1316998316e+00   0.01908113   0.01165511  17.07  0.001835736    1.806    0.446
        85  -9.1237     81.0892    102.3180   2.9159718897e+02   6.1021059091e+00   0.01044511   0.01027569  58.50  0.001015496    1.046    0.044
        86 -10.8766     87.1947     99.6720   2.9150906024e+02   6.0942564570e+00    0.0357351   0.02105384  -4.44  0.003023729    2.634    0.620
        87  -9.5945    105.7894    109.5956   2.9135363009e+02   5.8659275444e+00   0.01636354    0.0126376  56.50    0.0017704    1.433    0.302
        88  -9.4510    120.5357    108.8364   2.9117622807e+02   5.7828507100e+00   0.01225236  0.009447619  27.07 0.0006778738    1.274    0.215
        89 -12.4004      5.7943    114.9009   2.9255832202e+02   6.4256508921e+00   0.06847875   0.02438494 -45.09  0.004999557    3.132    0.681
        90 -12.0477     17.3233    102.4478   2.9234519401e+02   6.4959195824e+00   0.06358155    0.0395265  80.51  0.005611558    2.522    0.604
        91 -10.2878    114.4886    100.4609   2.9119439295e+02   5.9156369103e+00   0.02441562    0.0122541 -73.55   0.00200148    2.664    0.625
        92 -10.7134    117.4474     98.2721   2.9114599626e+02   5.9221018397e+00   0.02443664   0.01674877  62.55  0.002247172    1.813    0.448
        93  -9.5359    159.5203     96.6241   2.9064323774e+02   5.6788545762e+00   0.01314238   0.01180384  -7.00  0.001279939    1.158    0.137
        94  -8.7187     97.4953    103.9916   2.9141555079e+02   5.9811671137e+00   0.01237844  0.006653692  37.16 0.0008065138    1.796    0.443
        95  -9.5502    187.6798     93.1069   2.9029176237e+02   5.5432068706e+00   0.01518683   0.01144226  84.73  0.001093666    1.651    0.394
        96 -11.2179    124.6999     70.1747   2.9088439109e+02   6.1961455990e+00    0.0532039   0.03047179 -68.93  0.004984914    1.976    0.494
        97 -10.5826     96.2414     63.8849   2.9117817574e+02   6.4446211315e+00   0.02814944   0.01859577 -10.59  0.002692077    2.028    0.507
        98 -11.4495    104.0628     55.2167   2.9103200630e+02   6.4944262599e+00   0.04364666   0.03336586  -6.87  0.002040024    1.518    0.341
        99 -10.3560    114.4827     51.3338   2.9088549268e+02   6.4736855358e+00   0.02329122   0.02278578 -58.03  0.002426961    1.047    0.045
       100  -9.9844     89.4139     78.0215   2.9134704616e+02   6.3264755483e+00   0.02673301   0.01276111  25.60  0.002321361    2.126    0.530
       101  -9.2572    109.7622     59.0571   2.9098939851e+02   6.4153614810e+00   0.01419291   0.01158154  -7.36 0.0009113885    1.357    0.263
       102 -11.3702    114.7403     63.6070   2.9095971167e+02   6.3327191334e+00   0.04401307   0.02691667 -67.10  0.002566542    1.777    0.437
       103 -10.8437    102.5981     70.7274   2.9114673314e+02   6.3273798691e+00   0.03231211   0.01980895 -84.04  0.002046097    2.289    0.563
       104 -10.4874    118.1101     86.4294   2.9106379192e+02   6.0525270579e+00   0.03070951   0.01176495  31.12   0.00211578    2.449    0.592
       105 -10.4228    113.0473     83.2781   2.9110326438e+02   6.1198227424e+00   0.01557029   0.01229691  23.56 0.0003215813    1.257    0.205
       106 -11.5916    105.6447     86.9627   2.9121312070e+02   6.1240037629e+00   0.04561913   0.02991496  32.42  0.004720977    1.475    0.322
       107 -11.8048    100.5509     78.9472   2.9122239627e+02   6.2467368739e+00   0.05328483   0.02812627  51.41  0.004637782    2.303    0.566
       108  -9.7957     82.2099     90.4883   2.9150977491e+02   6.2295818353e+00   0.01592921   0.01159887  27.01  0.001045678    1.350    0.259
       109  -9.3745    121.1589     91.1666   2.9105787887e+02   5.9797392594e+00   0.01245296  0.009646691  44.49 0.0008893425    1.313    0.238
       110  -9.0027    194.3923     89.8461   2.9019275543e+02   5.5383465472e+00   0.01351635  0.007506357 -45.66  0.001259439    1.863    0.463
       111  -9.3991     74.4584     89.0141   2.9159133264e+02   6.2944666070e+00   0.01352551   0.01014219  27.67  0.001185261    1.308    0.235
       112  -9.7814    152.6135     87.0834   2.9066402446e+02   5.8302571016e+00   0.01414325   0.01298951 -11.50 0.0008896515    1.120    0.107
       113 -10.0060     82.7110     84.0400   2.9146339633e+02   6.2997394192e+00   0.02033802   0.01250459 -46.85  0.002019588    1.654    0.395
       114  -8.6169     76.8544     84.8053   2.9153682365e+02   6.3274149928e+00  0.009029931  0.007730608  66.70 0.0005760015    1.295    0.228
       115  -9.5311    161.3621     82.4810   2.9053269478e+02   5.8279990115e+00   0.02257632   0.01272137  56.88  0.001973222    2.355    0.575
       116  -9.3992    217.8726     78.9619   2.8984976453e+02   5.5152904667e+00   0.02731504  0.009765366 -38.95   0.00168883    4.516    0.779
       117 -10.0267    134.6015     81.0058   2.9083660159e+02   6.0114834331e+00   0.02458435    0.0105671 -49.83  0.002059974    2.302    0.566
       118  -9.7481     17.3654     82.4144   2.9221911425e+02   6.7233684697e+00   0.01788176  0.009406594  17.60  0.001558192    2.208    0.547
       119  -9.0265    123.1613     81.2633   2.9097216103e+02   6.0797787894e+00   0.01615122  0.009187999   6.95  0.001381796    2.435    0.589
       120 -10.7964    141.1935     76.0449   2.9072822147e+02   6.0267702832e+00   0.03835941   0.02309766  41.81  0.003776829    1.669    0.401
       121 -10.0145    149.7922     75.7258   2.9062556833e+02   5.9768214997e+00   0.02932984   0.01571679 -34.79  0.002533064    2.361    0.576
       122  -9.8033    132.1163     68.0387   2.9078410783e+02   6.1742259585e+00   0.01968141   0.01103837  38.16  0.001217754    1.735    0.424
       123  -9.6825    143.9156     71.3070   2.9066654000e+02   6.0636158664e+00   0.01566722   0.01134863 -82.24 0.0009411479    1.660    0.398
       124  -9.9718    140.1546     67.4954   2.9068657692e+02   6.1303284550e+00    0.0256199   0.01680189 -28.27  0.002514043    1.852    0.460
       125  -9.3545     62.8228    167.9003   2.9222220665e+02   5.4698018030e+00   0.01201578  0.009766391  45.12 0.0008030857    1.252    0.201
       126  -9.2067      9.1494    167.7229   2.9284940756e+02   5.8041571197e+00   0.01158594  0.009557078 -83.90   0.00131136    1.364    0.267
       127 -10.4120    108.9433     67.9122   2.9105469834e+02   6.3198908134e+00   0.02507305   0.01868977   7.13  0.002246198    1.494    0.331
       128  -9.7787     36.8890     75.5739   2.9194728586e+02   6.6802081350e+00    0.0118731   0.01073472 -58.53 0.0006023764    1.126    0.112
       129 -10.9893     21.2025     73.1344   2.9211591017e+02   6.8050761388e+00   0.02800926   0.01679356  30.43 0.0008510866    1.614    0.380
       130  -8.9152      1.8843     75.4824   2.9235719116e+02   6.8979047654e+00   0.01004215  0.006553699  23.42 0.0007728863    1.549    0.354
       131  -9.5123    214.8755     71.1887   2.8983580810e+02   5.6222283007e+00   0.01572603  0.009416712 -58.59  0.001387795    1.676    0.403
       132 -10.9758     89.1174     89.5640   2.9142304919e+02   6.1971760292e+00   0.02696871   0.02288194 -18.79  0.003134785    1.267    0.211
       133 -10.8271      5.2338     71.3068   2.9229172347e+02   6.9246434726e+00   0.02481832   0.01159652  31.58  0.001710373    2.033    0.508
       134  99.0000      7.8358     50.7156   2.9213200584e+02   7.1424875112e+00   0.03000694   0.01812697  51.07  0.002870541    1.888    0.470
       135 -11.9278     15.4607     62.4290   2.9211607534e+02   6.9622487596e+00   0.05639987   0.02937616  12.81  0.004208974    2.528    0.604
       136 -10.1828     13.2834     56.6714   2.9210547896e+02   7.0411309021e+00   0.01861973   0.01177898  38.17  0.001883654    1.548    0.354
       137  -8.8657    155.0000     70.9106   2.9053430913e+02   5.9990405093e+00   0.01260783  0.008702233 -52.61 0.0007537141    1.446    0.308
       138 -10.3862    152.0728     66.9174   2.9054342817e+02   6.0626254896e+00   0.03538543   0.01354445  25.42  0.002715007    2.737    0.635
       139 -10.2961    250.2317     67.7261   2.8940097876e+02   5.4405068308e+00   0.02645641  0.008052215 -57.09  0.001916757    3.066    0.674
       140  -8.6878    202.0200     68.4885   2.8996905713e+02   5.7331677903e+00    0.0101239  0.006438953  29.17  0.001012145    1.533    0.347
       141 -11.1364    175.7055     57.5203   2.9020769668e+02   6.0219167826e+00   0.04203172   0.02551391  42.01  0.004155321    1.658    0.397
       142 -11.5031    164.9031     62.6091   2.9036614577e+02   6.0315433643e+00   0.03144352   0.02382733 -44.82  0.001980128    1.344    0.256
       143 -10.3163    164.2877     57.2527   2.9033960807e+02   6.0961833837e+00   0.02051567   0.01419739 -37.85  0.001434597    1.559    0.358
       144  -8.7668     65.7351     66.0147   2.9154908111e+02   6.6099298022e+00   0.01596447  0.008839614 -84.13 0.0007731164    2.910    0.656
       145  -8.4474    189.3052     64.6901   2.9009379442e+02   5.8556637612e+00  0.006873507  0.005047432  62.22 0.0003373776    1.612    0.380
       146  -8.6189    135.5145     63.9498   2.9071858468e+02   6.1994930111e+00   0.01035925  0.006639704 -62.12  0.001036644    1.605    0.377
       147  -9.8676     97.9339     22.5471   2.9089817648e+02   6.9034115248e+00   0.02198846   0.01192676  32.18  0.001549816    1.765    0.433
       148  -9.6251     77.8393     61.4889   2.9137875944e+02   6.5861862129e+00   0.02280805   0.01583196 -51.39  0.001908548    1.439    0.305
       149 -10.5869     73.6200     54.6064   2.9138494369e+02   6.6905589031e+00   0.03587393   0.02812899  20.37  0.001810818    1.285    0.222
       150 -10.0515     99.9726     38.2609   2.9097322320e+02   6.7123764734e+00   0.03103196   0.02551769 -53.40  0.003586014    1.223    0.183
       151 -11.9000     86.1488     54.7231   2.9123882496e+02   6.6114035833e+00   0.05504907   0.03079355 -58.24  0.005272115    1.784    0.439
       152 -10.8020     95.5439     47.4922   2.9108322607e+02   6.6351131547e+00    0.0277808   0.02048091  -8.85  0.002195996    1.625    0.385
       153 -10.5461     89.0247     41.3613   2.9112105494e+02   6.7452516324e+00   0.05753118    0.0191169  24.05  0.003968019    3.435    0.709
       154  -8.9973     13.1312    164.8890   2.9278507835e+02   5.8117715157e+00   0.01060684  0.008970288  58.89  0.001156637    1.280    0.219
       155 -10.0771     82.4039     34.0385   2.9115258564e+02   6.8695339945e+00   0.01858554   0.01356085 -47.21  0.002014885    1.385    0.278
       156 -10.3093      2.5533    159.7514   2.9287683086e+02   5.9356120006e+00   0.03262046   0.01612071 -71.14  0.002725724    2.527    0.604
       157 -10.5121     16.6447    158.8697   2.9270631083e+02   5.8585081944e+00   0.02637405   0.01601952 -26.71  0.002414581    2.168    0.539
       158 -11.7802     19.6825    148.2155   2.9260410455e+02   5.9608966628e+00   0.03921897   0.03165481 -34.53  0.003099302    1.303    0.232
       159  -9.4089     73.3631     17.2843   2.9115313741e+02   7.1158688864e+00   0.02617363   0.01437049  52.79  0.002162693    2.242    0.554
       160  -9.9152     34.1400    156.1369   2.9248436160e+02   5.7813160676e+00   0.01378339   0.01066799  71.61 0.0004093633    1.551    0.355
       161 -12.1155     72.9499     75.7556   2.9152572643e+02   6.4544804328e+00   0.08667004   0.04804498   5.96  0.007233218    2.632    0.620
       162  -9.3242    149.7503     60.1168   2.9052779198e+02   6.1543114544e+00    0.0145327   0.01022557  89.29  0.001105876    1.850    0.459
       163 -10.2211    221.4473     58.0922   2.8967645942e+02   5.7297622198e+00    0.0244398   0.01723146 -33.38  0.002143327    1.579    0.367
       164  -8.6311    219.1520     52.8892   2.8967047764e+02   5.8031329498e+00   0.01042439  0.008876353 -29.51 0.0005418509    1.234    0.190
       165 -10.2135    221.4571     48.5723   2.8961631628e+02   5.8376940039e+00   0.01991816   0.01466039 -70.81  0.002145729    1.481    0.325
       166  -9.0261    158.3711     58.5848   2.9041724012e+02   6.1179600683e+00   0.02011311  0.009620763 -30.82   0.00145756    3.432    0.709
       167 -10.1943      3.1432     57.6699   2.9223070244e+02   7.0925096865e+00   0.01900388   0.01444744  48.97  0.001709157    1.384    0.277
       168 -11.0415    124.1813     54.2466   2.9079022216e+02   6.3802423097e+00   0.06516694    0.0334176 -33.97  0.005389825    2.610    0.617
       169  -8.8478     55.6499    155.6884   2.9222971636e+02   5.6531545094e+00  0.007127909  0.005011118 -22.25 0.0007045487    1.719    0.418
       170  -9.2378     52.4920    152.0538   2.9224392943e+02   5.7140640996e+00   0.01003851  0.009110304  15.54  0.001202472    1.097    0.088
       171 -10.2322    109.9004     37.7724   2.9085380678e+02   6.6561579205e+00   0.05211907   0.01976159 -42.71  0.002948651    3.173    0.685
       172 -10.8352    106.8262     30.1429   2.9084178803e+02   6.7618856127e+00    0.0453568   0.01746971  28.72  0.003602389    2.516    0.602
       173 -11.3993     34.8314    150.1368   2.9243871860e+02   5.8452761190e+00   0.03488063   0.01724945  47.66  0.002919518    2.299    0.565
       174 -10.5135    130.4517     40.0357   2.9062729455e+02   6.5025140084e+00   0.02243785   0.01567718 -39.09  0.001215558    1.524    0.344
       175 -10.3998    135.0027     34.1301   2.9053678786e+02   6.5411860076e+00   0.01770649   0.01334937  21.13 0.0004894989    1.340    0.253
       176 -10.8206     39.0046    145.9500   2.9236364295e+02   5.8670467261e+00   0.02561568   0.01792733 -63.50  0.001712565    1.479    0.324
       177 -10.3344     67.3601    148.5294   2.9204778678e+02   5.6619552252e+00   0.01667072    0.0118717 -83.43  0.001645112    1.719    0.418
       178 -10.1500      3.5758    147.2724   2.9278685364e+02   6.0712338278e+00    0.0271766   0.01767533  72.86  0.002302696    2.195    0.545
       179  -9.4448      6.7280    142.5399   2.9272033735e+02   6.1055712577e+00   0.02575698   0.01597321  44.86  0.002549182    1.674    0.403
       180  -8.7745     27.7043    115.9968   2.9230842825e+02   6.2776289941e+00    0.0120828   0.00808266 -44.25 0.0002953903    1.540    0.351
       181  -9.0577     19.9059    119.3441   2.9242077466e+02   6.2878396937e+00   0.01784427   0.01479216 -16.90  0.001303373    1.319    0.242
       182 -10.8035     26.7861    127.0566   2.9238846269e+02   6.1575596392e+00   0.04954888   0.01955571 -49.46  0.003992629    2.510    0.602
       183 -10.1913      4.4273    136.1477   2.9270730645e+02   6.1924949821e+00   0.02692028   0.02475224 -63.48  0.003285718    1.117    0.105
       184 -11.3305    141.6569     51.5920   2.9056885839e+02   6.3015268527e+00   0.02525031   0.01776294   6.32  0.001366023    1.650    0.394
       185 -10.6760    149.9098     50.9656   2.9046829162e+02   6.2572007835e+00   0.02158138   0.02005008 -14.64  0.001867318    1.100    0.091
       186 -10.0311    186.5960     53.1646   2.9005285298e+02   6.0033773373e+00   0.01967097   0.00890688 -40.64  0.001542632    2.640    0.621
       187  -9.7539    188.9235     49.2176   2.9000075221e+02   6.0336328410e+00   0.01736036     0.013153  85.43  0.001551587    1.633    0.387
       188  -9.4475    236.9124     48.9857   2.8943834562e+02   5.7363657538e+00   0.01026324   0.01006018  66.09  0.000755096    1.055    0.052
       189  -9.5680    175.9155     48.0659   2.9014566476e+02   6.1279031519e+00   0.01784152   0.00835562  39.64  0.001549068    2.092    0.522
       190  -8.9308     80.4171     46.8783   2.9125666416e+02   6.7361004377e+00   0.01067878  0.008955927  -5.27 0.0006121635    1.292    0.226
       191  -9.8294    206.9824     44.2213   2.8975807296e+02   5.9775156935e+00   0.02604701   0.01749192  69.85  0.002523644    2.014    0.503
       192 -10.2360    194.6377     31.0078   2.8981909717e+02   6.2045249313e+00   0.01707075   0.01283729 -40.94 0.0009304686    1.380    0.275
       193 -10.7419    202.1991     38.1089   2.8977545424e+02   6.0767379313e+00   0.02178445   0.01728436   6.16   0.00205908    1.367    0.269
       194  -8.7707     76.0329     46.2823   2.9130430983e+02   6.7701033477e+00  0.009465626  0.008696743  22.67 0.0005757791    1.069    0.065
       195  -8.9024    248.1844     44.8103   2.8928035342e+02   5.7131996105e+00  0.009454983  0.007694351 -22.50 0.0005392286    1.348    0.258
       196  -8.2040    200.2947     45.6171   2.8984506909e+02   6.0034644721e+00  0.007083282  0.005051613  67.36 0.0007018426    1.761    0.432
       197 -10.5361    233.0029     41.7681   2.8943848878e+02   5.8426686737e+00   0.02947465    0.0129421 -40.54   0.00231261    2.775    0.640
       198  -8.2854      1.5121     44.4607   2.9216694208e+02   7.2526390882e+00  0.006773105  0.006266721 -17.54 0.0001945716    1.104    0.095
       199 -10.4682    201.3993     57.0023   2.8990392750e+02   5.8673900145e+00   0.02849226   0.01562312 -36.98  0.002471036    2.173    0.540
       200 -11.4214    162.4138     38.0937   2.9024081781e+02   6.3253079360e+00   0.02544803   0.01341335 -57.34  0.002364819    1.879    0.468
       201  -9.4453      9.0023    134.5436   2.9264367346e+02   6.1824500538e+00   0.01314759    0.0114881   4.03 0.0004133461    1.188    0.158
       202 -10.4048    154.2499     24.9945   2.9025381738e+02   6.5248537052e+00   0.01885949   0.01396085 -76.93  0.001596452    1.543    0.352
       203 -11.6702     13.7694    130.0006   2.9255939488e+02   6.2046303410e+00    0.0423568   0.02917696 -63.95  0.003588657    1.508    0.337
       204 -10.6436     19.3898    128.7625   2.9248579635e+02   6.1839378486e+00   0.02202002   0.01626158 -20.21 0.0002033248    1.590    0.371
       205  -9.6976     22.1130    138.2778   2.9251345660e+02   6.0588782029e+00   0.01394289  0.008639194 -46.52 0.0009281749    1.644    0.392
       206 -10.1179    246.4570    140.7670   2.8990509098e+02   4.6351728375e+00   0.01587771  0.008278552  24.02  0.001425397    1.983    0.496
       207  -9.1720     97.6019    140.7969   2.9164530912e+02   5.5621477710e+00   0.00930636  0.006536092 -77.42 0.0006410207    1.668    0.400
       208 -10.3590     54.6451    137.5780   2.9212805203e+02   5.8653328481e+00   0.01591562   0.01414962 -38.42  0.001257096    1.143    0.125
       209 -11.0056    200.0664     31.4923   2.8975866222e+02   6.1651113607e+00   0.02039637   0.01401539  66.83 0.0004310058    1.879    0.468
       210  -9.8214    191.7386     39.3008   2.8990530481e+02   6.1285648657e+00   0.02561764   0.01321889 -43.78   0.00115459    2.076    0.518
       211  -9.4320    180.2708     39.0632   2.9003795964e+02   6.2028682113e+00   0.02332943   0.01613441  88.82  0.002316205    1.920    0.479
       212 -11.7180     55.3486    129.6484   2.9207012400e+02   5.9511364936e+00   0.05019834   0.01823972 -53.93  0.003957049    2.599    0.615
       213 -10.3457    177.5747     19.8593   2.8994840492e+02   6.4375380470e+00   0.01540592   0.01311756  80.26  0.001062213    1.336    0.251
       214  -9.0534     98.4694    135.4922   2.9160187882e+02   5.6170660270e+00  0.006625094  0.006445385  41.63 9.224278e-05    1.038    0.037
       215 -10.4953    177.3296     29.4433   2.9001171751e+02   6.3303637575e+00   0.02691159   0.01702542 -56.02  0.002149326    1.575    0.365
       216  -9.3345     42.8003    134.8218   2.9224950654e+02   5.9700832478e+00  0.009248116  0.007743442  61.17 0.0006411277    1.311    0.238
       217  -8.7785      4.8739     41.1820   2.9210690897e+02   7.2690861925e+00  0.008655732  0.004897403  30.49 0.0008119519    1.706    0.414
       218  -9.2842    173.8296     39.1581   2.9011392383e+02   6.2419985887e+00   0.01439626  0.008373948  39.75  0.001387375    1.695    0.410
       219  -9.2160    168.4656     36.3540   2.9015902083e+02   6.3072885482e+00   0.01321856   0.01131327  74.12   0.00152913    1.317    0.241
       220  -9.8892    246.9747     33.2303   2.8922141325e+02   5.8520586238e+00   0.02676579   0.01389818  24.58  0.002418953    1.978    0.494
       221  -9.5760    234.2957     35.2861   2.8938249080e+02   5.9080827771e+00   0.01242177  0.008733703 -31.62 0.0001618435    1.610    0.379
       222 -10.9155    237.8668     32.8086   2.8932513755e+02   5.9138309747e+00   0.02822336   0.01736962  31.41  0.002029198    1.570    0.363
       223 -10.0652    210.5766     32.9174   2.8964475776e+02   6.0832641881e+00   0.02076157   0.01060835 -57.31  0.001539251    1.934    0.483
       224  -8.0994    222.2871     35.6718   2.8952524658e+02   5.9788151689e+00  0.006832046  0.005081724  65.32 0.0004957262    1.613    0.380
       225  -8.7142     37.6210     34.2584   2.9167918107e+02   7.1449642584e+00   0.01865136   0.01221399 -23.99  0.001455099    1.932    0.482
       226  -8.3772      1.4234     35.4595   2.9211147142e+02   7.3554087832e+00   0.00654855  0.006415826  44.22 3.394005e-05    1.039    0.037
       227 -10.4887    226.4785     28.6450   2.8943192780e+02   6.0322789026e+00   0.03106745   0.01990866  83.29  0.002836964    2.334    0.572
       228 -10.9352     64.7790    130.6500   2.9196595924e+02   5.8812651435e+00   0.01671203   0.01446229  31.33  0.001210177    1.132    0.116
       229  -9.2178    219.6820     25.1699   2.8948943294e+02   6.1141862933e+00   0.01189665  0.008493813  40.94 0.0005464478    1.395    0.283
       230  -8.2568    201.4205     25.4541   2.8970473608e+02   6.2251290497e+00  0.006537428  0.006429848   0.21 0.0003705363    1.009    0.009
       231  -9.1050    193.7024     24.5235   2.8978913493e+02   6.2839092954e+00   0.01143353  0.007384252 -49.69 0.0004355465    1.552    0.355
       232 -11.0710     72.5430    128.6270   2.9186235488e+02   5.8560960909e+00    0.0379138   0.02155888 -46.86  0.002906883    1.794    0.443
       233  -9.4082    240.8558     23.5408   2.8923172979e+02   6.0001888655e+00   0.01679145   0.01074527  89.60  0.001333057    2.255    0.556
       234  -8.8958     78.4900    127.4899   2.9178558593e+02   5.8321136471e+00   0.01164187  0.009049914 -81.58 0.0007564297    1.479    0.324
       235 -11.1082     67.8006    122.5630   2.9187986575e+02   5.9544640707e+00   0.03640164   0.01675945 -39.79  0.002936522    2.639    0.621
       236 -10.0361     68.6376    115.5503   2.9182607862e+02   6.0289916286e+00   0.03370165   0.01084701  35.93  0.002511232    2.824    0.646
       237  -9.1854     95.4247    130.0891   2.9160362050e+02   5.6974041393e+00   0.01232099   0.01040049  69.31  0.001098102    1.333    0.250
       238  -9.6162    230.2753     21.2175   2.8934068392e+02   6.0927318028e+00    0.0212865   0.01401667  73.50  0.001808466    2.154    0.536
       239  -9.9243     34.9945    129.9382   2.9231034970e+02   6.0739678845e+00    0.0151109   0.01001656  50.03  0.001526781    1.648    0.393
       240 -10.3671     37.8928    126.8958   2.9225734009e+02   6.0906111018e+00   0.01266216   0.00977514 -43.59 0.0009837429    1.322    0.244
       241 -10.4311     48.4480    125.6920   2.9212615425e+02   6.0388971649e+00   0.01446711   0.01231041  26.12  0.001690217    1.154    0.134
       242  -8.4830     25.5076    248.5804   2.9316258953e+02   4.7831322516e+00  0.006600643  0.006388661  16.12 0.0001607433    1.013    0.013
       243 -12.8794      7.5789     88.4669   2.9237180994e+02   6.7151234323e+00   0.08315839   0.05423868 -53.40  0.006086854    1.523    0.344
       244 -10.6940     27.5449     51.6203   2.9190647298e+02   7.0102228611e+00   0.03599736   0.01572239 -45.58   0.00297534    2.426    0.588
       245  -9.6532     34.8399    245.6117   2.9303500161e+02   4.7591657011e+00   0.01647085  0.006144405 -47.30  0.001254783    2.777    0.640
       246  -9.8429    141.4788    244.0491   2.9177910271e+02   4.1155650169e+00    0.0152305   0.01024147 -32.49  0.000895945    1.704    0.413
       247  -9.3869    198.1636     16.8133   2.8968830772e+02   6.3434617881e+00   0.01447963  0.009630283  20.18   0.00090708    1.565    0.361
       248  -9.7852    156.3223     52.7327   2.9040435925e+02   6.1971630277e+00   0.03632646   0.01923482 -24.53  0.002791529    3.172    0.685
       249  -9.6835    134.8507     51.9268   2.9065066433e+02   6.3401318555e+00    0.0175304   0.01134388 -24.01  0.001673446    1.981    0.495
       250  -8.9075    210.5752    240.0044   2.9094708720e+02   3.7317393134e+00    0.0104004  0.006526852 -60.73  0.001031636    1.622    0.384
       251  -9.6314     12.3084    232.1769   2.9321467344e+02   5.0513628878e+00     0.015568  0.009290486  62.64  0.001376606    2.352    0.575
       252 -12.5696     53.0587     87.2428   2.9183098167e+02   6.4473776959e+00    0.1203007   0.07897071 -22.61    0.0112628    1.947    0.486
       253  -8.7290    227.5139    231.6733   2.9069721979e+02   3.7208951472e+00   0.01175956  0.006061272  28.30 0.0007516113    1.898    0.473
       254 -11.3855     49.3925     25.6215   2.9148677418e+02   7.1700316803e+00   0.02452055   0.01197851  24.89  0.001342867    2.096    0.523
       255  -9.2374    136.6610    225.4856   2.9171921137e+02   4.3565464772e+00   0.01177529  0.006261991 -61.20 0.0008347305    1.919    0.479
       256 -10.1532    123.9961    206.0036   2.9174524548e+02   4.6567540249e+00    0.0093638  0.009145902   5.43            0    1.008    0.008
       257  -9.0583    234.5143    200.5099   2.9041997484e+02   4.0312379148e+00  0.006621566  0.006461406   2.58 0.0008104147    1.011    0.011
       258 -10.2989     26.4984    191.6653   2.9279591523e+02   5.4244831964e+00   0.02280939    0.0148649 -55.40  0.002349135    1.527    0.345
       259 -10.8690      4.5299    184.9005   2.9301077138e+02   5.6373032799e+00   0.03311019   0.01488641  47.32  0.002674814    2.588    0.614
       260  -9.8282     39.0032    177.1212   2.9255867914e+02   5.5125199368e+00    0.0160541   0.01250315 -59.73   0.00124998    1.304    0.233
       261 -11.3290     17.8451    186.5452   2.9286520119e+02   5.5362637144e+00    0.0231547   0.01791175  -0.63 0.0006846763    1.462    0.316
       262  -8.1602     48.6858    176.3443   2.9244049698e+02   5.4613828870e+00  0.007063374  0.005035802  63.77 0.0007047423    1.711    0.416
       263 -10.3463    104.5167    116.4846   2.9141179113e+02   5.7955453630e+00   0.02044666  0.006130503  29.71  0.001442349    3.124    0.680
       264 -10.2241     91.8537    120.0627   2.9158251107e+02   5.8335606636e+00   0.02023567   0.01334421 -30.16  0.002001981    1.798    0.444
       265 -10.3012     97.3864    115.1837   2.9148710411e+02   5.8546443419e+00    0.0238228   0.01296432  11.39  0.002032161    2.417    0.586
       266  -9.8866     40.2643    116.5505   2.9216473322e+02   6.1935458725e+00   0.02156126    0.0121908  72.90  0.001667756    3.260    0.693
