#   1 NUMBER                 Running object number                                     
#   2 MAG_AUTO               Kron-like elliptical aperture magnitude                    [mag]
#   3 X_IMAGE                Object position along x                                    [pixel]
#   4 Y_IMAGE                Object position along y                                    [pixel]
#   5 X_WORLD                Barycenter position along world x axis                     [deg]
#   6 Y_WORLD                Barycenter position along world y axis                     [deg]
#   7 A_WORLD                Profile RMS along major axis (world units)                 [deg]
#   8 B_WORLD                Profile RMS along minor axis (world units)                 [deg]
#   9 THETA_WORLD            Position angle (CCW/world-x)                               [deg]
#  10 FWHM_WORLD             FWHM assuming a gaussian core                              [deg]
#  11 ELONGATION             A_IMAGE/B_IMAGE                                           
#  12 ELLIPTICITY            1 - B_IMAGE/A_IMAGE                                       
         1 -13.4164    213.1162     47.8328   3.5834770131e+02   2.7486522065e+01    0.8792398    0.7954658  21.49  0.001398786    1.566    0.362
         2 -12.3741      2.7229      7.9364   4.7416220288e+01   7.8499074973e+01     1.080269    0.3028967 -54.26  0.004283243    3.430    0.708
         3 -11.9442      2.2565     23.1992   5.5930179856e+01   7.5480628076e+01    0.5929434    0.1913795 -60.40  0.002455573    2.759    0.638
         4 -12.8569    240.0039     28.8934   3.5218093520e+02   2.4790011774e+01     0.605853     0.428088  70.08  0.004216364    1.724    0.420
         5 -12.3839    237.5444     23.1492   3.5111764816e+02   2.5885338158e+01    0.4620201     0.391865  20.41  0.003045548    1.913    0.477
         6  -9.9024    227.3081      9.6426   3.4876491240e+02   2.9246290221e+01    0.2019737    0.1636445 -53.49 0.0007353318    1.140    0.123
         7 -11.7997     10.7797      9.6626   4.0742658565e+01   7.7317984019e+01    0.3435298    0.1953843  38.31  0.001842543    1.871    0.465
         8 -10.6511    102.8190    237.8575   5.6735889180e+01   1.1532038864e+01    0.2377417    0.1913297 -46.90 0.0007776903    1.459    0.314
         9 -10.7413    100.8539    246.8789   5.8066190660e+01   1.0196856569e+01     0.533166    0.2494102 -69.46  0.002614984    3.191    0.687
        10  -8.9947     50.6984    250.6829   6.9236230748e+01   1.5067060461e+01    0.1060295   0.08630911 -12.12 0.0007022806    1.619    0.382
        11 -10.3148     47.0663    250.6966   7.0022342241e+01   1.5437818626e+01    0.1593794   0.08708955  28.95            0    1.496    0.332
        12 -15.8820     68.9454    144.7046   5.3463590473e+01   3.6931272500e+01     11.00745     5.280647 -77.82   0.03878258    2.805    0.644
        13  -9.6956    174.7802    223.0034   3.9941387615e+01   5.2282894388e+00    0.1446761   0.08950064 -39.21 0.0004665901    1.648    0.393
        14 -12.8488    115.4408    228.8976   5.2967828929e+01   1.1586000859e+01    0.6039599    0.3486771  36.32  0.001757283    1.504    0.335
        15 -11.2909    106.0296    214.1749   5.3329857964e+01   1.5550480201e+01    0.3279196    0.2329623 -60.69  0.001452809    1.625    0.385
        16  -8.7466     81.2435    214.6317   5.9285127494e+01   1.8636371806e+01     0.130352   0.08961856  62.58 0.0006935886    1.615    0.381
        17  -9.6464    210.8796    198.8151   2.9715585973e+01   4.5314960330e+00    0.1756853    0.1291458  -8.05 0.0004702975    1.171    0.146
        18 -11.8197     67.7011    191.3763   6.0214074795e+01   2.5458890277e+01    0.4597293     0.262298  87.93   0.00204108    2.291    0.563
        19  -9.0808     73.9735    193.0528   5.8742400676e+01   2.4267440764e+01    0.1593899    0.1451872  49.86 0.0003505509    1.018    0.017
        20 -11.5459     43.6121    235.8321   6.9910352051e+01   1.8618826772e+01    0.2085233    0.1991881  87.84 0.0005403727    1.250    0.200
        21  -9.1471    234.5591    190.8244   2.4661136575e+01   2.9324437233e+00    0.1451337   0.08994304 -39.62 0.0005249361    1.567    0.362
        22 -10.6569    133.3077    189.4062   4.3464952218e+01   1.6661605506e+01    0.2684403    0.1256343  27.92   0.00114026    2.184    0.542
        23 -13.6165     54.2802    224.4145   6.6652823996e+01   1.9782703788e+01     2.679706    0.8695624 -73.86   0.01074817    3.660    0.727
        24 -15.5385      3.6807    247.1373   7.9143455489e+01   2.0164594272e+01    0.9656187    0.5191532  43.17  0.005737994    1.342    0.255
        25 -11.6460    171.7159    174.5173   3.2630599883e+01   1.3745347772e+01    0.6415854    0.4009714   2.49   0.00256083    2.242    0.554
        26 -17.9292      6.0755    217.5704   7.7742290413e+01   2.5949200411e+01     6.495548     2.291537 -83.14   0.02114314    2.858    0.650
        27 -11.0868    104.5076    170.8323   4.7524977260e+01   2.5037183866e+01    0.3623751    0.2911188 -78.46  0.001058393    1.430    0.301
        28  -9.9651     42.0414    230.4091   6.9938482085e+01   1.9865783705e+01    0.2917873    0.1803948 -79.58  0.001024352    1.800    0.445
        29 -11.5227     88.6519    169.6047   5.1614810565e+01   2.7741625028e+01    0.4374842    0.2858527  37.87  0.001208662    1.441    0.306
        30 -10.3201    110.8727    167.2212   4.5248919994e+01   2.4860224915e+01    0.2590943    0.2043355  84.47  0.001013716    1.598    0.374
        31 -13.5802    129.1486    229.9053   5.0115689522e+01   9.7034593981e+00     0.860361    0.4404563  27.95  0.004528479    1.680    0.405
        32 -10.8587    179.4151    165.8498   2.9515813312e+01   1.4138232899e+01    0.4764138    0.3005051 -63.70  0.002189431    2.634    0.620
        33  -9.2359    194.4865    224.9851   3.6618468489e+01   2.6612838468e+00     0.162741   0.09907072 -34.68  0.001025844    1.570    0.363
        34 -12.1251     96.6317    226.3661   5.6908569130e+01   1.4393493237e+01    0.7154309    0.4090565  30.20  0.003853946    1.480    0.324
        35  -9.7740     61.0035    158.5376   5.8053088575e+01   3.4427320759e+01    0.2660473    0.1911058  84.12 0.0004299439    1.507    0.337
        36 -10.6527     79.5202    150.0654   5.1088804635e+01   3.3964057061e+01    0.3041563    0.2599121  -7.05 0.0005868712    1.400    0.286
        37 -10.9598    133.0000    139.9657   3.4313266856e+01   2.7190162675e+01    0.4129269    0.2059297 -54.66  0.001633532    2.138    0.532
        38 -10.9071    134.0000    147.9888   3.5758544259e+01   2.5251599979e+01    0.4393051    0.2127892 -56.66   0.00166745    2.355    0.575
        39 -10.7901    108.8938    145.2768   4.1687548823e+01   3.0309104351e+01    0.2946115    0.2818505  69.26 0.0006746428    1.062    0.058
        40 -11.8706     86.9708    144.4411   4.7833961805e+01   3.4218062673e+01     0.667244     0.467378  -1.01  0.002866273    2.097    0.523
        41 -10.8316     29.7285    143.6900   6.6283615638e+01   4.2043655954e+01    0.4021015    0.3451737   1.14   0.00139563    1.378    0.274
        42 -10.4362     36.6785    142.6443   6.3810336625e+01   4.1606554193e+01    0.3269556    0.2361775 -83.13 0.0008557583    1.332    0.249
        43 -12.5195     53.0057    144.8674   5.8651380748e+01   3.9073835728e+01    0.9086191    0.5373508  47.48  0.001533897    1.665    0.399
        44 -11.7999     88.1000    222.5228   5.8476773501e+01   1.6192079745e+01     0.597948    0.3048919  43.08  0.002843907    1.760    0.432
        45 -11.8400    103.8942    131.6522   4.0240763384e+01   3.4476378426e+01    0.7069117    0.4673847   6.41  0.002064978    2.512    0.602
        46 -11.5157     88.5948    131.6608   4.4816586282e+01   3.7183336224e+01    0.2935077    0.2661823 -56.66 0.0004223256    1.100    0.091
        47 -11.2715     44.6338    130.7395   5.9406341642e+01   4.3945424517e+01    0.4237427    0.3511404  14.29  0.002198652    1.363    0.267
        48 -10.4060    221.9849    128.2986   1.4986929911e+01   1.3896027810e+01    0.4600936    0.1506379 -47.46  0.001590104    3.339    0.701
        49 -11.0803    111.1012    125.7817   3.6874519294e+01   3.4543279935e+01    0.3664851    0.2724881  14.82  0.001006128    1.756    0.430
        50  -8.9838    160.6809    123.6838   2.4411207159e+01   2.5374020268e+01    0.1441647    0.1118337  -6.18 0.0003125367    1.656    0.396
        51 -10.1790     97.8195    121.0419   3.9639010804e+01   3.8187860112e+01    0.2991745    0.2292983  21.32  0.001186775    1.544    0.352
        52 -14.5028     40.6987    181.1394   6.6605887199e+01   3.1124567335e+01     2.851251     1.919903 -76.68   0.01495848    1.493    0.330
        53 -12.9891    108.3489    228.9182   5.4542381745e+01   1.2464845823e+01    0.7185237     0.334696  33.03  0.003572768    1.779    0.438
        54  -9.5474     59.1756    230.5452   6.5967817982e+01   1.7998601668e+01    0.1818412    0.1480229  67.63 0.0003791687    1.243    0.196
        55  -9.6143    107.0638    115.9948   3.5690360945e+01   3.7643277747e+01    0.2276665     0.219006 -70.35 0.0003449986    1.010    0.010
        56  -9.9913    127.5096    110.9840   2.8886984496e+01   3.4667710395e+01    0.2408001    0.1461444 -46.79  0.001032461    1.589    0.371
        57 -11.6702     29.9139    107.8589   6.1405723071e+01   5.1890630101e+01    0.5544785    0.2034755  44.70   0.00145763    2.894    0.654
        58 -11.5694     24.0395    105.1957   6.3428437016e+01   5.3191998237e+01    0.4126398    0.3317651  80.47  0.000953481    1.239    0.193
        59  -9.8088    114.6796    108.6557   3.1680666734e+01   3.7828051284e+01    0.1578523     0.124285 -10.54 0.0007049734    1.727    0.421
        60  -9.9422    134.4136    106.1930   2.5952367673e+01   3.4263051488e+01    0.2227467    0.1373326 -55.71 0.0009488986    1.696    0.411
        61 -10.5927     32.3771     96.5903   5.8333103731e+01   5.4714785069e+01    0.5010219     0.171137  47.39   0.00156981    3.638    0.725
        62 -11.2358    163.7840    223.2488   4.2101948935e+01   6.5176490154e+00    0.2422514    0.1505629 -31.54  0.001432526    1.626    0.385
        63 -12.1246     19.1667     89.6672   6.3036520940e+01   5.7863244156e+01    0.5076487    0.3788931 -32.20  0.002631481    1.449    0.310
        64  -9.1221     71.9527    223.9346   6.2418493469e+01   1.7861224073e+01     0.179266    0.1429438 -24.92  0.001076698    1.581    0.367
        65  -8.9634    132.4961     68.4782   1.5650139951e+01   4.2165693896e+01    0.1516442    0.1365696 -72.99 0.0008095764    1.059    0.056
        66 -11.9882    190.4348     63.8470   4.6694273344e+00   2.9842434302e+01    0.4147432    0.3446111  62.30  0.001439114    1.372    0.271
        67  -8.7547     85.6442     62.2872   2.6368423976e+01   5.4164672285e+01    0.1542847    0.1178846  87.21 0.0007023594    1.675    0.403
        68 -13.6010    206.2176     52.9066   2.0321305813e-01   2.8172981286e+01     1.033248    0.7651692  30.62  0.004598734    2.117    0.528
        69 -10.3066    139.6604    249.3619   5.0274525565e+01   5.3184329912e+00    0.1731281    0.1255042  47.19  0.001125728    1.678    0.404
        70 -11.3098      7.8747     53.8319   6.1707047994e+01   6.8021722532e+01      0.22603    0.1828202  22.87 0.0004912717    1.328    0.247
        71  -9.0707     33.2768     51.6699   4.5633484626e+01   6.5976751668e+01    0.1355966    0.1094539  75.52 0.0006994328    1.597    0.374
        72  -9.8621      6.6873     46.3301   6.0500881604e+01   6.9925937454e+01    0.1319404   0.09700837  60.28 0.0003901665    1.673    0.402
        73 -11.2869      2.3165     42.8945   6.2589718502e+01   7.1014806155e+01    0.5124777    0.1324256 -69.40  0.001765896    3.576    0.720
        74 -11.5028    125.0518    243.3485   5.2571100709e+01   7.9538707361e+00      0.26812    0.1653578 -47.87  0.001016323    1.878    0.467
        75 -11.8014      2.1645     33.0763   5.9747206051e+01   7.3309271149e+01    0.5588466    0.1879232 -65.21  0.002273157    2.709    0.631
        76  -9.5201     76.0372    245.1426   6.3307236138e+01   1.3338202649e+01    0.1612675    0.1451446  14.46 0.0004451145    1.193    0.162
        77 -10.4796     18.9453     36.6643   4.8652990057e+01   7.1063964172e+01    0.1849495    0.1660884   7.44 0.0005534175    1.106    0.095
        78 -10.6073     28.9119     35.9772   4.1734915175e+01   6.9966976784e+01     0.206769    0.1911189  -9.17 0.0005375044    1.009    0.009
        79  -8.6784     68.4016    244.5294   6.4942765245e+01   1.4300188100e+01    0.2423759    0.1731806  18.46  0.001524026    1.372    0.271
        80 -10.9724     46.9956    229.1169   6.8702902159e+01   1.9608887834e+01    0.2564633    0.2010615  58.05  0.001253032    1.154    0.133
        81 -11.4510    242.7140     23.0068   3.5080868099e+02   2.4978944779e+01    0.2891013    0.2303087 -37.83  0.001394755    1.283    0.221
        82 -10.1623     32.8326     37.5729   4.0046308737e+01   6.9080725359e+01    0.1905192    0.1218375  44.66 0.0007585189    1.710    0.415
        83  -9.3074     60.8700     21.4540   1.7540354139e+01   6.6618456066e+01    0.2068658    0.1265389  54.11  0.001013092    1.546    0.353
        84  -9.0958     71.7593    232.5970   6.3225037898e+01   1.6171958509e+01    0.1778015   0.09329613  37.33 0.0009339368    1.531    0.347
