#   1 NUMBER                 Running object number                                     
#   2 MAG_AUTO               Kron-like elliptical aperture magnitude                    [mag]
#   3 X_IMAGE                Object position along x                                    [pixel]
#   4 Y_IMAGE                Object position along y                                    [pixel]
#   5 X_WORLD                Barycenter position along world x axis                     [deg]
#   6 Y_WORLD                Barycenter position along world y axis                     [deg]
#   7 A_WORLD                Profile RMS along major axis (world units)                 [deg]
#   8 B_WORLD                Profile RMS along minor axis (world units)                 [deg]
#   9 THETA_WORLD            Position angle (CCW/world-x)                               [deg]
#  10 FWHM_WORLD             FWHM assuming a gaussian core                              [deg]
#  11 ELONGATION             A_IMAGE/B_IMAGE                                           
#  12 ELLIPTICITY            1 - B_IMAGE/A_IMAGE                                       
         1 -13.8070    249.9557     74.0486   5.0084699899e+01   1.3744236879e+01      9.70514     2.065255 -30.09   0.01960667    9.844    0.898
         2 -13.4506    231.2673     24.7769   4.0678070573e+01   2.4732223072e+01     4.381816     1.272731  63.10   0.01690098    3.155    0.683
         3 -13.4046    150.8720     45.3548   5.7954315474e+01   4.1928219904e+01     3.283398     1.908322  77.02   0.01320662    2.292    0.564
         4 -10.9687    183.8626     35.0053   4.9001192065e+01   3.4971957675e+01    0.8011009    0.4745761 -33.21  0.002649359    1.728    0.421
         5 -13.6896    224.0704     56.3616   4.9121211709e+01   2.2129984206e+01      7.60816     1.250992 -40.41   0.02167795    4.431    0.774
         6 -13.1685    181.1994     81.2680   6.2645658168e+01   2.8447797122e+01     5.968501    0.9595945 -40.54  0.003845946    5.381    0.814
         7  -9.8423    179.0977     23.8456   4.6482611506e+01   3.7558793125e+01    0.4516099    0.3436712 -86.23  0.002175078    1.325    0.245
         8  -8.1268    142.3836     12.1204   4.8543778856e+01   4.8102898110e+01    0.1810173    0.1205561 -40.07 0.0003825121    1.644    0.392
         9  -8.2511    233.6169      8.6637   3.6774712488e+01   2.6069745459e+01    0.1695571    0.1006341 -45.03 0.0005861078    1.500    0.334
        10 -10.7091    249.0186      3.6934   3.4564686486e+01   2.3225205430e+01    0.2752986     0.170734 -59.27 0.0004021582    1.347    0.258
        11  -8.3813    145.0158      1.4876   4.4562391509e+01   4.8411040436e+01    0.2055416    0.1168542  66.98 0.0004916809    1.533    0.348
        12  -9.0394    209.7939    195.4746   8.3622879170e+01   1.2858749760e+00    0.2238842    0.1736135 -26.58 -4.206398e-05    1.293    0.227
        13 -10.1254    108.5885    250.0335   1.1167808080e+02   9.0261355130e+00     0.210053    0.1503082  44.52 0.0003919263    1.148    0.129
        14  -9.0459    192.1104    192.8464   8.6620263166e+01   4.8628727353e+00    0.3268146    0.1966658 -67.12  0.001209874    3.922    0.745
        15 -10.0599    177.4669    190.9777   8.9285765183e+01   7.8799447507e+00    0.2427877    0.2299142  23.76 0.0004086662    1.062    0.058
        16  -7.9715    236.4728    191.4424   7.7898497188e+01  -2.5751434115e+00     0.129137    0.1102135   1.14 8.888598e-05    1.040    0.039
        17  -8.1602    129.9551    190.1152   9.9504161612e+01   1.6786825990e+01    0.1565189    0.1477218  75.75 0.0002932409    1.069    0.064
        18 -13.5727     28.1316    172.5982   1.2067400735e+02   3.5324726365e+01     1.394055     1.146583 -11.58  0.002215247    1.897    0.473
        19 -12.9306     41.4415    164.6275   1.1678601424e+02   3.5774261298e+01     1.062758    0.9997032  11.38  0.002750333    1.425    0.298
        20  -9.3740    235.6043    179.5372   7.5712501393e+01  -6.2490806947e-01    0.2284798    0.2265082  -9.11 0.0008007705    1.351    0.260
        21  -8.8648    198.5448    175.1811   8.1868068654e+01   6.7723174249e+00    0.2331697    0.1852896  34.49 0.0002569329    1.208    0.172
        22  -8.3826     63.1243    168.9564   1.1208348991e+02   3.2134928486e+01    0.1903105    0.1487789  74.84 0.0002857359    1.182    0.154
        23  -9.7587    242.3128    165.7713   7.1727251105e+01   3.8674980367e-01    0.2257807    0.1919845  20.36  0.001240733    1.172    0.147
        24  -9.2533    250.3073    238.0349   8.3808908556e+01  -1.0734590547e+01    0.1577564    0.1206512   1.68 0.0004845835    1.079    0.073
        25  -8.5778    111.4743    235.9914   1.0963676503e+02   1.0999714500e+01    0.1597959    0.1205257 -69.88 0.0004346142    1.523    0.343
        26 -10.0344     66.4785    144.4551   1.0768535955e+02   3.7563181643e+01    0.5042444    0.2773073 -79.44  0.001585266    2.077    0.519
        27  -7.9329    222.5586    145.0338   7.0756189573e+01   7.4816810036e+00    0.2077727    0.1314527 -36.72 0.0003385723    1.482    0.325
        28  -9.9056    192.5798    143.6571   7.6263848901e+01   1.3865848177e+01    0.3556108    0.2447703   5.78  0.001100742    2.092    0.522
        29 -10.3446    249.4514    142.3959   6.5571471347e+01   2.8677861233e+00    0.3176381      0.21892 -22.35  0.001699763    1.370    0.270
        30  -9.8361    158.3817    137.7604   8.2433624910e+01   2.2419399259e+01    0.2483299    0.2292731  78.78  0.001282386    1.178    0.151
        31 -10.3822    180.9069    136.5934   7.7079309938e+01   1.7767095355e+01    0.2902833     0.255707  89.84  0.001472079    1.364    0.267
        32  -9.4221    228.6064    135.6954   6.7572297986e+01   7.9193875501e+00    0.2239372    0.1631743   0.69 0.0007518112    1.680    0.405
        33  -8.3761    221.4982    227.9789   8.7194820181e+01  -5.3868201994e+00    0.1623731    0.1128362 -26.28  0.000387418    1.493    0.330
        34 -11.7559    203.9248    112.5656   6.6540303645e+01   1.7318519757e+01    0.8146216    0.5873317  -3.05  0.003205338    1.903    0.474
        35 -10.9431    160.7487    117.6443   7.6930044950e+01   2.6184722500e+01    0.7750422    0.4589786 -70.00 0.0009070903    3.193    0.687
        36  -8.4174    145.2548    123.1023   8.2056747569e+01   2.8464996518e+01    0.2102655    0.2001628 -69.75 0.0002740803    1.076    0.070
        37 -10.3100    211.7847    115.1401   6.5725233322e+01   1.5098880153e+01    0.5223656    0.2507105 -49.51  0.001980083    2.322    0.569
        38  -9.6774    214.4883    120.5610   6.6548025260e+01   1.3525805322e+01    0.2512549    0.2386795 -33.60  0.000683696    1.034    0.033
        39  -9.2708    217.5209    121.4773   6.6221815352e+01   1.2711648706e+01    0.2454829    0.2239566  58.74 0.0007192089    1.213    0.175
        40 -10.6487    168.0645    113.3746   7.4145047093e+01   2.5395120907e+01    0.4481555    0.3573562 -47.78 0.0007702708    1.255    0.203
        41  -9.8098    134.9991    108.7308   8.0952779294e+01   3.3872070992e+01     1.001226     0.184314 -45.63  0.002294608    5.401    0.815
        42 -12.2701    236.8762     48.9822   4.5788798288e+01   2.0267406397e+01    0.6980682    0.4710004  50.04  0.001657611    1.745    0.427
        43 -10.3355    202.5745    103.3363   6.4467107120e+01   1.9329410432e+01    0.4065611    0.3209573  49.90   0.00168274    1.325    0.245
        44  -9.7161    150.7178     99.2458   7.4390508486e+01   3.2337410766e+01    0.3779803    0.3550444  40.28  0.001728474    1.079    0.073
        45  -7.9718    143.6601    103.6887   7.7363873447e+01   3.3031039010e+01    0.1626499    0.1266896   5.77 0.0007045588    1.693    0.409
        46  -9.0441     62.5152    184.4854   1.1410984778e+02   2.8640015040e+01    0.2144203    0.1818323 -88.09 0.0001566477    1.083    0.076
        47  -7.8289     90.9966     97.7096   9.0561242625e+01   4.5086503494e+01    0.1569269    0.1347167  35.78 0.0002329768    1.235    0.191
        48  -8.8869    136.4571     96.0428   7.7065390231e+01   3.6275414309e+01    0.2725175    0.2178883  71.22 0.0006485489    1.480    0.324
        49 -10.1993    167.9994     90.0472   6.7832287517e+01   3.0049485739e+01    0.3225506    0.2784362 -35.84 0.0003891529    1.157    0.136
        50  -9.5531    161.3165     93.3150   7.0237291867e+01   3.1026148354e+01    0.3732923    0.2820389  24.38  0.001073136    1.616    0.381
        51 -10.0862    164.4820     91.5111   6.9017535567e+01   3.0617702221e+01    0.3822665    0.2792605 -48.85 0.0009668411    1.393    0.282
        52 -10.5679      2.8255     92.1505   1.1846986971e+02   5.6090996561e+01    0.3905436    0.1407557 -74.68  0.001754379    2.370    0.578
        53  -9.2802     15.3929     93.3968   1.1454265805e+02   5.5070992393e+01    0.2174896    0.1052391  -9.29 0.0009608815    3.447    0.710
        54  -9.7089    173.9784    149.0361   8.1467668363e+01   1.6726250918e+01    0.2516537    0.1885703   5.38  0.001007141    1.741    0.426
        55  -9.9377    145.2430     88.9011   7.2776411548e+01   3.5717463946e+01    0.3423876    0.2526253 -48.07 0.0009673208    1.378    0.274
        56 -11.4701    161.5961     82.5973   6.7106262388e+01   3.3016637785e+01    0.5092426    0.3550652 -38.92  0.001039556    1.426    0.299
        57  -9.3431      1.6302     84.4880   1.1774649639e+02   5.7901001294e+01    0.2172728   0.09052276 -70.21 0.0007138123    1.871    0.465
        58 -11.2112    181.9839    145.1590   7.8841634158e+01   1.5815209885e+01    0.8546088    0.5433925 -83.60  0.002734385    4.137    0.758
        59 -10.0857    107.1584     77.4922   7.9685062224e+01   4.6433524343e+01    0.2577636    0.2237195 -33.08 0.0002706805    1.119    0.107
        60  -8.8925    203.3683     73.8054   5.6635141446e+01   2.4318766391e+01    0.3172686    0.2139495 -31.23   0.00109196    1.509    0.337
        61 -10.8510    199.4323     70.4390   5.6385896158e+01   2.5828073378e+01    0.3752095     0.284297  44.74  0.001321051    1.441    0.306
        62 -10.9626    205.6431     67.0528   5.4484914627e+01   2.4867100422e+01    0.4285387    0.3092098  41.50  0.001202154    1.601    0.376
        63 -11.2474    145.8497     61.1744   6.4137342819e+01   4.0695186554e+01    0.7488835     0.573389 -43.47  0.003665553    1.341    0.254
        64 -12.4366    181.0098     67.0177   5.8658236755e+01   3.0950290443e+01    0.6512014    0.5324205  22.88  0.001809001    1.481    0.325
        65 -10.7060    125.1643     56.0350   6.7513048098e+01   4.6494107345e+01    0.5430011     0.260766 -27.46  0.002044025    2.443    0.591
        66  -9.0654    220.2330    210.5020   8.4407761446e+01  -2.7547147611e+00    0.2132397    0.2015019 -73.56 0.0007715538    1.614    0.380
        67  -7.7761    194.2290     48.9569   5.1360196240e+01   3.0439917520e+01    0.1782073    0.1167873 -36.01  0.000416693    1.516    0.340
        68  -9.0489    107.8745     45.6288   6.8571687411e+01   5.2059173624e+01    0.2551055     0.198402 -37.69 0.0005557745    1.334    0.251
        69  -9.7297    106.1527     39.6377   6.6834349714e+01   5.3344770239e+01    0.3260875    0.2001431 -41.30   0.00153782    1.760    0.432
        70  -9.8430      6.8583    209.0755   1.2753291163e+02   2.9505716500e+01    0.1838595     0.111486  68.93  0.001030172    1.266    0.210
        71  -7.8615    222.2720    205.7035   8.3162901613e+01  -2.3818377578e+00    0.1079379    0.1045015  77.30 0.0002065582    1.523    0.343
        72 -10.7506    188.6203     76.9073   6.0032052617e+01   2.7389316898e+01    0.3452523    0.3107456 -57.32 0.0003912208    1.092    0.084
        73  -8.8408    249.0340     36.0322   4.1567621813e+01   1.9350288042e+01    0.2074462    0.1581744 -62.47  0.001039261    1.134    0.118
        74  -9.7544    209.4791    126.5030   6.8895132097e+01   1.3513501348e+01    0.3366762    0.2278631 -13.69  0.001481743    1.886    0.470
        75  -8.5931    240.0992     32.1321   4.1533979688e+01   2.1813597662e+01    0.2111136    0.1283063 -66.38 0.0006455585    1.629    0.386
        76 -10.4592    201.6113    121.4709   6.9179744397e+01   1.6166482215e+01      0.36475    0.2649611 -33.88 0.0002190762    1.335    0.251
        77  -9.0977    208.0819    204.9278   8.5698160572e+01   8.6181452432e-02    0.1934422    0.1694965  12.62 0.0003606862    1.044    0.042
        78  -9.1501    131.9969     17.9691   5.2515084611e+01   5.0068623868e+01    0.2041352    0.1893854  53.36            0    1.031    0.030
        79  -9.7672    226.1890    130.3288   6.6766320544e+01   9.3391300491e+00    0.3224658    0.1877411  70.47  0.001213614    3.245    0.692
        80  -9.9351     69.3231    144.6747   1.0695606145e+02   3.7121629913e+01    0.3860342    0.2651147  72.65  0.001381227    1.641    0.391
        81  -8.8454    235.2338     12.9712   3.7613615659e+01   2.5223970787e+01    0.1941211    0.1364939 -59.45 0.0004522484    1.230    0.187
        82 -10.4801    239.6518    203.2228   7.9562340247e+01  -4.7762224014e+00    0.2305879    0.1874951  23.68 0.0004110734    1.193    0.162
        83  -7.6933    151.6413     11.7196   4.6874876829e+01   4.5825115095e+01    0.1459918    0.0908592  41.70 0.0003329236    1.666    0.400
        84  -8.4706    244.3197    201.2914   7.8384911298e+01  -5.2221349848e+00    0.1291587   0.08345345   4.76            0    1.604    0.377
        85  -9.3465    209.1100    200.0547   8.4609422460e+01   6.7465594329e-01     0.196695    0.1706191   8.44 0.0002973102    1.020    0.020
        86  -8.8397    134.3270    146.9854   9.0351019978e+01   2.5393597253e+01    0.3577869    0.1412053 -49.76  0.001236091    2.559    0.609
        87 -10.1914    161.2867    128.5490   7.9543179943e+01   2.3754574556e+01    0.4208166    0.2702994 -60.45   0.00171975    1.926    0.481
