#   1 NUMBER                 Running object number                                     
#   2 MAG_AUTO               Kron-like elliptical aperture magnitude                    [mag]
#   3 X_IMAGE                Object position along x                                    [pixel]
#   4 Y_IMAGE                Object position along y                                    [pixel]
#   5 X_WORLD                Barycenter position along world x axis                     [deg]
#   6 Y_WORLD                Barycenter position along world y axis                     [deg]
#   7 A_WORLD                Profile RMS along major axis (world units)                 [deg]
#   8 B_WORLD                Profile RMS along minor axis (world units)                 [deg]
#   9 THETA_WORLD            Position angle (CCW/world-x)                               [deg]
#  10 FWHM_WORLD             FWHM assuming a gaussian core                              [deg]
#  11 ELONGATION             A_IMAGE/B_IMAGE                                           
#  12 ELLIPTICITY            1 - B_IMAGE/A_IMAGE                                       
         1 -17.5240    240.0276     39.2276   3.0074901375e+00   2.1290378308e+01     7.605365     1.857968 -31.40   0.02840678    3.728    0.732
         2 -12.5190    144.2966      4.9731   3.6525799692e+00   4.7148793064e+01    0.4639208    0.1899326 -50.20  0.001889747    2.726    0.633
         3 -12.7507    131.4856      2.2312   4.4265416743e+00   5.0669612521e+01    0.4244313    0.2051168  77.81  0.001898706    1.916    0.478
         4 -12.2098    119.6324      4.0184   6.8558229070e+00   5.3571287522e+01    0.4091717    0.1185338  61.58  0.001521526    2.591    0.614
         5 -11.7805    159.4043      2.6250   1.2198473950e+00   4.3518760461e+01    0.3512936    0.1441446 -85.92  0.001327142    3.007    0.667
         6 -11.7905    138.6237      2.2597   3.4861024942e+00   4.8832886309e+01    0.2548348     0.148594  86.19   0.00099342    1.644    0.392
         7 -10.8397     99.6910      2.1631   9.8008001083e+00   5.8785785622e+01    0.3320172   0.07522604  49.84  0.001092814    3.448    0.710
         8 -10.3547     92.6555      2.6728   1.1560727167e+01   6.0490637396e+01     0.148458   0.08405191  38.69 0.0007050653    1.745    0.427
         9 -12.9680    217.2202     89.6460   1.6743238605e+01   1.8955760919e+01    0.4624731    0.3034834 -77.08  0.002232529    2.253    0.556
        10 -12.7581     11.9534    231.4996   8.8203250272e+01   2.4007538473e+01    0.3641546    0.1452986  66.65  0.001862331    2.340    0.573
        11 -14.0342     15.2332    240.5583   8.7888155536e+01   2.1978371069e+01    0.6736873    0.3988929  59.04    0.0044416    1.339    0.253
        12 -13.2527     20.1999    247.6381   8.7175604736e+01   2.0196777843e+01    0.4820161    0.3951237 -56.14  0.003615956    1.680    0.405
        13 -12.2469      6.1878    235.4624   8.9532519741e+01   2.3769194259e+01    0.3973323    0.1875009  56.96   0.00195983    1.643    0.392
        14 -12.5320      4.1117    248.9190   9.0371165266e+01   2.1468520801e+01    0.6794488     0.280996  26.10  0.003765936    2.346    0.574
        15 -13.3099      3.8427    242.5253   9.0229533497e+01   2.2655710813e+01    0.7011565    0.4019578  57.47  0.004531194    1.316    0.240
        16 -11.9615     28.0162    232.5123   8.4860695949e+01   2.2255334119e+01    0.2241568    0.1287124  66.93 0.0009846379    1.591    0.371
        17 -11.4749     15.7895    230.7845   8.7371510253e+01   2.3789173898e+01    0.1698763   0.09886532  55.58 0.0006462864    1.349    0.259
        18 -12.0995      3.4841    221.5376   8.9607805806e+01   2.6719960682e+01     0.241027    0.1306071  51.71 0.0009986552    1.416    0.294
        19 -11.2087      1.4867    218.5197   8.9926882364e+01   2.7494931957e+01     0.186505   0.09810139 -89.38 0.0008904868    1.797    0.444
        20 -12.6612      6.0666    229.6607   8.9355389445e+01   2.4894399627e+01    0.2816082    0.1837127  62.04  0.001177092    1.210    0.174
        21 -12.3763      5.5081    225.5263   8.9323765953e+01   2.5752912894e+01    0.2384109    0.1406697  54.12   0.00080879    1.301    0.231
        22 -10.5844     32.3975    229.2276   8.3736911642e+01   2.2444843122e+01    0.1582716    0.0961447  77.22 0.0008974244    1.633    0.388
        23 -11.1949     23.5445    227.6830   8.5575165357e+01   2.3648750920e+01    0.2097506   0.09050605  30.05  0.001085234    2.020    0.505
        24 -13.4157     21.8416    239.1902   8.6479604573e+01   2.1597399507e+01    0.3946023    0.3061164  65.99  0.002885346    1.131    0.116
        25 -10.9663      1.5133    226.9534   9.0204691011e+01   2.5816436354e+01    0.1589937   0.09517321  86.57 0.0007238062    1.562    0.360
        26 -10.3166     16.3147    223.3107   8.6929605883e+01   2.5215509787e+01    0.1016652    0.0879989 -35.98 0.0005127385    1.634    0.388
        27 -12.6040     13.1634    215.9100   8.7283263080e+01   2.7009716448e+01    0.2939339    0.1400104  35.13  0.001599054    1.739    0.425
        28 -11.7268      1.9232    212.3525   8.9612826971e+01   2.8717837934e+01    0.2325173    0.1227249  69.14  0.001357364    1.624    0.384
        29 -10.5905     22.3198    210.3184   8.4931853262e+01   2.7317775865e+01    0.1099166   0.09072607 -36.76  0.000434006    1.663    0.399
        30 -12.0165      6.5191    204.5105   8.8272679850e+01   2.9980060732e+01    0.2906839       0.1052  56.45  0.001296382    2.338    0.572
        31 -10.4088      1.4941    204.5023   8.9413356267e+01   3.0395460305e+01     0.118697   0.09242723  62.15 -7.129845e-05    1.011    0.010
        32 -11.6460     12.8043    203.2105   8.6762576355e+01   2.9715827178e+01    0.2264857   0.07150344  55.80 0.0009511084    2.813    0.644
        33 -12.0969    247.7724    168.6685   2.8686284042e+01   2.0118332841e+00    0.2418797    0.1851304  50.64  0.001385604    1.926    0.481
        34 -11.5493    248.2420    163.1608   2.7584318615e+01   2.7110368123e+00     0.186295    0.1637845  82.73  0.001066068    2.036    0.509
        35 -13.2381    238.1973    159.5237   2.8419906220e+01   4.6630263391e+00    0.4651115    0.2037085 -44.77  0.002119157    2.594    0.614
        36 -11.0432    250.4917    158.0598   2.6288883315e+01   3.1084647609e+00    0.1968078    0.1467919  -5.33  0.001089238    1.243    0.195
        37 -12.3924    233.4345    154.2806   2.8143506082e+01   6.1491335745e+00    0.3242699    0.1922433  52.27  0.001695399    2.342    0.573
        38 -12.2313    246.2430    158.4201   2.6982950014e+01   3.6568454953e+00    0.2181822    0.1991317 -31.33  0.001085918    1.334    0.250
        39 -12.9319    242.8093    154.3006   2.6703915516e+01   4.7406144384e+00    0.3699879     0.296001  60.46  0.002337118    1.917    0.478
        40 -12.3544    238.8281    150.7956   2.6621289409e+01   5.8431001313e+00    0.2993211    0.2219139 -36.03  0.001526331    1.272    0.214
        41 -12.7002    234.7939    147.4264   2.6571540541e+01   6.9614366296e+00    0.3153437    0.2616951 -44.72  0.001432488    1.375    0.273
        42 -14.5139    243.3282    128.1601   2.1434631196e+01   8.4652563327e+00     1.619309    0.9410636 -61.15  0.007254046    3.259    0.693
        43 -13.8961    245.5750    115.6013   1.8565832842e+01   9.9301069588e+00     1.455536    0.6468105 -50.83  0.006290657    2.891    0.654
        44 -11.3268     34.3124    248.3925   8.4364165593e+01   1.8629208599e+01    0.2159456    0.1468732 -80.95  0.001472991    1.647    0.393
        45 -11.6437    215.2760     80.4600   1.4881406788e+01   2.0730444940e+01    0.2556922    0.1685055 -37.74 0.0009039274    1.362    0.266
        46 -12.0365    219.4393    117.8988   2.2767686054e+01   1.4128036472e+01    0.4189112    0.2743241 -60.10   0.00207471    2.070    0.517
        47 -12.6985    219.0786     85.5745   1.5555197806e+01   1.9198665828e+01    0.3831725    0.2904961  82.44  0.002177135    1.594    0.373
        48 -12.1257    222.3906    105.6892   1.9632769207e+01   1.5491915674e+01    0.2874292    0.2006526 -63.96  0.001511513    1.840    0.457
        49 -10.6353    211.5033     76.8973   1.4549911095e+01   2.2040939851e+01    0.2054814    0.1206012 -36.61 0.0008148646    1.547    0.353
        50 -10.7801    130.6742    148.6803   4.8232092881e+01   2.5737448326e+01    0.1566684    0.1183515  -3.64 0.0007046458    1.680    0.405
        51 -10.2687    203.3638     66.2647   1.3075968918e+01   2.5346810305e+01    0.1952209    0.1109328 -43.46 0.0008345304    1.604    0.377
        52  -9.9747     17.6872     66.7078   7.0123514377e+01   6.2691115982e+01    0.1406621   0.08559821 -34.54 0.0005187771    1.591    0.372
        53 -11.8705    225.1799     99.5028   1.7866187898e+01   1.5914837017e+01    0.2176686    0.1592073 -50.47 0.0008210487    1.344    0.256
        54  -9.9540     23.6888     48.6458   6.1937303489e+01   6.6326210105e+01    0.1456749   0.08515483 -29.23 0.0006671472    1.729    0.422
        55 -11.3933    220.1118    128.6172   2.4984765471e+01   1.2306191562e+01    0.2828061    0.1943693 -56.00  0.001479179    1.830    0.453
        56 -11.8598    227.6630    125.1115   2.3066788961e+01   1.1532634470e+01    0.3474783    0.2365552 -54.80  0.001519235    1.783    0.439
        57 -10.1698     77.2179     16.6107   2.2329639441e+01   6.2797156369e+01     0.212399    0.1064014  45.77 0.0009553456    1.742    0.426
        58 -10.0912    203.3027     98.3204   2.0841528258e+01   2.0417595754e+01    0.1365918    0.1065538   5.57 0.0005593808    1.629    0.386
        59 -11.0129     26.4820    249.0317   8.5978826891e+01   1.9320502786e+01    0.2279578    0.1066244  46.02 0.0008864637    1.546    0.353
        60 -10.3872     46.4164    245.1955   8.1682202987e+01   1.7899963731e+01    0.1530553   0.09684534  76.39   0.00095087    1.658    0.397
        61 -11.0813     29.4760    243.9745   8.5132714785e+01   1.9938400641e+01    0.1537443    0.1022959  88.85 0.0007642042    1.568    0.362
        62 -10.1674     55.2380    240.9735   7.9533285435e+01   1.7671440094e+01    0.1389472   0.09718814 -81.82   0.00088642    1.635    0.388
        63 -11.8121    230.5061    141.6257   2.6065552577e+01   8.5185685993e+00    0.2523504    0.1916933 -41.66  0.001020524    1.330    0.248
        64 -10.3671     38.7818    240.8324   8.3029249631e+01   1.9542852294e+01     0.171528    0.1038457  55.53 0.0008489099    1.362    0.266
        65 -11.9700     14.0080    247.9675   8.8415191916e+01   2.0731682143e+01     0.384272    0.2344356  44.42  0.001773412    1.217    0.178
        66 -10.2734     46.0112    237.7753   8.1304254719e+01   1.9322971122e+01    0.1748401    0.1037596  64.19  0.000999823    1.606    0.377
        67 -10.8201    210.3793     91.6707   1.8190518571e+01   2.0023829091e+01    0.2111543    0.1482851 -62.89 0.0009581716    1.663    0.399
