#   1 NUMBER                 Running object number                                     
#   2 MAG_AUTO               Kron-like elliptical aperture magnitude                    [mag]
#   3 X_IMAGE                Object position along x                                    [pixel]
#   4 Y_IMAGE                Object position along y                                    [pixel]
#   5 X_WORLD                Barycenter position along world x axis                     [deg]
#   6 Y_WORLD                Barycenter position along world y axis                     [deg]
#   7 A_WORLD                Profile RMS along major axis (world units)                 [deg]
#   8 B_WORLD                Profile RMS along minor axis (world units)                 [deg]
#   9 THETA_WORLD            Position angle (CCW/world-x)                               [deg]
#  10 FWHM_WORLD             FWHM assuming a gaussian core                              [deg]
#  11 ELONGATION             A_IMAGE/B_IMAGE                                           
#  12 ELLIPTICITY            1 - B_IMAGE/A_IMAGE                                       
         1 -14.7066    246.4816     11.9773   9.0050137726e+00   2.2108448638e+01     2.196058      0.64362 -37.90  0.009218249    2.769    0.639
         2 -13.0329     24.8139      4.4447   5.5165549615e+01   7.1030575390e+01    0.5324151    0.3249545  -5.10  0.003377817    1.534    0.348
         3 -12.4255      1.6793     24.6678   7.5405403631e+01   6.9710821127e+01    0.6963305    0.1068154 -56.00   0.00246077    4.832    0.793
         4 -13.2801      6.5614     10.6840   6.7567548218e+01   7.1760829263e+01    0.7875554    0.3900996 -31.17   0.00485521    1.600    0.375
         5 -12.5121     10.2492      2.0210   6.1587847342e+01   7.2772672217e+01    0.8490728     0.185075  25.73   0.00341479    5.061    0.802
         6 -12.1649     13.2595     12.8724   6.5004375667e+01   7.0908755040e+01     0.327219     0.173606 -27.55  0.001538713    1.569    0.363
         7 -12.5395     15.6980      6.9079   6.1029786069e+01   7.1597192649e+01    0.4493325    0.2223737 -25.41  0.002631595    1.779    0.438
         8 -13.5508     12.0970     23.4775   6.9878495245e+01   6.9260332059e+01    0.6481487    0.2429474 -35.50  0.003273306    2.252    0.556
         9 -12.4138     19.5206     14.3049   6.2457126563e+01   7.0146630867e+01     0.368242    0.1715604 -26.07  0.001979476    2.053    0.513
        10 -10.6692     41.5100      2.4798   4.6342693851e+01   6.9193834268e+01     0.222191    0.1317732   5.45  0.001288804    1.711    0.416
        11 -11.3441     77.3714    246.6506   8.9645570854e+01   1.4453518018e+01    0.1873779    0.1042708  65.25   0.00104603    1.637    0.389
        12 -12.0395    248.9569    225.2030   5.4665837755e+01  -9.6731445320e+00    0.3075381    0.1610343 -26.60  0.001720033    1.909    0.476
        13 -11.8118    249.9846    232.8190   5.5799168919e+01  -1.0725822942e+01    0.3540213    0.1699517 -28.30  0.001953293    2.120    0.528
        14 -12.6997    242.9038    245.6241   5.9132205245e+01  -1.1181417117e+01    0.5540135    0.2864371  -6.94  0.002868935    2.566    0.610
        15 -12.6147    247.3328    239.3679   5.7351085269e+01  -1.1102415884e+01    0.3987817    0.2388354  -9.25  0.002270278    1.712    0.416
        16 -11.3527    249.0005    245.1372   5.8011701023e+01  -1.1977992831e+01    0.3285451    0.1915762 -16.59  0.002050135    1.733    0.423
        17 -11.1558     87.4780    250.5102   8.8178005449e+01   1.2357086405e+01    0.2486293   0.09228231  41.61  0.001218377    2.191    0.544
        18 -11.4202     74.2266    250.4463   9.0514148197e+01   1.4232278577e+01    0.2832855   0.08114379  43.08   0.00129189    2.635    0.621
        19 -11.8558     65.1603    248.9903   9.1979758551e+01   1.5709813085e+01    0.3686977    0.1578153  52.08  0.002057143    1.798    0.444
        20 -11.4529     50.7251    250.1022   9.4525208342e+01   1.7377560120e+01    0.3983039    0.1153659  42.44  0.001946946    2.640    0.621
        21 -12.1095     36.7438    248.6082   9.6757441346e+01   1.9331989513e+01     0.419237    0.1911019  59.61  0.002569236    1.696    0.410
        22 -10.8614     27.3694    248.8596   9.8296791041e+01   2.0361635490e+01    0.2790743    0.1280087  64.42  0.001740068    1.716    0.417
        23 -12.2597      2.4316    210.7967   1.0046659410e+02   2.9995418292e+01    0.7625243    0.1958187 -84.45  0.003216179    3.802    0.737
        24 -11.8311     20.1875    249.0037   9.9450394437e+01   2.1125686769e+01    0.3759016     0.179753  57.13  0.001847116    1.521    0.343
        25 -12.3325     15.9832    240.4633   9.9697782950e+01   2.3085119945e+01    0.5315807    0.2278405  56.34  0.002648901    1.735    0.424
        26 -11.8218     12.2123    248.9480   1.0069789769e+02   2.1978160131e+01    0.3966872    0.1511037  52.52   0.00186274    1.871    0.466
        27 -11.2219      3.3205    250.2902   1.0211754127e+02   2.2645308403e+01    0.2658393    0.1135383  42.89  0.001750513    2.002    0.501
        28 -12.5408      3.4197    243.2499   1.0181310071e+02   2.3861413854e+01    0.5410875    0.2289888  79.72  0.003364378    1.960    0.490
        29 -11.9311      6.5977    236.2839   1.0100705623e+02   2.4793896876e+01    0.4500795    0.2057488  64.81  0.002911445    1.655    0.396
        30 -11.9617      4.7243    228.3935   1.0094460513e+02   2.6423828422e+01    0.4793551    0.1985384  72.20  0.002396866    2.025    0.506
        31 -11.6713      2.1753    220.7515   1.0100442984e+02   2.8100291611e+01      0.34811    0.1556668 -89.22  0.001554306    1.826    0.452
        32 -12.2059     57.2325    242.1278   9.2846670984e+01   1.7963143979e+01     0.440741    0.1794082  59.84  0.002278372    2.216    0.549
        33 -11.9296     29.5543    240.8843   9.7495565694e+01   2.1534199100e+01    0.4014907    0.1846299  70.13  0.002026216    1.888    0.470
        34 -12.0266    225.9106    240.9018   6.1346473207e+01  -8.1513125691e+00    0.2521534    0.1524937  -5.62  0.001425607    1.956    0.489
        35 -11.9428     73.0758    240.6499   8.9908205360e+01   1.6112096545e+01    0.3279599    0.1603081  64.30  0.001758226    1.995    0.499
        36 -10.8454     38.3298    240.6086   9.6003901771e+01   2.0572241122e+01    0.2513212    0.1221206  66.14  0.001225984    1.731    0.422
        37 -11.9883    240.1038    239.3236   5.8591599934e+01  -1.0063707176e+01    0.2009097    0.1390239  -5.94   0.00102152    1.369    0.270
        38 -11.6123    107.7740    239.8889   8.3411087551e+01   1.1141053671e+01    0.2563801    0.1230919  58.45  0.001254121    2.127    0.530
        39 -10.8211     64.7552    239.8902   9.1342180183e+01   1.7379496004e+01    0.2429465    0.1031771  58.74  0.001247525    2.111    0.526
        40 -11.1389     45.1851    237.2424   9.4602644347e+01   2.0364428941e+01    0.2673956    0.1365901  66.75  0.001596931    1.683    0.406
        41 -10.4609     33.0836    236.2019   9.6621613899e+01   2.1986995330e+01    0.2215248   0.09913321  72.15  0.001228705    2.094    0.523
        42 -11.1228    248.8878    250.0011   5.8812707912e+01  -1.2487886592e+01    0.3405808    0.1361689  34.22  0.001814888    2.045    0.511
        43 -11.5444     14.2009    231.8809   9.9553907023e+01   2.4835080035e+01    0.3666854    0.1827754  72.47  0.001896094    1.602    0.376
        44 -11.2375     11.2411    225.6832   9.9727587606e+01   2.6292221232e+01    0.3414721    0.1582515  61.92  0.001673689    1.687    0.407
        45 -11.1217     39.7583    231.0394   9.5129150004e+01   2.2170325951e+01    0.3205377      0.16211  78.93  0.001861947    1.867    0.464
        46 -11.0848     59.5951    231.9047   9.1632338496e+01   1.9533873397e+01    0.2564389    0.1082079  54.09  0.001338608    1.962    0.490
        47 -12.2863     25.7829    228.8820   9.7428162262e+01   2.4168415947e+01    0.4929524    0.2201372  80.38  0.002749301    2.133    0.531
        48 -10.7935     48.5531    230.3531   9.3513584791e+01   2.1233725014e+01    0.2701017    0.1312913  69.63  0.001483053    1.969    0.492
        49 -10.9619     82.0101    236.0199   8.7856230602e+01   1.5690162326e+01    0.2074177    0.1140836  65.19  0.001146145    1.753    0.430
        50 -10.3569     32.3506    229.3444   9.6317201791e+01   2.3349084672e+01     0.237642    0.1054335  66.34  0.001280385    2.009    0.502
        51 -11.6423    236.7302    228.5413   5.7377345717e+01  -8.2663266178e+00    0.2484365    0.1324735 -17.49  0.001298019    2.168    0.539
        52 -11.4399     18.7699    221.9180   9.8231378516e+01   2.6242119621e+01    0.2933826    0.1471376  71.37  0.001799034    1.654    0.395
        53 -10.7579     43.9995    221.1829   9.3655642102e+01   2.3552787369e+01    0.2080862   0.09135067  60.20  0.001087503    2.033    0.508
        54 -12.3622     12.0718    216.9594   9.9116223571e+01   2.7878669572e+01    0.4580799     0.230975  65.93  0.002350743    1.587    0.370
        55 -11.3338     34.8029    217.7004   9.5092809506e+01   2.5316034118e+01    0.3110299    0.1533438  77.88  0.001728179    1.937    0.484
        56 -10.5872     24.3700    217.3509   9.6963041855e+01   2.6537841850e+01    0.2437037     0.106938  65.99  0.001331501    2.035    0.509
        57 -11.8309    248.7619    214.6375   5.2824852906e+01  -8.3294269986e+00    0.3430561    0.1956779 -19.66  0.001907144    1.758    0.431
        58 -11.1296     28.8843    211.5454   9.5751586775e+01   2.7200292104e+01    0.2427782    0.1164639  82.70  0.001325464    1.984    0.496
        59 -12.7910     12.2791    205.2102   9.8397119799e+01   3.0180817359e+01    0.5349566    0.2373538  63.24  0.003049366    1.940    0.484
        60  -9.8094     36.3138    207.6556   9.4065218117e+01   2.7157373685e+01    0.1274027   0.06725238  68.75 0.0007047218    1.710    0.415
        61 -11.0515     21.5124    211.3485   9.7094880875e+01   2.8025630296e+01    0.2843738    0.1468723  86.40  0.001703978    1.670    0.401
        62 -12.2041      3.4732    197.2515   9.9543652060e+01   3.2605345519e+01     0.420466     0.199877  78.83  0.002262136    1.782    0.439
        63 -11.5261      9.4790    197.9828   9.8472763485e+01   3.1912352222e+01    0.2662514    0.1246979  77.50  0.001313063    1.891    0.471
        64 -11.5187     17.6504    195.8888   9.6786837387e+01   3.1564583077e+01    0.2237665    0.1382993  54.06  0.001468807    1.432    0.302
        65 -11.5328     11.2111    190.8947   9.7690229332e+01   3.3217908083e+01    0.1857199    0.1171052  74.69  0.001192434    1.269    0.212
        66 -12.2497      4.1162    188.7428   9.8916469983e+01   3.4299799884e+01    0.4829252    0.1975777  67.88  0.002529704    2.308    0.567
        67 -11.2190     17.0508    189.5497   9.6457208510e+01   3.2950729387e+01    0.2352295     0.124748  82.27  0.001329297    1.644    0.392
        68 -12.4960     11.4605    183.9955   9.7170595019e+01   3.4649024356e+01    0.3961696    0.1619946  89.25  0.001773327    2.306    0.566
        69 -11.7234      5.4954    182.8378   9.8272985215e+01   3.5419377300e+01    0.1895344    0.1436245  59.05 0.0009817193    1.273    0.214
        70 -11.7894      1.9971    178.1942   9.8661826823e+01   3.6695618548e+01    0.3446339    0.1604101 -84.24  0.001979634    1.713    0.416
        71 -11.2408     18.9918    174.9730   9.4940550350e+01   3.5902214014e+01    0.2030511    0.1097502  68.91  0.001145637    1.733    0.423
        72 -12.5940      6.6687    171.6899   9.7265311291e+01   3.7706722486e+01    0.3271161    0.1396408 -82.90  0.001731173    1.936    0.483
        73 -12.0973      2.7922    165.7987   9.7647730783e+01   3.9298532555e+01    0.3822073    0.1672467  59.37  0.002057091    2.222    0.550
        74 -10.5573      1.4912    170.4501   9.8246719003e+01   3.8392917860e+01    0.2364935   0.08688334 -77.22   0.00119926    2.128    0.530
        75 -12.2131      4.8238    160.4902   9.6814294045e+01   4.0303083084e+01    0.4101221    0.1577955  63.26  0.001911257    2.887    0.654
        76 -10.4583     12.3223    161.6607   9.5268523591e+01   3.9436495841e+01      0.12615    0.0698019  70.65 0.0007050672    1.719    0.418
        77 -11.8997     10.0318    155.5238   9.5253578002e+01   4.0994279946e+01     0.243938    0.1331806  87.04  0.001391224    1.615    0.381
        78 -12.4590      3.7176    153.2931   9.6485149216e+01   4.1979887511e+01    0.3612791    0.1655465 -83.17  0.001953366    1.788    0.441
        79 -11.7866      2.2900    143.4702   9.5984488030e+01   4.4275368209e+01    0.2559538    0.1274169 -86.51  0.001419924    1.693    0.409
        80 -11.9584      4.1045    136.6745   9.4933739868e+01   4.5679929467e+01    0.2918177    0.1260367 -83.92  0.001462794    2.037    0.509
        81 -11.1612    248.2875    129.6498   3.5560276966e+01   4.4003453864e+00    0.2664925    0.1510603 -43.48  0.001247659    1.710    0.415
        82 -11.5723      3.1040    127.9185   9.4323533285e+01   4.7729037365e+01    0.3013566    0.1361505 -86.75  0.001519488    2.067    0.516
        83 -10.4653    241.5009    125.4938   3.5713832712e+01   6.4215880087e+00     0.141057    0.1279225 -28.18 -8.079004e-06    1.023    0.023
        84 -11.7409    248.8851    118.5832   3.2973785459e+01   6.0901646653e+00    0.2938617    0.1634754 -48.69  0.001328092    1.905    0.475
        85 -11.1104    248.5677    106.7928   3.0332252045e+01   8.0760711673e+00    0.2072016    0.1153265 -44.83 0.0006959091    1.690    0.408
        86 -11.5152    249.2920     97.8080   2.8162231552e+01   9.3798603077e+00    0.2582904     0.153995 -39.51 0.0008868715    1.485    0.327
        87 -10.2221      2.0000     94.9732   9.0708494853e+01   5.5239094558e+01    0.2039139   0.05254337 -70.34 0.0008074335    2.977    0.664
        88 -12.2054    250.0000     80.0518   2.3972964908e+01   1.2036997762e+01    0.4950404    0.1092316 -38.97  0.001565291    3.597    0.722
        89 -12.3641      2.9588     49.8409   8.2036776874e+01   6.4859769491e+01     0.507013    0.1615051 -56.76  0.002487799    2.154    0.536
        90 -11.2678      8.3946     44.0328   7.8244872698e+01   6.5718426362e+01    0.2632919   0.08865553 -58.29  0.001240762    2.375    0.579
        91 -12.0340      2.8246     34.6312   7.8014933893e+01   6.7826802508e+01    0.4501431    0.0667153 -47.48  0.001820457    3.326    0.699
        92 -11.7531    225.4357    248.4507   6.2622602335e+01  -8.9794189164e+00    0.2552634    0.1686612   6.84  0.001613068    1.498    0.332
        93 -11.7109     18.9276     30.4324   6.9194436164e+01   6.7529918990e+01     0.310257    0.1298087 -34.58  0.001574562    2.100    0.524
        94 -12.2561    212.3811    247.8729   6.4859134215e+01  -6.9429810586e+00     0.373815    0.2135952  14.81   0.00202456    2.024    0.506
        95 -12.4891    142.5124    247.7831   7.7777551150e+01   4.3014229933e+00    0.3794126    0.1392384  37.53  0.001666429    2.408    0.585
        96 -12.2240    126.9194    248.0849   8.0726343259e+01   6.7602979931e+00    0.3259931     0.131071  48.72    0.0015525    2.065    0.516
        97 -11.5014     45.0709    245.1164   9.5150495984e+01   1.8953949791e+01    0.3487532    0.1677986  61.62  0.001918777    1.684    0.406
        98 -12.6098    234.1122    244.3988   6.0459549926e+01  -9.7822558972e+00    0.3556214    0.2168364   7.30  0.002121535    1.699    0.411
        99 -12.5320     97.8766    244.8387   8.5764775985e+01   1.1797867776e+01    0.3727676    0.1831474  57.84  0.001971707    1.886    0.470
       100 -12.1243    116.5102    244.6837   8.2289809088e+01   8.9617765303e+00    0.2626466    0.1476101  59.04  0.001440811    1.725    0.420
       101 -11.7461     26.3989     15.8561   5.9775331246e+01   6.9243184374e+01    0.2444993    0.1132319 -30.02  0.001305976    1.920    0.479
       102 -12.4964     84.8282    244.1581   8.8086178718e+01   1.3832242650e+01    0.3851658     0.145621  50.77  0.001887013    2.134    0.531
