#   1 NUMBER                 Running object number                                     
#   2 MAG_AUTO               Kron-like elliptical aperture magnitude                    [mag]
#   3 X_IMAGE                Object position along x                                    [pixel]
#   4 Y_IMAGE                Object position along y                                    [pixel]
#   5 X_WORLD                Barycenter position along world x axis                     [deg]
#   6 Y_WORLD                Barycenter position along world y axis                     [deg]
#   7 A_WORLD                Profile RMS along major axis (world units)                 [deg]
#   8 B_WORLD                Profile RMS along minor axis (world units)                 [deg]
#   9 THETA_WORLD            Position angle (CCW/world-x)                               [deg]
#  10 FWHM_WORLD             FWHM assuming a gaussian core                              [deg]
#  11 ELONGATION             A_IMAGE/B_IMAGE                                           
#  12 ELLIPTICITY            1 - B_IMAGE/A_IMAGE                                       
         1 -12.0073    248.9330      4.1011   2.5365299872e+01   2.5343408883e+01    0.8129238    0.2313306 -42.64    0.0041873    2.584    0.613
         2 -13.8426    178.0763     81.8042   4.9747966685e+01   2.9555227261e+01     1.966786     1.450831  25.59  0.002010648    1.963    0.490
         3 -13.4296    244.1552     18.0960   2.8160772005e+01   2.4672986278e+01     1.572952     1.073009  23.09  0.001653452    4.428    0.774
         4 -15.5245    215.2202     79.7894   4.3562046119e+01   2.1875368158e+01     10.54821     3.922807 -49.71   0.04204796    2.547    0.607
         5 -13.2426    249.9355     32.8464   3.0465567193e+01   2.1814172014e+01     1.017562    0.3404666 -38.59  0.002720537    2.607    0.616
         6 -13.6701    247.6459     44.3873   3.2803509849e+01   2.0743587954e+01     1.560933    0.9382675  75.47  0.009712195    1.717    0.418
         7 -15.6323    239.3052     64.6149   3.7525782707e+01   1.9472663111e+01     5.033223     2.465605  71.80   0.02566998    2.333    0.571
         8 -10.6205    178.3964     24.1576   3.5274038870e+01   3.7741835659e+01    0.5215636    0.3692806  74.35   0.00250302    1.253    0.202
         9 -11.5982    140.4735     15.7176   3.8067609339e+01   4.7421036445e+01    0.4468075    0.2559021  80.21  0.001225998    1.741    0.426
        10 -10.3477    156.7188      9.7676   3.4210233681e+01   4.4208016772e+01    0.5551718      0.29261  -9.90  0.002589429    3.220    0.689
        11  -9.1901    191.4964     11.2902   3.0899155478e+01   3.6199959141e+01    0.4403725    0.3041643   8.39  0.002405838    2.786    0.641
        12 -11.4011    228.3374      4.6833   2.6699224418e+01   2.9202755962e+01       0.2444    0.2206044 -14.76  0.001534681    1.731    0.422
        13  -9.2344    219.9258      8.7110   2.8049096704e+01   3.0460122829e+01     0.287478    0.1347636 -67.60  0.001546554    2.003    0.501
        14  -9.0327    223.5960      8.2308   2.7696464893e+01   2.9770743410e+01    0.2087894    0.1848211  21.43  0.001067096    1.881    0.469
        15  -8.0824    235.8473      5.4468   2.6369732741e+01   2.7659975184e+01    0.1635046    0.1183714 -74.04  0.001158918    1.037    0.035
        16 -10.8252    127.9762      6.0213   3.7096464204e+01   5.1194991485e+01    0.3862189    0.2353341 -20.84  0.002177421    2.015    0.504
        17  -9.9288    210.0557      3.7493   2.7766211541e+01   3.3001302108e+01     0.175925    0.1514039 -49.34 0.0004220281    1.338    0.253
        18  -9.0339    105.6615      4.6764   4.0527778125e+01   5.6391675768e+01    0.1331714   0.07630964  39.79 0.0007051018    1.720    0.419
        19  -8.8982    114.3321      3.3182   3.8477438116e+01   5.4538417399e+01    0.1310318   0.07679893  41.87  0.000369742    1.691    0.409
        20  -8.6862    240.0018      1.7296   2.5447341318e+01   2.7259109035e+01    0.1442067    0.1209434 -88.51 0.0004553999    1.296    0.228
        21 -11.1282    175.6118    153.3115   6.7339384823e+01   1.5851115710e+01    0.4482304    0.3784498 -87.41  0.001837748    1.525    0.344
        22 -10.2626    249.5248    247.9836   7.1017272676e+01  -1.1760943771e+01    0.3774658    0.1731886 -38.79  0.002123571    2.088    0.521
        23 -10.1748    235.0169    179.3931   6.1331983759e+01   6.8562849641e-01    0.2566919     0.234676  46.88 0.0004173414    1.449    0.310
        24  -9.1647    175.2545    177.4115   7.2526986453e+01   1.0800073450e+01    0.3596894    0.2457952  67.97  0.001192045    2.476    0.596
        25  -9.2222    181.1903    244.1994   8.3259281908e+01  -2.8250376725e+00    0.2550364    0.2275413  53.78  0.001637104    1.560    0.359
        26 -12.3923    158.8641     92.0906   5.6108466661e+01   3.2050603797e+01     1.077099     0.662641 -48.41 0.0003636724    1.613    0.380
        27 -13.2789    197.8357     86.8113   4.7682704449e+01   2.4342437987e+01     2.520087    0.9332514  42.46  0.008007681    4.553    0.780
        28 -10.2688    202.1060    238.6945   7.8173918078e+01  -4.7684409818e+00    0.2231793    0.1791219 -29.66  0.001432396    1.276    0.216
        29  -9.1640    168.9060    238.1878   8.4873385066e+01  -5.3939021277e-02    0.1836655    0.1607221  29.81 0.0002898649    1.191    0.160
        30  -8.9464    170.4865    233.6967   8.3822799484e+01   5.1214105085e-01    0.2247356    0.1818056   6.68 0.0002885603    1.130    0.115
        31 -11.9520     65.4816    140.5752   9.4358545833e+01   3.9060779766e+01      2.15297     1.325805  48.31  0.009149014    1.810    0.447
        32 -12.1568     49.1934    143.1922   9.9962554741e+01   4.0485264161e+01     0.795031    0.5367753 -82.98  0.001928553    1.615    0.381
        33 -12.4324     34.3841    148.0292   1.0530555053e+02   4.0839678320e+01     0.651758    0.6377996   9.93  0.001160939    1.169    0.145
        34 -12.6896     42.1412    145.1931   1.0249229333e+02   4.0767020193e+01    0.9645566    0.7641131 -77.46  0.002762797    1.196    0.164
        35  -8.8193    243.3130    155.3160   5.5295667232e+01   3.6616491246e+00      0.13003     0.091302 -14.73 0.0007034646    1.642    0.391
        36 -10.5086    247.2283    151.5265   5.3957762446e+01   3.7272899908e+00    0.2755372    0.2067736 -48.90  0.001669499    1.274    0.215
        37 -10.3238    133.9335    145.3551   7.5461442781e+01   2.5890780399e+01     1.199536     0.327875 -54.81  0.002834143    5.249    0.809
        38  -8.1891    113.4589    151.0239   8.2243204799e+01   2.8450472147e+01    0.2206026    0.1531058 -53.92 0.0001275073    1.421    0.296
        39  -9.4962    144.5437    146.7237   7.3076734747e+01   2.3455962594e+01    0.4774299     0.292066 -74.25  0.001656365    2.964    0.663
        40 -10.2896    192.1836    143.0917   6.1652107616e+01   1.4787068136e+01    0.5162842     0.248091 -44.59 0.0007340373    1.909    0.476
        41  -9.2510    158.6114    143.1539   6.8866967490e+01   2.1431376403e+01    0.2721916    0.2134257  54.50  0.001230587    1.405    0.288
        42 -11.4096     20.2825    140.9124   1.0864682699e+02   4.3989457345e+01    0.4937204    0.2907396 -15.09  0.002277857    2.415    0.586
        43 -10.9642    208.6710    137.9974   5.7452617516e+01   1.2683726964e+01    0.5283554    0.3665664  88.20  0.002355532    2.510    0.602
        44 -10.9170    156.5608    136.9060   6.7887805414e+01   2.3237982193e+01    0.6793968    0.3368491  48.15  0.002421066    2.164    0.538
        45  -9.4383    150.1589    136.6552   6.9351875225e+01   2.4614528590e+01    0.3282455    0.2374806 -68.04  0.001108045    1.708    0.415
        46 -10.6690    191.0573    132.6415   5.9527778098e+01   1.7117330146e+01    0.5133735    0.3435352 -66.96  0.001942482    1.986    0.496
        47 -10.1305    170.1121    155.7108   6.9074769087e+01   1.6395531873e+01    0.2923149    0.2430092 -32.15 0.0002402598    1.168    0.144
        48 -10.6468    203.5145    131.7794   5.7011637806e+01   1.4857561713e+01    0.3728614    0.3047986 -75.34  0.001997908    1.460    0.315
        49 -10.0416    224.9184    129.4121   5.2892953750e+01   1.1338945710e+01    0.4193532    0.2894988 -71.32  0.002093817    1.979    0.495
        50 -11.9784    134.5500    103.3143   6.4768892104e+01   3.5267268359e+01     1.716803    0.4264475 -46.25  0.003469452    4.105    0.756
        51  -9.7334    197.4130    127.1896   5.7094021780e+01   1.6940595308e+01    0.2984219    0.2117004 -65.69  0.001430021    1.687    0.407
        52  -8.0591     92.8083    126.1533   8.2626277462e+01   3.8404708580e+01    0.2087777    0.1790139 -20.59 0.0004428098    1.266    0.210
        53  -8.8942    173.4858    125.5009   6.1410094822e+01   2.2164285502e+01    0.1515098    0.1426675 -45.42 0.0008105173    1.007    0.006
        54  -9.3206    214.4470    122.1730   5.3022209299e+01   1.4597573155e+01    0.4537784    0.1604912 -44.43  0.001140026    2.473    0.596
        55  -8.9585    171.6347    229.0672   8.2824061903e+01   1.1769583707e+00    0.2126612    0.1699144  33.28 0.0004284995    1.245    0.197
        56  -8.5325     63.1041    117.6828   9.0316625187e+01   4.5274307322e+01    0.2000088    0.1847692   1.69 0.0004485225    1.138    0.122
        57  -8.5730    217.0459    117.6698   5.1622847958e+01   1.4934756357e+01    0.1820752    0.1753715 -81.36 0.0007326438    1.140    0.123
        58  -9.9019    201.5107    115.4998   5.3711536986e+01   1.8374371050e+01    0.2913651    0.2714262  64.71  0.001351412    1.178    0.151
        59 -10.9775    205.0320    110.3809   5.1953869189e+01   1.8623658438e+01    0.5337061    0.4817112  -5.34  0.003095035    1.334    0.250
        60 -11.2094    168.4042    113.8737   5.9659268973e+01   2.5640362292e+01     0.623126    0.4807819 -36.20  0.003075591    1.299    0.230
        61  -9.6895    177.2998    111.3995   5.7232014125e+01   2.4216319458e+01      0.52529     0.295141 -32.26  0.002161598    2.015    0.504
        62  -9.9076    136.0000    128.0327   7.0800117766e+01   2.9512564906e+01    0.6820601    0.1341706 -46.89  0.001616245    4.956    0.798
        63  -8.0395    160.2961    111.6491   6.0852833040e+01   2.7862185907e+01    0.1580152    0.1186865 -76.27 0.0007033732    1.684    0.406
        64  -9.4297    135.1880    120.2558   6.9058811921e+01   3.1445547712e+01    0.6295456    0.1896853 -46.69  0.001637769    3.260    0.693
        65 -12.5238    121.3355    102.0623   6.7917979567e+01   3.8394938967e+01     1.566986     1.176117  37.94  0.007426924    1.369    0.269
        66  -8.2383     97.3186    108.7261   7.6796440486e+01   4.1761838593e+01    0.1509005    0.1229926  76.50 0.0001578051    1.568    0.362
        67  -9.2780    174.4852    103.6316   5.5880072493e+01   2.6347889960e+01     0.355009    0.2164003 -58.64  0.001524099    1.861    0.463
        68  -9.6829    149.5149    104.7275   6.1509895941e+01   3.1664305672e+01    0.2947569    0.2754731  15.66 0.0006834979    1.178    0.151
        69  -9.4212    210.6820    109.5529   5.0848326346e+01   1.7649193088e+01    0.3545486    0.2227542 -60.25 0.0008925845    1.741    0.426
        70 -10.7339    160.4145    100.8249   5.8060311250e+01   3.0015770300e+01     0.567351    0.3954434  40.49  0.001743474    1.577    0.366
        71  -9.3519     76.9338    101.0393   8.1386916444e+01   4.7176679598e+01    0.4407759    0.2157637 -58.78  0.001271451    2.376    0.579
        72 -10.2970     82.2196    100.1199   7.9338966532e+01   4.6488651193e+01    0.2464116    0.2342576   7.25 0.0002661966    1.052    0.049
        73  -9.9695    208.9392    127.7443   5.5167036067e+01   1.4596484819e+01    0.3637662    0.2928138 -74.50  0.001896543    1.470    0.320
        74 -13.1332    230.7206     74.8908   4.0570589251e+01   1.9564162095e+01    0.7773681    0.5976089  82.75  0.001659539    1.363    0.266
        75 -11.1498    143.2651     94.8413   6.0326570619e+01   3.5053611527e+01    0.5425293    0.3763103 -45.94 0.0007583703    1.431    0.301
        76 -10.8331    160.9870    128.0740   6.4757579720e+01   2.4247317066e+01    0.4392381    0.3521991 -51.16  0.001834963    1.217    0.178
        77 -10.1927    138.5273    222.0253   8.9026532184e+01   7.6488660839e+00     0.251551     0.231994 -30.88 0.0004791513    1.140    0.122
        78  -9.9930    151.1042     71.4118   5.2116776458e+01   3.7537301991e+01    0.2736523    0.2273751 -45.15 0.0004887249    1.217    0.178
        79  -9.2102    250.5250    171.9733   5.7395918968e+01  -2.3873556191e-01    0.1964134    0.1021145 -37.59  0.000416551    1.553    0.356
        80  -8.6311    194.4810    170.9946   6.7162917400e+01   8.7272438903e+00    0.2206861    0.1314998 -42.75 0.0004955544    1.551    0.355
        81 -12.4916      3.7388    160.0451   1.1554554115e+02   4.0325882381e+01    0.9672281    0.4237883 -74.27   0.00448309    1.873    0.466
        82  -8.5198    212.1035    166.1106   6.2753867045e+01   6.6745139448e+00    0.1952306    0.1656402 -75.41 0.0005143197    1.599    0.375
        83  -9.6250    186.0390     58.3420   4.2641334005e+01   3.1529135459e+01    0.2340397     0.200198 -53.63 0.0002735202    1.133    0.117
        84 -11.4379    193.1976    156.2497   6.4320732196e+01   1.1927266902e+01    0.8085932     0.534778 -73.52  0.001074941    2.694    0.629
        85 -10.4620    176.0692     48.7464   4.1704910556e+01   3.5183837473e+01    0.4575538     0.292656 -59.74  0.001711473    1.606    0.377
        86 -12.3620     16.9865    152.1076   1.1101446931e+02   4.1357330609e+01    0.8350196    0.4790713 -75.01  0.004164896    1.512    0.339
        87 -10.1384    192.4115     51.7936   4.0184552355e+01   3.1050070440e+01    0.2793009    0.2341403 -71.51 0.0004934667    1.056    0.053
        88  -8.9383    187.6795     52.2282   4.0923656113e+01   3.2048262592e+01    0.2400437    0.2312099  81.49  0.001204178    1.195    0.164
        89  -9.5285    147.5467     52.7340   4.7550345510e+01   4.1292740652e+01     0.338213    0.1906829 -57.10  0.001226884    2.158    0.537
        90  -9.8069      9.2002     51.5970   9.5107445532e+01   6.5933860589e+01    0.1680698    0.1017078  -6.23 0.0008676033    1.666    0.400
        91  -9.9444    239.6606    217.9525   6.7640099575e+01  -6.3036061048e+00    0.2106987    0.1689936  24.73 0.0009831808    1.417    0.294
        92 -10.5983    174.2487    145.8757   6.5976283358e+01   1.7705376801e+01    0.4080105    0.2911378 -21.94  0.001288892    1.661    0.398
        93  -9.7126    116.8394     44.9521   5.1711970327e+01   4.9543385516e+01    0.2300493    0.1816246  55.30 0.0002942805    1.164    0.141
        94  -9.6839    205.3430     42.6070   3.6506482931e+01   2.9477279208e+01    0.3169446    0.2064414  75.66  0.001655692    1.469    0.319
        95  -9.2088      5.6613     43.3101   9.4326251692e+01   6.7782260243e+01    0.1049462   0.09281301  52.54 0.0007044518    1.687    0.407
        96  -9.0208     11.3154     42.6697   9.1145141224e+01   6.7493669400e+01    0.1051179   0.09584143  59.36 0.0005503011    1.680    0.405
        97  -9.7413    166.8006     36.3282   3.9854608450e+01   3.8970132071e+01    0.3989569    0.2370116 -36.44    0.0020687    1.770    0.435
        98  -9.5150    187.6243     33.2137   3.6370911140e+01   3.4584824711e+01    0.4215256    0.1568645 -36.05  0.001166598    2.640    0.621
        99 -10.9782    122.2524     37.7489   4.8150491511e+01   4.9244051781e+01    0.2965417    0.2754945  64.95   0.00183314    1.041    0.039
       100 -11.3886    144.6363     30.6829   4.1732868030e+01   4.4852371774e+01    0.5187557    0.2915419  -5.41  0.002096642    3.395    0.705
       101 -10.2008    159.4801     31.7314   3.9700193665e+01   4.1239783559e+01    0.2801007    0.2355461  -9.72  0.001165641    1.549    0.354
       102 -10.4338    190.9607     36.3725   3.6723864495e+01   3.3443067688e+01    0.6820713    0.2633667 -47.83  0.002991958    2.445    0.591
       103  -7.9863    111.6632     29.7185   4.7853912067e+01   5.2633890727e+01    0.1377307   0.09016467  35.19  0.000273064    1.620    0.383
       104  -8.4567     33.5202    218.4844   1.1324084938e+02   2.3233770667e+01    0.1281318     0.109817  75.07 4.592839e-05    1.032    0.031
       105  -9.8719    154.2133     25.8511   3.8877273981e+01   4.3149614778e+01     0.401963   0.08542484  56.87  0.001365568    3.626    0.724
       106 -11.1614    133.9926     24.3730   4.1685742053e+01   4.8056817547e+01    0.3222859    0.1937627 -23.28  0.001667781    2.012    0.503
       107 -10.2388    125.2557     24.0244   4.3167330620e+01   5.0132930092e+01    0.1841075     0.168034  60.90  0.001181753    1.051    0.049
       108 -11.6641    176.8579    140.4953   6.4196107019e+01   1.8329312127e+01    0.7346333    0.4997768 -79.16  0.002979332    2.468    0.595
       109  -8.0168    171.4928     21.5241   3.5442266616e+01   3.9612149390e+01    0.1277019     0.106559 -87.88 0.0001730271    1.025    0.024
       110  -9.5705    237.1976    172.7432   5.9681497643e+01   1.5278309174e+00    0.1777758    0.1688306 -85.01 0.0009645061    1.450    0.311
       111  -8.2282     90.1665    215.8721   9.9587122829e+01   1.6477182137e+01    0.1747917    0.1610813 -15.56 0.0002929675    1.266    0.210
       112  -9.1246     38.0064    214.0338   1.1183091080e+02   2.3767681459e+01    0.2102202    0.1228137  65.07  0.001061457    1.687    0.407
       113  -9.3414    242.9429    207.6983   6.5251349690e+01  -5.1018627562e+00    0.1686509    0.1377251  -0.84 0.0009817743    1.150    0.130
       114  -8.0078    183.4748     12.5548   3.1955312545e+01   3.7845053025e+01    0.1220797    0.1000132 -88.00 4.313129e-05    1.021    0.021
       115  -8.5915    161.5124    208.2268   8.1474397261e+01   6.7627381175e+00    0.1896842    0.1371289 -44.25   0.00044706    1.413    0.293
       116  -7.8347    221.4907    205.4970   6.8656978888e+01  -1.9033318974e+00    0.1298888     0.109336 -16.42 0.0008100892    1.051    0.049
       117 -10.2397    249.6579    202.2620   6.3148377711e+01  -5.0776474837e+00    0.2938414    0.2854202  86.61  0.002098799    1.670    0.401
       118  -8.1850    161.8948     15.2339   3.5007403457e+01   4.2482601283e+01    0.1591845    0.1290366  56.36 0.0004581914    1.286    0.222
       119 -10.3786    242.2089    199.6071   6.3908019011e+01  -3.7079199910e+00      0.31468     0.311794 -15.24  0.002245826    1.482    0.325
       120  -9.9613     22.5072    200.0570   1.1426226407e+02   2.8752306222e+01    0.3045108    0.2005178 -64.31 0.0004136571    1.470    0.320
       121  -8.8637    204.3439    200.3230   7.0966085216e+01   1.5004179485e+00    0.1438497   0.09553442  -8.03  0.000370521    1.733    0.423
       122 -10.5250    192.2720    193.3847   7.2075217718e+01   4.6908942214e+00    0.8749958    0.4434595 -61.88  0.002812441    4.642    0.785
       123 -10.8268    217.8996    186.7490   6.5785921403e+01   1.9152331897e+00    0.3821174    0.2964033  46.03  0.002194026    1.618    0.382
       124  -8.5369     25.1552    184.6327   1.1222241860e+02   3.2296936989e+01    0.1687835    0.1567876  68.14 0.0004886801    1.134    0.118
