#   1 NUMBER                 Running object number                                     
#   2 MAG_AUTO               Kron-like elliptical aperture magnitude                    [mag]
#   3 X_IMAGE                Object position along x                                    [pixel]
#   4 Y_IMAGE                Object position along y                                    [pixel]
#   5 X_WORLD                Barycenter position along world x axis                     [deg]
#   6 Y_WORLD                Barycenter position along world y axis                     [deg]
#   7 A_WORLD                Profile RMS along major axis (world units)                 [deg]
#   8 B_WORLD                Profile RMS along minor axis (world units)                 [deg]
#   9 THETA_WORLD            Position angle (CCW/world-x)                               [deg]
#  10 FWHM_WORLD             FWHM assuming a gaussian core                              [deg]
#  11 ELONGATION             A_IMAGE/B_IMAGE                                           
#  12 ELLIPTICITY            1 - B_IMAGE/A_IMAGE                                       
         1 -15.0186      3.5493    130.6979   2.9252160330e+02   6.1626663960e+00     0.261818   0.05391016 -64.01   0.01489634    5.410    0.815
         2 -13.8085    197.3091     26.2189   2.8967572610e+02   6.2943623137e+00   0.08856764   0.05913641 -39.99  0.007808673    1.532    0.347
         3 -13.6367    213.0746      6.6615   2.8937945198e+02   6.4285560337e+00   0.04541054   0.03952878   2.00  0.004230763    1.164    0.141
         4 -12.1767     85.4078    152.8407   2.9170537765e+02   5.4738041460e+00    0.0143058   0.01113187 -34.57 0.0006697787    1.308    0.236
         5 -12.4275    237.9801    247.6119   2.9049938516e+02   3.5842045993e+00   0.02453417    0.0169253  37.27  0.002675626    1.464    0.317
         6 -12.1006    246.4896    248.4118   2.9040621835e+02   3.5292651822e+00   0.02753778   0.02117562  21.66  0.003172836    1.296    0.229
         7 -13.5914    132.1885    245.8429   2.9170638343e+02   4.1744810440e+00   0.04613418   0.02406068  27.84  0.004414876    1.867    0.465
         8 -10.9859      8.4034    249.7368   2.9315480284e+02   4.7952684615e+00   0.01587292   0.01089883 -11.34  0.001650866    1.730    0.422
         9 -10.9280      2.6801    248.6722   2.9321459312e+02   4.8379044183e+00   0.01762089   0.01248233 -28.30   0.00170523    1.541    0.351
        10 -10.7724     81.1236    249.1966   2.9231392768e+02   4.4113209480e+00   0.01317857  0.008708389  44.21  0.001281938    1.613    0.380
        11 -12.2580     19.7205    247.1333   2.9300937329e+02   4.7639964308e+00   0.02931911    0.0209439   3.05  0.003187499    1.551    0.355
        12 -12.2062    100.5268    248.7885   2.9208807832e+02   4.3116375164e+00   0.02615185   0.01406758  18.33  0.002465843    1.982    0.496
        13 -13.2648    144.5217    244.9198   2.9155902384e+02   4.1184725012e+00   0.04330311   0.03118934 -82.43  0.004678722    1.662    0.398
        14 -13.4968     47.3454    217.5159   2.9251964251e+02   4.9496330014e+00   0.07210864   0.06528635   1.23  0.006655479    1.101    0.092
        15 -11.3421    184.6056    237.7813   2.9105615911e+02   3.9828327949e+00   0.01399771  0.009562877 -72.34  0.001284078    1.622    0.384
        16 -11.0405     19.2498    236.5894   2.9295384511e+02   4.8853374408e+00   0.01486308   0.01330559  71.71  0.001039727    1.249    0.199
        17 -13.0876    124.2337    232.1852   2.9171873077e+02   4.3711233296e+00   0.03619536    0.0153222  23.34  0.003068976    2.408    0.585
        18 -12.7022    104.7825    230.6061   2.9193362703e+02   4.4935700662e+00    0.0301473   0.01176614  36.68  0.002507627    2.485    0.598
        19 -11.4211     29.9758    248.7768   2.9290071965e+02   4.6905229428e+00   0.01897038   0.01777029 -48.44  0.002410544    1.060    0.057
        20 -13.0176    174.6536    249.1099   2.9123651792e+02   3.9089515462e+00   0.04148149   0.02429011  13.13   0.00404131    1.906    0.475
        21 -13.5313     32.4332    236.1918   2.9279962172e+02   4.8191651198e+00   0.02607374   0.01873781 -44.75  0.001236306    1.373    0.271
        22 -12.5799     94.2076    228.7016   2.9204441250e+02   4.5718924946e+00   0.03769783  0.009577369  35.43  0.002633493    3.499    0.714
        23 -10.0174      3.6756    227.9390   2.9308332771e+02   5.0662298440e+00   0.01327521  0.009469937  34.27   0.00146644    1.399    0.285
        24 -10.6176     57.4071    212.0427   2.9237194527e+02   4.9573021965e+00   0.01242903  0.009406026  33.28 0.0008963686    1.320    0.242
        25 -10.1965     20.5450    211.9814   2.9279655971e+02   5.1557130879e+00   0.01928124   0.01001613  16.43  0.001758773    2.133    0.531
        26 -12.3016     10.3232    206.8069   2.9288447230e+02   5.2687877722e+00   0.03743962   0.02139539  13.64  0.002824848    1.955    0.489
        27 -14.1968     37.1302    229.7557   2.9270825108e+02   4.8665063997e+00   0.04436234   0.03560824  46.17  0.002384457    1.325    0.245
        28 -12.0893     59.2817    201.5460   2.9228948468e+02   5.0655103598e+00   0.01400767   0.01179111 -36.63 0.0005243869    1.179    0.152
        29 -10.4161     12.3527    196.1272   2.9279925119e+02   5.3782719625e+00   0.01227495  0.008992685  30.24 0.0005428562    1.352    0.260
        30 -12.3267     65.8944    192.7563   2.9216225822e+02   5.1290310422e+00    0.0138926   0.01181694 -35.30 0.0004332569    1.167    0.143
        31 -13.3674     63.0043    177.6595   2.9210798118e+02   5.3146483344e+00   0.02817628   0.01321444 -41.12  0.001859295    2.330    0.571
        32 -11.0410     76.6120    179.1910   2.9195993133e+02   5.2242711187e+00   0.01154695   0.01062925 -27.60 0.0003458065    1.065    0.061
        33  -9.4812     99.4254    176.3204   2.9168018231e+02   5.1339087232e+00   0.01475032  0.007916137  54.56  0.001113301    2.522    0.604
        34 -13.5145     10.1988    157.5844   2.9260078888e+02   5.8241324156e+00    0.0781517   0.04653272 -87.10  0.007112699    2.456    0.593
        35 -12.5688    157.3152    249.3326   2.9143736624e+02   3.9998737983e+00      0.04161   0.01165625  23.60  0.002821555    3.766    0.734
        36 -12.2714     67.3884    143.3701   2.9185823632e+02   5.6773721659e+00   0.03140363   0.01951587  49.93  0.002664237    1.858    0.462
        37 -10.3421    108.8361    138.2569   2.9135026935e+02   5.5119420593e+00   0.02184031   0.01163525 -32.00  0.001937764    2.332    0.571
        38 -10.8156     95.9508    135.6270   2.9148361983e+02   5.6109412393e+00   0.01132267  0.009492699 -45.18 0.0003433254    1.168    0.144
        39 -11.0625     29.9067    130.8110   2.9221791776e+02   6.0201108931e+00   0.01434079   0.01031931  40.28  0.000586922    1.432    0.302
        40  -9.2815    115.2072    130.2026   2.9122988122e+02   5.5683116746e+00    0.0117872  0.005872011 -29.73 0.0009483304    2.802    0.643
        41 -12.0383     21.3522    126.1628   2.9228969748e+02   6.1183487140e+00   0.02714038   0.01193659  42.99  0.001672649    2.492    0.599
        42  -9.2891    106.1656    124.3850   2.9130031929e+02   5.6825267607e+00  0.008560252    0.0075825  20.96 0.0003828364    1.121    0.108
        43 -10.6198    157.9592     75.9783   2.9042047370e+02   5.9478848238e+00  0.009986714  0.009751371  -0.69 0.0006035476    1.026    0.026
        44 -12.3183     84.4593    169.7246   2.9181444448e+02   5.2887205829e+00   0.03839923   0.02687921 -24.99  0.004113481    1.601    0.375
        45 -10.9881     96.6653    153.8095   2.9158114886e+02   5.4023194889e+00   0.01775444   0.01448102 -26.99 0.0008440195    1.262    0.208
        46  -9.8830     99.9000    149.3506   2.9151790346e+02   5.4351272098e+00   0.01167586  0.009637829 -40.84 0.0003600957    1.194    0.163
        47 -11.7586    216.3494    248.6115   2.9075392599e+02   3.6896994308e+00   0.01925647   0.01161096   3.05  0.001836497    2.059    0.514
        48 -12.0427    190.7625    247.8074   2.9104358690e+02   3.8367681239e+00   0.02002526   0.01539598  70.47  0.002230093    1.595    0.373
