#   1 NUMBER                 Running object number                                     
#   2 MAG_AUTO               Kron-like elliptical aperture magnitude                    [mag]
#   3 X_IMAGE                Object position along x                                    [pixel]
#   4 Y_IMAGE                Object position along y                                    [pixel]
#   5 X_WORLD                Barycenter position along world x axis                     [deg]
#   6 Y_WORLD                Barycenter position along world y axis                     [deg]
#   7 A_WORLD                Profile RMS along major axis (world units)                 [deg]
#   8 B_WORLD                Profile RMS along minor axis (world units)                 [deg]
#   9 THETA_WORLD            Position angle (CCW/world-x)                               [deg]
#  10 FWHM_WORLD             FWHM assuming a gaussian core                              [deg]
#  11 ELONGATION             A_IMAGE/B_IMAGE                                           
#  12 ELLIPTICITY            1 - B_IMAGE/A_IMAGE                                       
         1 -10.8395     37.3366      9.9575   1.0965351338e+02   7.3233725664e+01    0.9652156    0.4953983 -50.51  0.002640122    2.151    0.535
         2  -9.8855     10.4669     18.6705   1.3331834106e+02   7.4203506676e+01    0.9786838    0.3134601 -28.15  0.003155572    5.433    0.816
         3 -10.6524     18.9159      6.5875   1.2109348503e+02   7.6085764448e+01     1.012666    0.6791685  57.77  0.005406586    2.489    0.598
         4 -10.9533     23.8794     32.3762   1.2909090681e+02   7.0185261642e+01     1.473721    0.4590289 -47.27  0.003527351    2.743    0.635
         5 -10.5996      6.7053     29.8324   1.3928718842e+02   7.1875927491e+01    0.6423008    0.4277349 -74.26  0.002066751    1.357    0.263
         6 -10.1229     45.8903     29.3406   1.1486525740e+02   6.8315200544e+01    0.4829809    0.2915961 -61.47  0.001107035    2.015    0.504
         7  -9.2613      2.1354     14.5007   1.3831219250e+02   7.5521077188e+01    0.4249981     0.201773 -84.93  0.002026847    2.549    0.608
         8 -10.3626      5.2198      4.7289   1.3195119543e+02   7.7487248670e+01    0.4963585    0.3841669 -39.24  0.001452818    1.076    0.070
         9 -10.2445     74.8867     54.5589   1.1157386347e+02   5.8274502022e+01     1.805117    0.7109441 -33.78  0.005130995    4.611    0.783
        10  -8.9773    102.5422      8.7299   8.1266274814e+01   5.9578022870e+01    0.7999225     0.312128 -49.36  0.002513389    3.927    0.745
        11 -10.4112     89.4998     38.2706   9.9371822869e+01   5.8497927223e+01     1.126277    0.4735529  34.73  0.003545922    3.578    0.721
        12  -9.5901    100.8420     32.7054   9.3109987794e+01   5.6785222073e+01    0.7204815     0.385627 -35.63  0.002059717    1.891    0.471
        13  -9.5287    102.8091     21.8182   8.7542747848e+01   5.7905077404e+01    0.8549778    0.3328496 -22.36  0.002845862    3.201    0.688
        14  -9.9845    249.4750     45.1801   7.2120331197e+01   1.7331902587e+01    0.2778339    0.2141197 -27.51 0.0003742412    1.153    0.133
        15  -9.8063     63.8130      3.0318   9.0836215583e+01   6.9486243493e+01    0.6956623    0.3065222 -46.84  0.002617439    3.316    0.698
        16  -9.3997     77.9146      4.3702   8.6210139685e+01   6.6173975500e+01    0.6903993    0.3553376  -3.76  0.001622438    2.799    0.643
        17  -9.9771     73.5108     17.8900   9.5575775212e+01   6.5365965045e+01    0.9129053    0.2604984 -33.31  0.002963476    3.553    0.719
        18  -8.4905     72.0724      8.4597   9.0797376842e+01   6.7006302954e+01    0.2901671    0.2366772  49.88 0.0005739746    1.218    0.179
        19  -9.7897     62.9778     21.0066   1.0187879449e+02   6.7005631545e+01    0.5648571    0.3328768 -50.37  0.001702651    2.011    0.503
        20 -10.0155     64.4807     13.3924   9.6916549586e+01   6.7926216669e+01    0.4497655    0.3373131 -25.86  0.002077548    1.311    0.237
        21 -10.4777     50.2638     15.8415   1.0544949459e+02   7.0178941991e+01     1.141555    0.6941603   4.00  0.004894913    2.690    0.628
        22  -9.2706     96.1375     15.4383   8.6389494376e+01   6.0425026282e+01    0.6218805    0.2764026 -19.10  0.001885597    2.752    0.637
        23  -9.4886    118.9376     20.7234   8.2869903820e+01   5.3829218882e+01    0.5548685    0.2941224 -14.79  0.001085944    2.334    0.572
        24  -9.5075    131.7125     17.1428   7.8625853306e+01   5.0766237212e+01    0.5218976    0.3095295  80.14  0.001921441    1.865    0.464
        25  -9.8329    133.4096     10.9258   7.5737123350e+01   5.0965516020e+01    0.7790831    0.2266553 -26.61  0.002527905    3.262    0.693
        26  -9.9734    115.3902      4.4815   7.6298095211e+01   5.6577940542e+01    0.6561617    0.3387595  82.15  0.002568826    2.299    0.565
        27  -9.4478    125.2029      5.6866   7.4968175147e+01   5.3765613212e+01    0.5516529    0.2572758  55.33  0.001792095    1.902    0.474
        28  -8.8191    125.1614     13.1511   7.8226863097e+01   5.3019366999e+01    0.3004708    0.2265348 -42.49 0.0008281998    1.400    0.286
        29  -8.9880    126.9605      9.0052   7.6089365953e+01   5.2954969903e+01    0.3907691    0.2391465  37.13  0.000835249    1.776    0.437
        30  -8.8973    112.1849     15.6219   8.2183329639e+01   5.6255889103e+01    0.3558222    0.2238832 -39.55 0.0006389139    1.676    0.403
        31  -9.1478    113.7787     10.1451   7.9277955153e+01   5.6445329891e+01    0.4575304    0.2581415  37.50 0.0004702467    1.922    0.480
        32  -8.0523     80.6781     12.5255   8.9891677857e+01   6.4526823469e+01    0.2949676    0.1495403 -41.77   0.00123849    2.178    0.541
        33  -8.9149     88.9852      2.7191   8.1762248017e+01   6.3671903151e+01    0.5365004     0.238483  61.92  0.002146786    2.122    0.529
        34  -9.6011     85.0823     12.9120   8.8571952258e+01   6.3444288328e+01    0.4920703    0.2882894 -53.06  0.001411273    2.320    0.569
        35  -8.3500     85.1598      6.6533   8.5112998685e+01   6.4187967743e+01    0.4962616    0.3010159  38.18  0.001868505    1.644    0.392
        36  -8.2611    141.1792     11.9447   7.4835267877e+01   4.8685125754e+01    0.2469029    0.1944459 -63.22  0.001230464    1.344    0.256
        37  -9.3319     96.6479      5.0601   8.0916084594e+01   6.1491497210e+01    0.4825149    0.3296541 -34.60  0.002385331    1.548    0.354
        38  -7.3670    143.3090      5.9478   7.2135083857e+01   4.8670175242e+01    0.2583821   0.05973534 -41.48 0.0007040542    4.363    0.771
        39  -8.4592    130.8371      6.1804   7.4193465822e+01   5.2150655911e+01    0.2511407    0.1598601  37.44 0.0004945617    1.691    0.409
        40  -8.2715    103.9465      2.2021   7.7650730696e+01   5.9867913654e+01    0.2641081    0.2091589  22.68  0.001285923    1.321    0.243
        41  -8.1335    135.0460      1.6653   7.1627742904e+01   5.1377676665e+01    0.4280908    0.1340389  62.69  0.001470671    2.590    0.614
        42  -9.3656    127.6574    102.5646   1.0902635160e+02   3.7066239203e+01    0.3890933    0.3409681 -59.38 0.0009367513    1.213    0.175
        43 -10.2199    198.7974    248.6575   1.1975126890e+02   1.7311776285e+00    0.3107651    0.1982432  44.16  0.002191351    1.703    0.413
        44  -9.7143    154.5572    249.7328   1.2749788006e+02   7.5736484571e+00    0.3721175    0.1012552  33.79  0.001611428    3.026    0.670
        45  -9.9279     58.3279    124.7302   1.3439688564e+02   4.4242173246e+01    0.6454418    0.3142131  69.03  0.002363459    2.867    0.651
        46  -8.6311    128.5018    124.7472   1.1411560919e+02   3.2301249798e+01    0.3049677    0.2299902  -8.39 0.0008078361    1.907    0.476
        47  -9.5681     27.4478    123.0293   1.4383149251e+02   4.8009822245e+01    0.5718176     0.217577  61.87  0.002300118    2.956    0.662
        48 -10.6774    133.3033    109.4811   1.0929217597e+02   3.4416408482e+01    0.8235222    0.4486199 -46.91   0.00264697    1.947    0.486
        49  -9.1451     41.0410    121.4826   1.3939211038e+02   4.7051965732e+01    0.4286298     0.206268 -89.92  0.001518137    2.333    0.571
        50 -10.4447    241.5818    121.0664   9.0792058727e+01   9.7230675225e+00    0.2449152     0.219119  25.25  0.001615672    1.177    0.150
        51  -9.6470    140.7067    118.5207   1.0960372654e+02   3.1009356749e+01    0.4448164    0.3231093 -83.75  0.001247769    2.072    0.517
        52  -8.0413      1.3309    115.9833   1.5147470121e+02   5.1559633985e+01     0.260767   0.09313031 -83.22 0.0008843791    2.364    0.577
        53  -8.9011    149.9321    110.4622   1.0540562510e+02   3.0554386679e+01     0.441956    0.2143486 -51.74  0.001477697    2.532    0.605
        54 -10.0246     91.9344    113.0396   1.2187271616e+02   4.1867011050e+01    0.6151947    0.3915268  71.70  0.001504761    2.124    0.529
        55  -8.4828     91.8645    104.3011   1.1995737912e+02   4.3894913940e+01    0.4537131     0.282421 -28.34  0.001280992    2.553    0.608
        56 -10.2050     77.8679    113.0436   1.2626477728e+02   4.4219040767e+01     0.526037    0.3748144  86.99  0.001700871    1.618    0.382
        57  -7.7819     63.4007     82.2341   1.2457080734e+02   5.3816739559e+01    0.2880532    0.1379585 -64.88 0.0007425714    2.192    0.544
        58 -10.4483     62.7752     95.6393   1.2784751903e+02   5.0662659335e+01    0.8552251     0.452107  77.61   0.00155577    3.559    0.719
        59  -8.6750     64.0433     86.3740   1.2532576359e+02   5.2725110596e+01    0.5119218    0.2650018 -30.75  0.001762244    3.668    0.727
        60  -9.2570     64.4377    102.7715   1.2870379677e+02   4.8696810627e+01     0.491906    0.3815149 -80.63  0.002646305    1.286    0.223
        61  -9.8713     65.7739    110.8883   1.2977725475e+02   4.6547381172e+01    0.6256354     0.342076  73.08  0.001343568    2.680    0.627
        62  -9.3776     59.7524    109.9761   1.3161477627e+02   4.7595591568e+01    0.5554845    0.3604803  77.40  0.001586712    1.766    0.434
        63  -8.8469     24.4143    112.2425   1.4377316018e+02   5.0850366156e+01    0.2374402    0.1058879 -72.36 0.0007686229    1.972    0.493
        64 -10.1190     29.8819    109.3554   1.4163217976e+02   5.1075829003e+01    0.4366104    0.2923408 -19.09  0.001738125    2.203    0.546
        65  -9.7835     14.1515    111.3427   1.4708187008e+02   5.1849295741e+01    0.4519399    0.1910817  71.36  0.001678423    2.452    0.592
        66  -8.1595    158.7856    112.0149   1.0373851422e+02   2.8285293718e+01    0.2203757    0.2003382 -72.69 0.0005762354    1.267    0.210
        67  -8.8850     35.9858    111.5765   1.3983722780e+02   4.9960092514e+01    0.2941517    0.2342144  52.60  0.001241412    1.203    0.169
        68  -8.0716    187.8315    106.9750   9.6426948453e+01   2.2633967673e+01    0.2216096     0.185106  13.48 0.0004686443    1.252    0.202
        69 -10.8255     44.7061    102.4702   1.3555412360e+02   5.1269943146e+01    0.8972083    0.3976245  66.47  0.003203319    3.513    0.715
        70  -9.1936     40.1616    107.2194   1.3784516173e+02   5.0597243638e+01    0.2393261    0.1551538  54.88 0.0007204272    1.515    0.340
        71 -10.3941    131.8584    119.8780   1.1215340959e+02   3.2606507911e+01    0.7842057    0.4841889  76.56  0.002164601    3.117    0.679
        72 -10.3170     31.9967     64.0785   1.3352894987e+02   6.2007388136e+01    0.9814044    0.3917585 -46.72  0.003218319    2.506    0.601
        73  -9.9512     19.9908     84.9798   1.4230107518e+02   5.7845823201e+01    0.9329989    0.2381804 -70.30  0.003459043    3.076    0.675
        74 -10.3404     25.7010     77.9861   1.3895945186e+02   5.9137085139e+01    0.6908427     0.338564  70.22   0.00186203    2.674    0.626
        75 -10.1077     34.5015     90.7728   1.3746961692e+02   5.5207892963e+01    0.5811573    0.2699359 -89.37  0.001771648    2.657    0.624
        76 -10.1595     36.1268     81.4851   1.3525012122e+02   5.7344362641e+01    0.8340577    0.4301838 -17.70   0.00309573    3.927    0.745
        77  -8.4966    165.9362    104.0980   1.0014754292e+02   2.8090380166e+01    0.3394683    0.2165019 -42.04 0.0006680813    1.636    0.389
        78  -9.4889    149.4820    103.4143   1.0371072702e+02   3.1997031684e+01    0.4007474    0.2914259 -61.78 0.0009337344    1.697    0.411
        79 -10.0823    139.2298    103.0995   1.0614580165e+02   3.4386812224e+01    0.7471178    0.3388392 -46.79  0.001953602    2.361    0.576
        80  -8.1512     14.4706    105.0101   1.4645496359e+02   5.3345709992e+01    0.1883267    0.1061209 -78.93  0.000460358    1.534    0.348
        81  -9.9022    244.8725    102.0067   8.6097547679e+01   1.1484993335e+01    0.3074424    0.2410322 -30.94  0.001236988    1.203    0.169
        82  -8.0685     73.6333    102.2007   1.2545145103e+02   4.7464271709e+01    0.3223016    0.1337192 -60.52 0.0009464748    2.404    0.584
        83  -7.6292    191.4136    102.2090   9.4558004642e+01   2.2590081422e+01     0.200153    0.1323663 -42.72 0.0005035512    1.588    0.370
        84  -8.5696    159.0013    101.3939   1.0097326062e+02   3.0178613123e+01    0.2698631    0.2080644 -58.88 0.0005346516    1.525    0.344
        85  -9.4860     81.5391     99.5860   1.2222090720e+02   4.6801651444e+01    0.6544142    0.3176974 -60.02  0.001874228    2.123    0.529
        86  -9.3443     94.2669     97.2502   1.1749728132e+02   4.5073851612e+01     0.366774     0.278461 -86.99  0.000664097    1.597    0.374
        87  -8.7844     96.2668     90.7811   1.1517761522e+02   4.6163728146e+01    0.5216385    0.3387232  -7.37  0.001832428    3.412    0.707
        88  -9.7245    241.6495     95.1986   8.4961059280e+01   1.2951127498e+01    0.4541887    0.2689832  14.08  0.002107935    2.350    0.574
        89  -7.5489    241.6423     90.3036   8.3818789582e+01   1.3565708918e+01     0.130857    0.0961295 -57.77 0.0007039174    1.719    0.418
        90  -8.3392    149.8366     96.9630   1.0190684127e+02   3.3136201592e+01    0.2578223    0.1833983   0.52  0.001078667    2.086    0.521
        91 -10.1915      4.3485     89.7260   1.4882048134e+02   5.7628779846e+01    0.7314548    0.2657573  73.24  0.002633242    3.035    0.670
        92  -9.5013      6.0666     78.8690   1.4721215275e+02   6.0172241468e+01    0.5916202    0.2023927 -40.82  0.002312945    3.743    0.733
        93  -7.0407    171.2648     95.6583   9.6794085009e+01   2.8319670517e+01    0.1493439    0.1176789 -67.93 0.0002416312    1.598    0.374
        94  -8.4858    164.3286     94.4722   9.7941641701e+01   3.0168717315e+01    0.2623852    0.2327103 -49.23 0.0005830133    1.194    0.162
        95  -9.6059    138.8449     91.9844   1.0322826570e+02   3.6664638382e+01    0.6379256    0.3662339 -41.42  0.001957588    1.808    0.447
        96  -9.1880    140.4713     82.1579   9.9966420276e+01   3.8170396679e+01    0.9739697    0.3637181 -34.52  0.003087773    3.106    0.678
        97  -8.9416    139.8480     75.5592   9.8107357486e+01   3.9560681927e+01    0.5557859    0.2658418 -41.22  0.001409187    2.131    0.531
        98  -9.1572    157.7154     91.0275   9.8449094893e+01   3.2362750956e+01      0.41438    0.1747581 -39.38  0.001429867    2.414    0.586
        99  -9.3850    111.3678     89.3856   1.1008627973e+02   4.3384443563e+01    0.8396971    0.4889759  20.50  0.002835486    3.282    0.695
       100  -9.0013    150.5215     88.5402   9.9398797468e+01   3.4546902860e+01    0.4155079    0.2234845 -31.64  0.001551885    2.093    0.522
       101 -10.5322     55.1218     70.9323   1.2499087381e+02   5.7701785355e+01    0.7000009    0.4427833  60.18  0.001229079    1.973    0.493
       102  -8.9507     54.6899     63.3275   1.2304723752e+02   5.9564522731e+01    0.5140262    0.3203093  24.82  0.002455267    1.838    0.456
       103 -10.2351     63.1876     60.7227   1.1857109818e+02   5.8909659162e+01     1.138927    0.3110245  33.44  0.002722419    4.269    0.766
       104 -10.2704     47.7916     84.4004   1.3114127205e+02   5.5361318774e+01    0.6736518    0.4043359 -82.37  0.001456458    1.855    0.461
       105  -8.9643     49.2395     76.8743   1.2891278315e+02   5.7028188818e+01    0.4709579    0.3421706  -6.38  0.002270533    1.873    0.466
       106  -8.1386    174.2593     88.9749   9.4366702737e+01   2.8737596913e+01    0.1974829    0.1299301 -34.60 0.0008840384    1.536    0.349
       107 -10.1296     85.2600     86.6078   1.1773566433e+02   4.9187256661e+01    0.5419267    0.3707436  69.35 0.0009495922    1.879    0.468
       108  -9.4228     87.3372     78.8103   1.1482813625e+02   5.0587774601e+01    0.5823613    0.3993551  14.08  0.001721024    2.173    0.540
       109  -8.4196    163.4353     86.5595   9.5935164655e+01   3.1771318746e+01     0.340804    0.1871003 -30.80  0.001072131    1.967    0.492
       110  -9.4658      6.0462    103.9731   1.4924779115e+02   5.4121267689e+01    0.4505773    0.1990155  49.36  0.001715416    2.120    0.528
       111  -9.2733    109.6163     63.9095   1.0263869819e+02   4.9071220908e+01    0.3785937    0.2762721 -52.28  0.000704907    1.456    0.313
       112  -8.9234    110.7738     57.9615   1.0017525162e+02   4.9955615637e+01    0.3917875    0.3150788  18.71  0.001174252    1.481    0.325
       113 -10.2187    103.9209     82.8133   1.1048502586e+02   4.6384766084e+01    0.5061864    0.3190752 -60.43 0.0008687977    1.839    0.456
       114  -9.4415    104.8501     71.3471   1.0663633940e+02   4.8631133141e+01    0.9229836    0.4311698 -33.80  0.002846415    2.784    0.641
       115  -8.8139    157.8119     82.9538   9.6123969897e+01   3.3781426302e+01    0.4841357    0.2674552 -28.10  0.001427764    2.078    0.519
       116  -8.7628    157.1284     76.6324   9.4402629836e+01   3.5058693274e+01    0.3754483    0.2267894 -45.29 0.0007795855    1.737    0.424
       117  -6.9725    221.6982     81.6914   8.4411497348e+01   1.8829367410e+01    0.1397751    0.1021277  16.28 0.0003450184    1.602    0.376
       118  -8.6840    149.9135     80.0821   9.7068524263e+01   3.6243798957e+01    0.4583755    0.2223254 -37.88  0.001335561    2.106    0.525
       119  -8.8875    118.9683     80.4404   1.0522236097e+02   4.3584938351e+01    0.3597389    0.2593571 -57.54 0.0006451418    1.540    0.350
       120  -8.1382    119.5110     76.0119   1.0369281601e+02   4.4359706351e+01    0.2931613    0.2167956  24.45 0.0007696408    1.668    0.400
       121  -9.0417     74.1780     80.2193   1.1997765789e+02   5.2605380046e+01     0.365174    0.2408609 -75.53 0.0008312734    1.861    0.463
       122  -7.2994    211.6611     80.7603   8.5634316500e+01   2.1192034991e+01    0.1405531    0.1025247  27.46 0.0002298429    1.551    0.355
       123  -7.8822    170.2696     83.4142   9.3615349353e+01   3.0637854575e+01    0.2689537    0.1748755 -53.00 0.0009943297    1.789    0.441
       124  -8.4203     68.6559     79.3384   1.2181922135e+02   5.3708408815e+01    0.3174847    0.1618627 -51.08  0.001341946    1.896    0.473
       125  -8.7317    166.2679     78.6787   9.3067790966e+01   3.2422985459e+01    0.2984987    0.2093829 -23.70 0.0006661278    1.566    0.362
       126  -8.0775    184.1123     78.0734   8.9448670994e+01   2.8104468214e+01    0.2379424    0.1951512  22.04 0.0005967913    1.349    0.259
       127  -8.5725    130.4887     64.5194   9.6913950912e+01   4.3923144525e+01    0.4668529    0.2036407 -40.01  0.001146302    2.320    0.569
       128  -9.4047    127.2647     75.1290   1.0124458735e+02   4.2705774092e+01     0.423842    0.2887275 -63.10  0.000838212    1.860    0.462
       129  -8.3505    129.5550     68.8243   9.8594288517e+01   4.3356427126e+01    0.5402829    0.2811416  29.48  0.001717482    3.313    0.698
       130  -9.8649     81.6085     72.5864   1.1502018420e+02   5.3063648078e+01    0.4392022    0.3143891 -81.96 0.0009860264    1.874    0.466
       131  -9.2411     83.5679     64.4960   1.1169662903e+02   5.4491909840e+01    0.6170312    0.4660867 -15.27  0.002675782    1.750    0.429
       132  -8.8918    224.0078    249.7638   1.1581475786e+02  -1.5964487329e+00    0.1414938   0.06168794  34.02 0.0008876613    1.646    0.393
       133 -10.0205    187.4900    246.5094   1.2139307741e+02   3.4512334627e+00    0.3561809    0.1294502  27.32  0.001690693    2.830    0.647
       134  -8.2815    172.6572    249.6871   1.2431327949e+02   5.1185655211e+00    0.1104503   0.06575587  17.79 0.0007046789    1.704    0.413
       135 -10.3658     16.2101     67.6563   1.4146567041e+02   6.2350955777e+01     1.442828    0.2007055 -67.66  0.002982252    4.196    0.762
       136 -10.8232     21.7751     53.6078   1.3617672247e+02   6.5388088586e+01    0.8617936    0.4126232  79.57  0.002871873    3.461    0.711
       137  -8.2007    166.3074    249.6674   1.2541763593e+02   5.9817020755e+00    0.1025666   0.06933983  50.25 0.0002877142    1.667    0.400
       138  -9.1202     65.5037    246.5317   1.4358955539e+02   1.9566672833e+01    0.1766128    0.1385528  41.10 0.0005398483    1.238    0.192
       139  -9.7758     14.9205     44.4207   1.3778072423e+02   6.8038865319e+01    0.4615323    0.2889749 -45.63  0.001333951    1.469    0.319
       140 -10.4072    108.5142     99.8089   1.1374227074e+02   4.1707543471e+01     1.025263    0.5634861  64.49  0.003654877    2.811    0.644
       141  -9.8153      8.2812     47.1975   1.4199678740e+02   6.7728786170e+01    0.6744481     0.196825  20.44  0.002786173    3.582    0.721
       142  -9.9829      4.8565     41.7019   1.4291631353e+02   6.9178845448e+01    0.5252964    0.2659004 -87.54  0.001664014    1.987    0.497
       143  -9.4021    174.8723    242.4850   1.2309706019e+02   5.6052134914e+00    0.1727764    0.1196042  18.50 0.0003965021    1.305    0.234
       144  -8.1443    186.3521    241.3118   1.2095698215e+02   4.1509246208e+00    0.1140252   0.06606318  17.08 0.0007045139    1.725    0.420
       145  -8.2744    162.5987     73.1226   9.2174975142e+01   3.4277619985e+01    0.2843483    0.2323893 -75.20 0.0007191076    1.442    0.307
       146  -9.0701    115.3345     72.1976   1.0369109629e+02   4.6094923881e+01    0.5958751    0.2832159 -38.48  0.001798788    2.242    0.554
       147  -7.6983     75.3484     74.3885   1.1789561772e+02   5.3765290434e+01     0.278284    0.1397293  23.00 0.0009565604    3.240    0.691
       148  -8.2487    169.3474     71.1401   9.0213537246e+01   3.2891108134e+01    0.2225824    0.1335771 -43.24 0.0004934886    1.707    0.414
       149  -9.5045    146.8583     68.4970   9.4192530107e+01   3.9074779142e+01    0.6458871     0.312341 -36.41  0.002012794    2.103    0.525
       150  -8.0891    156.4821     69.9684   9.2504278305e+01   3.6365155175e+01    0.2303965    0.1525412 -37.03 0.0009147903    1.529    0.346
       151  -9.7865     94.7079     68.1466   1.0893760561e+02   5.1473378690e+01    0.4889768    0.2725776 -52.35 0.0009575408    1.892    0.472
       152  -9.2545     97.0617     58.7049   1.0485699629e+02   5.2933121390e+01     0.844835    0.5243449 -36.24  0.003674119    1.707    0.414
       153  -8.1487     75.5586     67.4914   1.1571674392e+02   5.5305152423e+01    0.3674869    0.1423789 -53.54  0.001174182    2.600    0.615
       154  -8.1494     23.1639     69.1345   1.3857235613e+02   6.1510635284e+01    0.1902923     0.156474 -55.83 0.0003507933    1.151    0.131
       155  -9.2754    138.0698     65.2539   9.5235951943e+01   4.1882108657e+01    0.6112215    0.3072947 -28.89  0.001556957    2.330    0.571
       156  -9.1530    121.1691     66.1277   9.9990134857e+01   4.5910711355e+01    0.3828762    0.2751561 -58.88 0.0009915375    1.610    0.379
       157  -8.0662    121.8606     61.4066   9.8174302658e+01   4.6633743400e+01    0.3533394    0.2167526  34.32  0.001048832    1.945    0.486
       158  -7.7706    250.3312     65.3359   7.6882344582e+01   1.4859373260e+01    0.1316316   0.09309338  16.07 0.0005908744    1.733    0.423
       159  -7.8331    170.6870     65.3060   8.8188971753e+01   3.3476117180e+01    0.1572619    0.1175469 -68.92 0.0003675508    1.620    0.383
       160  -8.8554    157.3271     63.4124   9.0257944994e+01   3.7238185116e+01    0.2776745    0.2542676 -55.56 0.0007225905    1.125    0.111
       161  -9.6217    188.0035    233.8356   1.1973060207e+02   4.7295966423e+00     0.230213    0.2022397 -67.36  0.001212211    2.055    0.513
       162  -8.5628     87.4206     58.4987   1.0818474647e+02   5.5009437311e+01    0.3140785    0.2563157 -74.42 0.0007849982    1.458    0.314
       163  -7.4733    132.0122    233.0231   1.2990301781e+02   1.2826359988e+01    0.1390705    0.1020355  38.32 0.0003599461    1.012    0.012
       164 -10.4860     85.5713     48.7146   1.0516944106e+02   5.7380457266e+01    0.6943125    0.4778676 -72.07  0.001762952    2.177    0.541
       165  -7.6379    137.5720    227.7144   1.2826777333e+02   1.2756315761e+01    0.1295363    0.1106401  85.64 0.0009432078    1.618    0.382
       166  -8.6539     43.1061    225.3071   1.4674788049e+02   2.5455645958e+01     0.170295    0.1401491  57.86 0.0003868428    1.195    0.163
       167  -7.0884     40.5119    212.4694   1.4663420192e+02   2.7946734636e+01    0.1119761     0.082595  53.83 0.0002095533    1.032    0.031
       168  -8.3922    164.7608     59.6396   8.7559935705e+01   3.5899021945e+01    0.3934658     0.184181 -31.23  0.001470184    2.175    0.540
       169  -7.7840    152.4828     60.5063   9.0345799014e+01   3.8976266336e+01    0.1561287    0.1500525 -87.58 0.0003392235    1.054    0.051
       170 -10.6647     20.6548    100.9374   1.4390959322e+02   5.3888387506e+01     1.131376     0.401701  69.38   0.00363916    4.140    0.758
       171  -7.9515      9.4848     60.0069   1.4345311242e+02   6.4589489395e+01    0.1975517    0.1050972 -73.81  0.001027163    1.578    0.366
       172  -8.5940    194.6302     59.1211   8.2282547865e+01   2.8288796826e+01    0.2145409     0.197618 -81.60 0.0003979301    1.130    0.115
       173  -8.4045    149.8454     48.1681   8.6739137201e+01   4.1626332428e+01    0.2765149     0.219875 -32.55 0.0004907235    1.290    0.225
       174  -8.5139    146.5074     58.9792   9.1153997248e+01   4.0789409419e+01    0.3257113    0.2306013 -46.03 0.0007656206    1.469    0.319
       175  -8.6114    147.6834     54.2258   8.9285035931e+01   4.1256276722e+01    0.4346899    0.2519377 -26.42  0.001756495    1.903    0.474
       176  -8.9961    129.9772     56.9729   9.4441157018e+01   4.5403814974e+01    0.5796655    0.2297507 -36.90  0.001227823    2.551    0.608
       177  -9.3173    138.8434     56.7113   9.2154645941e+01   4.3166219034e+01    0.3919752    0.2151525 -37.89 0.0006536778    1.842    0.457
       178  -9.4326    142.0114     48.7936   8.8644054483e+01   4.3623966954e+01    0.5916148    0.2433326 -34.52  0.001925918    2.421    0.587
       179  -7.5967     46.2939     58.3315   1.2537113309e+02   6.1842635717e+01    0.1422204   0.09779529 -32.76  0.000295944    1.634    0.388
       180  -9.2406    118.1629     54.8762   9.6879000946e+01   4.8741931411e+01    0.5400618     0.334155 -44.81  0.001130961    1.678    0.404
       181  -9.3322    121.0901     47.0600   9.3141371935e+01   4.9373234640e+01    0.4211259    0.2771264 -29.85 0.0004860382    1.614    0.381
       182  -9.1887     53.3836     38.7936   1.1506757191e+02   6.5251489290e+01    0.6491107    0.2019441 -41.34  0.002109898    3.591    0.722
       183 -10.1100     49.9190     53.8237   1.2228062210e+02   6.2425005379e+01    0.7260682    0.3227474 -63.82  0.002396345    2.521    0.603
       184  -9.4808     56.3510     42.9369   1.1529605915e+02   6.3916051190e+01    0.7861506     0.461634  -7.96  0.002806431    3.736    0.732
       185  -7.9980    157.2604     55.4643   8.7691668368e+01   3.8524843030e+01    0.2177895    0.1504816  76.77 0.0009396414    1.656    0.396
       186  -9.5242     44.2335     53.4474   1.2488061950e+02   6.3239115404e+01    0.4061737    0.1835919 -43.31  0.001132061    2.283    0.562
       187  -9.5972    162.9594     53.0422   8.5781961240e+01   3.7382850500e+01     0.500668    0.2141496 -30.69  0.001798475    2.369    0.578
       188  -9.1020    105.3341     52.3899   9.9791903185e+01   5.2288707999e+01    0.5729303    0.2544446 -42.24  0.001394251    2.282    0.562
       189  -9.0233    158.0002     49.9567   8.5713168860e+01   3.9169147776e+01    0.4608639    0.2025372 -55.38    0.0013858    3.633    0.725
       190  -9.6797    130.6656     46.1398   9.0331227240e+01   4.7046476665e+01    0.8649421    0.3490022 -24.03  0.001869511    3.451    0.710
       191  -9.9441     11.5075    207.1226   1.5233829783e+02   3.1759585202e+01    0.2625803    0.2304754  43.22  0.001943428    1.372    0.271
       192 -10.1245     37.9243     42.2330   1.2442639579e+02   6.6557292619e+01    0.6016822    0.3552687 -84.88  0.001330603    2.806    0.644
       193  -9.8821     35.6050     37.8954   1.2415452855e+02   6.7792964348e+01    0.2401354    0.2227513 -27.08 0.0003512658    1.067    0.063
       194  -8.5425    111.8963     47.0982   9.5745997554e+01   5.1670260547e+01    0.2640979      0.23678 -72.37 0.0003624659    1.230    0.187
       195  -8.8227    113.3644     41.5677   9.3124342604e+01   5.2245744026e+01    0.5415118    0.3251503   4.63  0.001829977    3.319    0.699
       196  -8.3773    152.5764     52.8916   8.7791190344e+01   4.0169215242e+01    0.3805829    0.1445697 -34.23  0.001286017    2.587    0.613
       197  -9.0000      7.0099    208.0000   1.5326393081e+02   3.1995870105e+01    0.1993512    0.1151926  39.64 0.0008245514    1.397    0.284
       198  -9.3215     70.8422     25.6630   1.0077391464e+02   6.4668666706e+01    0.5641689    0.3137754  42.33  0.002550279    1.799    0.444
       199  -8.3743    124.0362    206.0204   1.2848827840e+02   1.7996209252e+01    0.1745847    0.1362493  41.27  0.001147496    1.005    0.005
       200 -10.1144     69.3228     40.6445   1.0840958298e+02   6.2179851571e+01    0.9087058    0.4356946 -42.18  0.002220309    2.044    0.511
       201  -7.1164     61.7553    202.2731   1.4150403356e+02   2.7340658009e+01    0.1150875   0.06760627  58.75            0    1.442    0.307
       202  -8.9400    192.4620    195.0251   1.1335331873e+02   8.6768578759e+00    0.6979696    0.3937688 -61.61  0.002257533    8.156    0.877
       203 -10.0806     76.0477     31.7941   1.0158444437e+02   6.2538028848e+01    0.4597912    0.3980442  87.57  0.001310913    1.469    0.319
       204 -10.0274    186.1604    193.3585   1.1425990927e+02   9.9105423579e+00    0.2027413    0.1738959  23.15 0.0001966079    1.117    0.105
       205  -8.0113      1.5740    183.2253   1.5377821098e+02   3.7075527995e+01    0.1351795   0.08824628 -82.16 0.0004507423    1.540    0.350
       206  -9.9387     79.7141     23.8000   9.6216373361e+01   6.3103822744e+01    0.6606429    0.3369058  31.93  0.002037144    2.567    0.610
       207  -9.2067     84.7038     21.9434   9.3420904290e+01   6.2269695250e+01     0.302863    0.2753895 -26.03 0.0007378184    1.117    0.105
       208  -9.2042    148.4770     42.9979   8.5203153121e+01   4.2766785662e+01    0.4131188    0.2070593  74.26  0.001450198    2.541    0.606
       209  -8.6934    153.0191     41.1807   8.3663094264e+01   4.1794798684e+01     0.246675    0.2038822 -74.24 0.0008130077    1.314    0.239
       210  -9.1137    110.1628     33.0393   9.0485212447e+01   5.4413168453e+01    0.4083128    0.2514385 -45.72 0.0008582144    1.762    0.432
       211  -8.3328    109.8204     26.6746   8.7801724959e+01   5.5438246775e+01    0.5602348    0.2414984 -40.45   0.00206964    2.420    0.587
       212  -8.3169    111.4124     22.1844   8.5368813194e+01   5.5638368319e+01    0.3336801     0.240296 -49.79  0.001200559    1.547    0.353
       213  -9.4623    104.9001     41.0870   9.5438559718e+01   5.4417249294e+01     0.421507    0.2558812 -53.96 0.0005835842    2.017    0.504
       214  -8.6526    105.8514     36.4069   9.3182664376e+01   5.4962813397e+01    0.3250388    0.2294568  32.83 0.0008078853    1.563    0.360
       215  -8.7723    139.4080     39.7447   8.5924065738e+01   4.5698474093e+01    0.4474189     0.240246 -37.93  0.001800149    1.874    0.466
       216  -7.8360    160.3775     39.2054   8.1620826789e+01   4.0062679181e+01    0.2198838    0.1336558 -40.72 0.0004851874    1.648    0.393
       217  -9.0283    153.3958     35.1592   8.1459149890e+01   4.2521647173e+01    0.5088996    0.1944667 -26.09   0.00171718    2.788    0.641
       218  -8.7211    144.1084     36.5194   8.3741169073e+01   4.4882597070e+01    0.2852465    0.2180632 -58.72 0.0005902102    1.432    0.301
       219  -8.8795    132.8717     36.0671   8.5975909019e+01   4.7998306959e+01    0.3447575    0.2502411 -33.46  0.000677212    1.416    0.294
       220  -9.4885    133.9940     31.0459   8.3768558201e+01   4.8399235013e+01    0.2660668    0.2432858  57.43  0.001397069    1.048    0.046
       221  -8.5360     39.9911     35.0000   1.2058782361e+02   6.7914480342e+01    0.3243669    0.2677497  34.40  0.001519777    1.321    0.243
       222  -8.8216    118.8640     34.2226   8.8629213490e+01   5.1991498647e+01    0.3485927    0.2203106 -31.59 0.0008418066    1.632    0.387
       223  -9.3532     60.0818     33.8153   1.0961857270e+02   6.5180479691e+01    0.4173084    0.2890103 -57.44  0.001355545    1.652    0.395
       224  -8.7380     62.6130     26.9725   1.0514356020e+02   6.6026584799e+01    0.4787277    0.2352663  31.46  0.001931913    2.495    0.599
       225  -7.3335    186.8378    178.4194   1.1164541044e+02   1.1837870704e+01    0.1779972    0.1028216  31.07 0.0005209231    1.534    0.348
       226  -7.3390    243.6507     34.6924   7.0055974844e+01   1.9717101181e+01    0.1285795   0.09522354  27.08 0.0007043386    1.707    0.414
       227  -7.3932    190.4161     32.5676   7.4958338951e+01   3.2812835004e+01    0.1433592    0.1366504 -65.63 8.006838e-05    1.008    0.008
       228  -9.2627    152.6751     27.8799   7.8961521569e+01   4.3659683474e+01    0.3716333     0.206283 -12.93  0.001455793    2.262    0.558
       229  -7.6101    232.9820     27.5369   6.9142530259e+01   2.2859782040e+01    0.1979896    0.1290125  76.03  0.001047723    1.643    0.391
       230  -8.4164    139.8442     18.1300   7.7513444836e+01   4.8392526613e+01    0.2654196    0.1987303 -39.19  0.000598551    1.377    0.274
       231  -9.7436    143.9027     25.3490   7.9581878553e+01   4.6409150595e+01    0.3344963    0.2953872  -0.20 0.0003958807    1.256    0.204
       232  -8.2434    140.3123     22.6990   7.9224364551e+01   4.7729227726e+01    0.3378738    0.1624036 -46.65 0.0006844415    2.302    0.566
       233  -7.9938    136.2728     26.9871   8.1694403960e+01   4.8312740857e+01    0.2101097    0.1970151 -37.38 0.0005260264    1.111    0.100
       234  -8.6448    128.4085     25.8405   8.2893395222e+01   5.0613749023e+01    0.3558913    0.2301957 -44.55 0.0006605509    1.641    0.391
       235  -7.6699    129.6668     21.6680   8.0907080232e+01   5.0796433664e+01    0.2722582    0.1455094  31.76  0.001002736    2.486    0.598
       236  -8.2927    226.4855    176.4783   1.0421732272e+02   5.5213861572e+00    0.1234548   0.09569141  13.18 -1.160485e-05    1.032    0.031
       237  -9.1385     91.2502     26.2045   9.3234663312e+01   6.0100394935e+01    0.4008974    0.2615527 -54.93 0.0009203576    1.940    0.484
       238  -8.4958     92.0685     20.8921   9.0375720568e+01   6.0690628166e+01     0.329952    0.2178276  13.51  0.001072064    2.014    0.503
       239  -7.9269    161.9192     26.3246   7.6895682119e+01   4.1283903550e+01    0.2039074    0.1914851  62.71 0.0005171738    1.058    0.055
       240  -8.9771    155.1604     21.4280   7.6201148329e+01   4.3736268633e+01    0.2918313    0.2112392 -24.86  0.001394632    1.452    0.311
       241  -8.1169    230.2511    168.2678   1.0209892335e+02   5.8881343873e+00    0.2595386    0.1380994 -50.43  0.001071931    4.292    0.767
       242  -9.0652     40.9471     20.6078   1.1343573331e+02   7.0748625680e+01     0.245078    0.1790548 -41.70 0.0003346356    1.262    0.208
       243  -7.6699     14.2783    153.0099   1.4965200565e+02   4.2296154420e+01    0.1623014    0.1246169  74.08 0.0002736136    1.062    0.058
       244  -8.4350    133.5826    146.5559   1.1730513503e+02   2.6945308772e+01    0.4476042    0.1440299 -51.65  0.001507701    3.695    0.729
       245  -9.4665    234.2652    146.7483   9.7286176497e+01   7.8234133343e+00    0.4575301    0.1581253  35.98  0.001832113    3.101    0.678
       246  -9.6515     67.0424    144.3445   1.3451004266e+02   3.8538573494e+01    0.6194468    0.3256126  66.11  0.002751381    2.247    0.555
       247  -7.0663    200.4697    141.6044   1.0198994350e+02   1.4662812269e+01    0.1359814    0.1167525  18.78 0.0001876765    1.032    0.031
       248  -8.3407    112.3835    133.9941   1.2028352323e+02   3.3498005295e+01    0.2954988    0.1827505  57.25  0.001332878    1.738    0.425
       249  -8.3197    135.8536    132.0031   1.1382460626e+02   2.9350912358e+01    0.3928454    0.1578571 -46.27  0.001457752    2.714    0.632
       250  -9.4181     98.5430    128.8729   1.2310950674e+02   3.7115169713e+01    0.6057481    0.3240974  65.06  0.002265453    2.835    0.647
       251  -8.9793     27.6220     16.3131   1.1983257133e+02   7.3264386604e+01    0.2511055    0.1983969 -30.86  0.001018218    1.134    0.118
       252  -8.3612    195.8401    129.8922   1.0031319192e+02   1.7329522340e+01    0.2037653    0.1831616  10.42 0.0005012953    1.022    0.021
       253 -10.0923     70.1143    126.0983   1.3098637273e+02   4.2310644848e+01    0.5703505    0.5268756 -56.70  0.002110001    1.216    0.177
       254  -9.8732    117.3970    123.7542   1.1683850378e+02   3.4724823803e+01    0.9121506    0.4910913 -49.52  0.002652318    1.987    0.497
       255  -9.0044    130.2516     96.8982   1.0682547782e+02   3.7654818071e+01    0.5415702    0.2826224  30.57  0.001885149    2.755    0.637
       256  -8.7467    126.1884     83.7483   1.0418624440e+02   4.1250918720e+01    0.5802158     0.363167  12.09  0.001934219    3.403    0.706
       257 -10.0491    123.1636     91.2521   1.0719929306e+02   4.0406192579e+01    0.6160244     0.529402  15.23 0.0009637596    1.353    0.261
       258  -9.9868    108.4812    114.3890   1.1726029554e+02   3.8495194564e+01    0.5640767    0.3634897 -83.62  0.001481471    2.439    0.590
       259 -10.8190    121.1570    109.5732   1.1256150314e+02   3.6985354577e+01     1.412665     0.643745 -49.50   0.00518667    2.330    0.571
       260  -9.1761    109.9135    107.0330   1.1512756161e+02   3.9834267546e+01     0.624792    0.3526829  38.29  0.002296987    1.779    0.438
