#   1 NUMBER                 Running object number                                     
#   2 MAG_AUTO               Kron-like elliptical aperture magnitude                    [mag]
#   3 X_IMAGE                Object position along x                                    [pixel]
#   4 Y_IMAGE                Object position along y                                    [pixel]
#   5 X_WORLD                Barycenter position along world x axis                     [deg]
#   6 Y_WORLD                Barycenter position along world y axis                     [deg]
#   7 A_WORLD                Profile RMS along major axis (world units)                 [deg]
#   8 B_WORLD                Profile RMS along minor axis (world units)                 [deg]
#   9 THETA_WORLD            Position angle (CCW/world-x)                               [deg]
#  10 FWHM_WORLD             FWHM assuming a gaussian core                              [deg]
#  11 ELONGATION             A_IMAGE/B_IMAGE                                           
#  12 ELLIPTICITY            1 - B_IMAGE/A_IMAGE                                       
         1 -14.9873      6.2851     70.7955   8.8832769230e+01   6.4038538242e+01     1.132336    0.9299654 -63.69   0.00460336    1.147    0.128
         2 -12.6328      8.0964      2.6049   6.3252444269e+01   7.9984897648e+01    0.6524911    0.3111759  38.04  0.003157355    2.121    0.528
         3 -15.8434     11.1999     23.5162   7.2643445986e+01   7.5447031926e+01     2.095948     1.180143 -34.41  0.009310714    1.840    0.457
         4 -14.2848     27.1114     11.6563   5.1398129845e+01   7.5612487952e+01    0.9790174     0.686143  -9.45  0.005135241    1.802    0.445
         5 -13.6168    122.1894     36.9772   2.7276277744e+01   4.9598486769e+01    0.8400483    0.4956158  43.98   0.00296745    2.028    0.507
         6 -12.9627    148.3648     29.9078   2.0691776978e+01   4.3958299173e+01    0.5938172    0.4859105 -20.56  0.002195694    1.475    0.322
         7 -13.1679    188.8188     25.6709   1.5274550094e+01   3.5084548860e+01    0.8345959    0.2431881 -55.71  0.002988628    3.700    0.730
         8 -15.0412     98.7205     11.5471   2.1853737526e+01   5.8846835565e+01     1.421518    0.8940138  70.37   0.00417133    1.405    0.288
         9 -12.2844     85.6247     13.7583   2.5781245728e+01   6.2019713326e+01    0.4557713    0.3562151 -72.79  0.001701049    1.351    0.260
        10 -12.0156     60.4760     15.1067   3.4554694795e+01   6.8123479741e+01    0.4825983    0.2798241  41.39  0.002115037    1.751    0.429
        11 -11.7107     46.8086     12.9308   3.9512021216e+01   7.1531492859e+01    0.3263447    0.2715883  78.18  0.001527805    1.406    0.289
        12 -12.4159    214.7535     10.1383   9.8705435629e+00   3.1428140205e+01    0.2940206    0.2571842 -51.35  0.001435449    1.222    0.182
        13 -11.5969    123.4033     11.0473   1.7636394844e+01   5.2439961189e+01    0.2463477    0.1754975 -89.41 0.0003668353    1.266    0.210
        14 -11.7122     75.1914     10.1381   2.6746869864e+01   6.5091605535e+01    0.3130289    0.2129935 -13.51  0.001299957    1.832    0.454
        15 -13.7189     41.9716      4.0691   3.5954811604e+01   7.3738955957e+01    0.6956055    0.5265479  41.10  0.003318823    1.201    0.167
        16 -11.6626    118.0277      2.1221   1.4959930328e+01   5.4680628169e+01    0.4754547    0.2054813 -84.47  0.001876672    2.566    0.610
        17 -11.1948     67.7608      2.6888   2.4750764589e+01   6.7727706186e+01     0.292997    0.1859771  40.89  0.001269631    1.636    0.389
        18 -10.7903    232.5188      1.5134   7.2549048783e+00   2.8942748682e+01     0.113029   0.07857396 -53.90 0.0007843518    1.024    0.024
        19 -11.3500     81.4757      1.2327   2.0493201022e+01   6.4339883874e+01    0.4685849   0.02139807  64.11  0.001202165    5.322    0.812
        20 -11.0545     61.3214      1.4357   2.5986581541e+01   6.9456003356e+01    0.3722717    0.1186149  65.36  0.001357348    2.751    0.636
        21 -13.0678     40.2930    195.0049   8.7682445549e+01   2.8194373123e+01    0.4262075    0.2509379  80.51  0.002108529    1.914    0.478
        22 -12.0195     50.8919    248.7159   8.8428842636e+01   1.6150372408e+01    0.2937751    0.2709088  13.31  0.002203991    1.258    0.205
        23 -12.3856      3.0402    249.4374   9.9257274670e+01   2.0245413320e+01      0.42907    0.2591779  48.75  0.002476491    1.252    0.201
        24 -13.7937      9.6789    245.6320   9.7698959640e+01   2.0419788173e+01    0.8908927    0.3431405  44.48  0.003666073    1.798    0.444
        25 -12.6458     36.6714    194.4924   8.8663477220e+01   2.8679567883e+01    0.3749533    0.2318996 -83.85  0.001945281    1.773    0.436
        26 -11.7523    206.4557    190.6739   4.8193425884e+01   7.6038900179e+00    0.2005425    0.1628734   5.80 0.0008538082    1.144    0.126
        27 -11.5784    200.4996    191.5042   4.9331980139e+01   8.1919550315e+00    0.1871562    0.1011913  41.57  0.001031598    2.310    0.567
        28 -12.0675    249.3688    182.2330   4.0443409596e+01   4.0088026074e+00    0.1904188    0.1098386 -35.84  0.001313989    1.503    0.335
        29 -11.4755    122.1215    181.3462   6.3905995348e+01   2.0638764658e+01    0.3410029    0.2085446  63.40  0.001430208    2.834    0.647
        30 -11.3933     48.9913    181.5252   8.4068461776e+01   3.0435409825e+01    0.2682953    0.1886504 -51.24  0.001389519    1.633    0.388
        31 -12.6177    124.1869    166.9319   6.1004158482e+01   2.3288774167e+01    0.5584806    0.3833951 -73.86  0.002637104    2.113    0.527
        32 -11.6793    222.4882    166.9999   4.1678776715e+01   9.0209320851e+00    0.1778201   0.09326212 -35.38 0.0009832788    1.598    0.374
        33 -11.4322    178.7755    167.5849   4.9145899558e+01   1.4793513593e+01    0.1718623    0.1160269  43.80 0.0009585134    1.716    0.417
        34 -11.0576    193.8377    165.0878   4.5955787749e+01   1.3061811686e+01    0.1795897    0.1662288 -32.41  0.001245351    1.264    0.209
        35 -12.0066     24.0384    159.4961   9.0022223077e+01   3.8513612753e+01     0.269036    0.1858132 -57.95 0.0009572381    1.575    0.365
        36 -13.5381     76.5570    156.7998   7.2668034565e+01   3.2966478397e+01     1.146746    0.5686858  42.74  0.004314729    1.887    0.470
        37 -13.2406     73.5056    153.4847   7.3117718208e+01   3.4233340140e+01    0.6304268     0.473483  31.24  0.002151156    1.252    0.201
        38 -12.4537    110.7291    155.2299   6.2434147767e+01   2.7996338809e+01    0.5281705    0.3537611 -88.15  0.002236539    2.432    0.589
        39 -11.3082    197.3222    156.6628   4.3812556834e+01   1.3903117325e+01    0.1138851   0.09690333 -67.90 0.0006957335    1.713    0.416
        40 -12.6860    189.4022    155.9735   4.5053264273e+01   1.5164035750e+01    0.2536795    0.2199927 -16.37  0.001516727    1.009    0.009
        41 -12.7842    189.2468    150.1521   4.3972788604e+01   1.6143157222e+01    0.3378234    0.2383594 -12.43  0.001927691    1.546    0.353
        42 -11.6427    246.7878    149.5764   3.5321403056e+01   8.4492078626e+00     0.194716     0.156237 -52.55  0.001445544    1.660    0.398
        43 -12.6565      8.0340    149.8650   9.4801955646e+01   4.2309859005e+01      0.56788    0.3892392  55.10  0.002981849    1.310    0.237
        44 -11.1246    103.5113    149.7866   6.3444480150e+01   3.0434148451e+01    0.2934758    0.1988977 -32.15  0.001074031    1.779    0.438
        45 -12.2187     60.1845    147.2706   7.6539373104e+01   3.7682156770e+01     0.430901    0.2806422  10.98  0.001894272    1.825    0.452
        46 -12.2370    148.5812    142.8851   5.0601314534e+01   2.4121953149e+01    0.5500761    0.2479893 -54.57  0.002106888    2.747    0.636
        47 -14.6892     14.2232    174.3869   9.4042083402e+01   3.5552335339e+01     1.812967     0.463625  44.40   0.00652749    2.926    0.658
        48 -12.2920     40.3151    137.0776   8.2146105443e+01   4.2859207360e+01    0.3395529    0.1961226  59.82   0.00132095    1.850    0.460
        49 -12.0620     44.1971    132.5985   8.0117759117e+01   4.3626108072e+01    0.2116992     0.145145   9.10  0.000944517    1.685    0.407
        50 -13.4514    111.7190    116.4101   5.4033439337e+01   3.6677279318e+01    0.4562739     0.342623  34.22  0.002180014    1.375    0.272
        51 -13.5021    105.9703    124.0207   5.7467240834e+01   3.6027961648e+01     1.254723    0.5837177  36.69  0.004725987    2.153    0.536
        52 -12.2871    180.5795    122.8734   3.9936427137e+01   2.2179128045e+01     0.430558    0.2389631 -40.29  0.002119277    1.633    0.388
        53 -13.3691     29.3104    121.0372   8.4379968469e+01   4.8423135372e+01    0.8650351    0.3757185 -64.35  0.003371191    2.165    0.538
        54 -11.3488    159.4272    120.2082   4.3360131971e+01   2.6527111414e+01    0.3639249    0.1280178 -45.06  0.001316774    2.728    0.633
        55 -12.3781      4.5821    119.3455   9.4336501990e+01   5.0785131383e+01    0.5633444     0.348039   5.65  0.002048463    1.793    0.442
        56 -12.1325     19.0121     86.1863   8.4155556328e+01   5.9011882956e+01    0.4318093     0.333317 -10.88  0.001086782    1.433    0.302
        57 -12.3112     36.7397     92.9346   7.6612430915e+01   5.5387741712e+01    0.5015607    0.3560947  -4.42  0.001592046    1.722    0.419
        58 -14.6559     24.2821     93.9316   8.2766666793e+01   5.6424826290e+01     1.798006     1.245872   1.76  0.008530903    1.638    0.390
        59 -14.3065     18.3420    111.7725   8.7884847674e+01   5.1968038213e+01     1.325148    0.5996183   9.03  0.005058853    2.567    0.611
        60 -14.6003     12.9002    103.3045   8.9388125960e+01   5.4723874138e+01     1.327361    0.7146981  23.43  0.005889765    1.835    0.455
        61 -12.3790     86.6752    114.8342   6.1439290509e+01   4.1837754026e+01     0.369417    0.2760406  12.10  0.001295864    1.697    0.411
        62 -11.1787    121.6930    112.0709   5.0228186508e+01   3.5645915023e+01    0.2737657     0.212217  71.43  0.000804252    1.540    0.351
        63 -12.3635     78.9901    110.2946   6.3043448711e+01   4.4363282065e+01    0.5012032    0.3646826  79.60  0.002202324    1.735    0.424
        64 -14.3137    106.3280    104.0782   5.2530127932e+01   4.0573453091e+01     1.058422    0.9062082  55.41  0.005376882    1.160    0.138
        65 -10.7003     42.6622    106.6919   7.6594642166e+01   5.0906906393e+01    0.1591094    0.1138277 -29.52 0.0006071436    1.681    0.405
        66 -12.2026    137.1948    103.4880   4.4193870806e+01   3.4235018346e+01    0.5597767    0.2867212  62.98  0.002024675    2.874    0.652
        67 -10.7355     64.5147    101.5340   6.6428073427e+01   4.9106503680e+01    0.2166061    0.2020119  53.64 3.697442e-06    1.037    0.036
        68 -11.8640     61.5128     97.5388   6.6683058463e+01   5.0639370100e+01    0.4915935    0.3134728  72.39  0.001946724    2.176    0.540
        69 -12.0295     49.0852     93.2800   7.1003020084e+01   5.3672253916e+01    0.4759347    0.3221205  54.27  0.002128826    1.583    0.368
        70 -11.5660     52.6854     97.5406   7.0400504552e+01   5.2013871493e+01     0.451752    0.2895603 -12.79   0.00175592    2.425    0.588
        71 -11.9320     47.1009     99.5259   7.3261606141e+01   5.2276338259e+01    0.6655831    0.3934723  68.30  0.002600985    2.249    0.555
        72 -12.1678     42.4608     90.6140   7.3427197488e+01   5.5297693173e+01    0.4988815    0.3185678  86.25  0.002090392    1.991    0.498
        73 -11.6995    163.9705     98.0581   3.7230117971e+01   2.9702469397e+01    0.2090108    0.1928964 -49.52 0.0004226457    1.006    0.006
        74 -12.1970    136.8569     94.7990   4.2009127684e+01   3.6036724420e+01    0.4474494    0.3078123  63.05  0.002095286    1.612    0.380
        75 -10.3614    118.7942     96.3531   4.6931233471e+01   3.9641168122e+01    0.2057533    0.1404595  37.74 0.0002667198    1.586    0.370
        76 -13.4622      2.1841     96.9302   9.3798012419e+01   5.7095915180e+01     1.261808    0.3622957 -88.41  0.003939955    3.712    0.731
        77 -12.6730    187.7083     84.3976   3.0019809363e+01   2.7226722394e+01     0.343585    0.2065723  40.46  0.001516042    2.169    0.539
        78 -13.2440    169.3694     77.3104   3.1056646895e+01   3.2120952015e+01    0.4952407    0.3441699  37.76  0.001759214    1.849    0.459
        79 -11.3490    158.0662     83.5058   3.4622299429e+01   3.3511862145e+01    0.2519469     0.215312 -67.32 0.0005602946    1.158    0.137
        80 -12.8225    161.2234     80.0269   3.3138084918e+01   3.3424593898e+01    0.5399886    0.3740238  20.76  0.001665681    2.375    0.579
        81 -13.1466     65.7842     49.1064   4.9137963489e+01   6.1242552151e+01    0.9104224    0.6805706 -36.58  0.004481556    1.470    0.320
        82 -13.2223     91.8167     57.8199   4.2749826989e+01   5.3676066515e+01    0.5546704    0.4727565 -44.90  0.002470759    1.231    0.188
        83 -13.6730     74.0317     73.8910   5.4836961978e+01   5.4184684682e+01     1.470335    0.7701392  21.35  0.004410612    4.010    0.751
        84 -12.8623     87.4054     65.2451   4.6904009564e+01   5.3210562274e+01    0.4960207    0.4300821   3.99 0.0008123853    1.453    0.312
        85 -13.8060     54.0333     67.2592   6.1423733057e+01   5.9506001350e+01     1.363165     1.075524  -1.11  0.006564585    1.586    0.369
        86 -13.7080     61.3056     75.5476   6.0720056805e+01   5.6226104537e+01    0.7100405    0.5192332 -37.95   0.00153464    1.529    0.346
        87 -11.6504    216.5163     82.0000   2.5804010945e+01   2.2242940452e+01    0.2240518   0.07047164  59.60 0.0009217372    3.831    0.739
        88 -11.7930    114.0784     79.7648   4.3445778222e+01   4.4141389571e+01    0.4232084    0.3211363 -55.11  0.001395006    1.339    0.253
        89 -12.0207    136.3688     79.6607   3.7940415005e+01   3.9046178179e+01    0.5117908    0.2565532  48.83   0.00192865    2.058    0.514
        90 -11.3394     41.6288     75.7813   7.0181067632e+01   5.9318593365e+01    0.3166673      0.22796 -67.68 0.0008801375    1.438    0.304
        91 -12.4164     28.6011    245.1960   9.3375775667e+01   1.8885747860e+01    0.4116913    0.1899761  36.12   0.00229335    1.527    0.345
        92 -14.2849      5.4621     63.1662   8.8190370996e+01   6.6111090054e+01    0.8205637    0.7409162  -2.77   0.00401318    1.139    0.122
        93 -11.6131     27.0975     74.7810   7.7643638058e+01   6.1350575079e+01    0.6027574     0.295969 -88.26  0.002154563    2.935    0.659
        94 -12.4312    198.9951     69.9730   2.5125202178e+01   2.7186231090e+01    0.3960569    0.3183122  16.86  0.002360192    1.789    0.441
        95 -12.4143    163.9608     71.6172   3.0441409588e+01   3.4220645287e+01    0.3331594    0.2973513  39.45  0.001890389    1.329    0.248
        96 -12.1950     39.3142     67.8926   6.9161206046e+01   6.1652361182e+01    0.5477628    0.2648281  32.29  0.002203717    1.986    0.496
        97 -12.0244    135.0387     66.4861   3.4347710730e+01   4.1729107028e+01    0.4446853    0.2575504  52.55  0.001528341    1.749    0.428
        98 -10.5907     99.4502     65.2166   4.2974726485e+01   5.0445810199e+01    0.2177452    0.1424485 -56.74 0.0009458406    1.671    0.402
        99 -12.8327     79.0312     60.6551   4.8284548811e+01   5.6024837213e+01    0.4676364    0.4378015 -80.88  0.002069585    1.093    0.085
       100 -12.2241     38.7198     59.7500   6.6935572396e+01   6.3752523219e+01     0.352837    0.2607097  67.88  0.001684788    1.684    0.406
       101 -11.5897     34.6166     60.5023   6.9533651398e+01   6.4136023979e+01    0.4526471    0.2070315 -49.39  0.001793235    2.160    0.537
       102 -11.4116     24.6386     59.9901   7.5378536952e+01   6.5454862771e+01    0.2814725    0.2671905 -60.99 0.0008943642    1.060    0.056
       103 -11.5425    110.9956     58.7900   3.7500225914e+01   4.8893152772e+01    0.2685935     0.247397  16.78 0.0004736991    1.312    0.238
       104 -14.1046    119.9883     54.8170   3.3935303784e+01   4.7379403355e+01    0.7057483    0.4855311  48.25  0.002974563    1.526    0.345
       105 -11.3768     17.6752     55.4805   7.8624845286e+01   6.7274210557e+01    0.3354307      0.21999 -71.52  0.001642431    1.564    0.361
       106 -12.9878    177.8547     58.4722   2.4926277398e+01   3.3197258934e+01    0.5060573    0.4224249 -72.31  0.001814769    1.128    0.113
       107 -12.8814     54.6965     79.7646   6.4963977973e+01   5.6318575778e+01    0.7824267    0.4864987 -51.00  0.003426947    1.628    0.386
       108 -13.2904    103.5492     50.4729   3.6532425262e+01   5.2182228715e+01    0.8027354    0.4532273 -59.36  0.001327664    2.214    0.548
       109 -13.2093     97.5174     50.0071   3.8066568619e+01   5.3744346369e+01    0.8347989    0.3669567 -38.65  0.003089662    2.399    0.583
       110 -11.5868    136.2603     49.6407   2.8859127228e+01   4.4196582128e+01    0.2551138    0.2409199  74.75 0.0006378006    1.124    0.110
       111 -11.8351    152.4682     46.5875   2.5197060025e+01   4.0714571829e+01    0.3790503    0.1806442  50.68  0.001460028    2.380    0.580
       112 -10.9314     38.6108     46.1733   6.1986480121e+01   6.6940136384e+01    0.2009517    0.1291216 -42.05 0.0007812053    1.631    0.387
       113 -13.2350      5.7802     42.8860   8.3960234279e+01   7.1297144407e+01     1.015535    0.4396804  15.35  0.004352686    2.282    0.562
       114 -12.0719     16.3180    235.7247   9.5896429187e+01   2.1756105987e+01    0.2314624     0.141386  47.45  0.001428716    1.277    0.217
       115 -13.4377     91.5100    231.2167   7.7627753117e+01   1.4983827600e+01     0.416266    0.2464441  63.64  0.002125359    2.462    0.594
       116 -12.4821     23.5755    216.5587   9.3399971992e+01   2.5021789997e+01    0.7979731    0.3800667  35.18  0.004115786    1.583    0.368
       117 -12.7061    205.0195     39.9985   1.7431477582e+01   3.0002860681e+01    0.4628624    0.2172956 -84.23  0.002109226    2.867    0.651
       118 -12.5566    212.2075     43.4230   1.7620351778e+01   2.8172516530e+01    0.4195225    0.2277704  67.61  0.002120371    2.058    0.514
       119 -12.7822    219.5791     41.5770   1.6613897270e+01   2.7002771742e+01    0.4858437     0.277312 -78.94   0.00206272    1.969    0.492
       120 -11.7755    159.0950     42.9334   2.3169504384e+01   3.9653936350e+01    0.3425327    0.2381583  78.48  0.001401791    1.428    0.300
       121 -11.6538    134.8595     39.6485   2.5867206832e+01   4.6018371959e+01    0.3830196     0.258158 -85.74  0.001456781    1.582    0.368
       122 -11.7884    109.9005     41.9492   3.1743744509e+01   5.1986848193e+01    0.4052655    0.2041137  65.96 0.0007276612    1.981    0.495
       123 -12.4947    131.5016     33.4142   2.4349258492e+01   4.7721265043e+01    0.4552522    0.3620264  65.90  0.001582589    1.227    0.185
       124 -13.2912     26.5472    225.7875   9.3058168622e+01   2.2839649449e+01    0.7236568     0.390818 -51.46  0.003807131    2.454    0.593
       125 -13.0126    113.8575     37.7406   2.9275304667e+01   5.1614294575e+01    0.4170339    0.3620211 -62.80   0.00121557    1.132    0.117
       126 -12.3144     32.7652     40.1786   6.3160988632e+01   6.9158690464e+01    0.3596406    0.2844629   8.72 0.0006572114    1.343    0.255
       127 -12.2180     75.9713     37.0030   3.9751935090e+01   6.1175143209e+01    0.3944203    0.2591951  55.53 0.0007767535    1.420    0.296
       128 -11.5995     70.6749     36.1104   4.1357992004e+01   6.2565003601e+01    0.3556396    0.2728067  73.41 0.0009996847    1.442    0.306
       129 -12.4682    241.9990     36.2763   1.3958667787e+01   2.3647030497e+01    0.3578341    0.2131436  81.30  0.001997938    1.946    0.486
       130 -12.6004     44.0545     33.3508   5.2863913175e+01   6.8680838827e+01    0.9954172    0.4627699  41.75  0.004129772    2.026    0.507
       131 -11.9321     42.5294     29.0605   5.1532507979e+01   6.9776623205e+01    0.1948308     0.185046 -14.91 0.0005251978    1.093    0.085
       132 -13.7242    166.3471     30.0005   1.8564331303e+01   3.9629414945e+01    0.8236297    0.4710372  78.17  0.003621107    1.731    0.422
       133 -12.0991    139.3387     21.5573   1.9193137173e+01   4.7215210217e+01    0.9878547    0.3208141  78.71  0.002371555    3.603    0.722
       134 -12.4115    152.4149     31.2293   2.0572398306e+01   4.2801363706e+01    0.3640076    0.3028665 -82.71   0.00136384    1.079    0.073
       135 -13.7899     20.7986    223.9703   9.4403542563e+01   2.3721078767e+01     0.689073    0.5224252  17.16  0.003478189    1.325    0.245
       136 -12.6784    142.9799     29.9838   2.1449410561e+01   4.5281583813e+01    0.4990773    0.3200479 -72.58  0.001950502    1.590    0.371
       137 -12.1908     40.3775     40.3425   5.8405509564e+01   6.7919966308e+01    0.5990503     0.287557  39.79  0.002500245    1.985    0.496
       138 -13.1496     64.8371    223.6590   8.3404611339e+01   1.9420142951e+01    0.7803324    0.5941637  25.12  0.004843859    1.125    0.111
       139 -13.2969     57.3962     26.7310   4.2384528064e+01   6.7127057766e+01     1.096362    0.3401439  48.99  0.003328874    2.913    0.657
       140 -11.3200     40.1219     24.6516   5.0560698036e+01   7.1030339226e+01    0.2470481    0.2040159 -38.37  0.001392205    1.290    0.225
       141 -11.8992     30.7254     25.5459   5.7390153687e+01   7.2506851178e+01    0.4067049    0.2700259  12.34  0.001865741    1.847    0.459
       142 -12.3299     35.3815     23.4644   5.2947555930e+01   7.2110571824e+01    0.3145128    0.2558131  22.03 0.0008709391    1.212    0.175
       143 -13.9974     64.1512    214.1454   8.2791201131e+01   2.1419339925e+01    0.5995516      0.35562  45.10  0.003195233    1.489    0.328
       144 -11.2983    155.9917    214.5022   6.1261818223e+01   1.0096224410e+01     0.191509    0.1030889  27.33  0.001042867    1.620    0.383
       145 -10.9553     51.2073     20.4111   4.1856348173e+01   6.9479660898e+01    0.3728856    0.1710656  58.64  0.001463084    2.439    0.590
       146 -11.2776     45.9931     20.5061   4.4671681503e+01   7.0570915437e+01    0.3853365    0.2232129  24.42  0.001603563    2.500    0.600
       147 -11.4318     71.1194     16.4326   3.1365074325e+01   6.5376031016e+01    0.2484127    0.2044347 -45.94 0.0005966298    1.327    0.246
       148 -12.0738      4.2693    212.4785   9.8180485704e+01   2.7491586942e+01    0.3789664        0.216 -86.34  0.002123145    1.875    0.467
       149 -12.8023     72.3877    207.1605   8.0018208211e+01   2.1923380221e+01    0.4114015     0.298033 -88.25  0.002275213    1.696    0.411
       150 -13.1546     59.4021    212.7731   8.3902446147e+01   2.2234491655e+01    0.3554731    0.2385163 -55.05   0.00104436    1.764    0.433
       151 -12.0094    248.6765    215.9262   4.5669580325e+01   9.5667865886e-02    0.1768896    0.1285467  14.38  0.001475556    1.407    0.289
       152 -10.4328    198.6644    204.3131   5.1674738153e+01   6.5782366389e+00   0.09596023   0.09145578  42.93 0.0007045912    1.687    0.407
       153 -12.2010    120.1346     26.2905   2.3788374803e+01   5.1556619175e+01     0.510022    0.3314483  67.09  0.002528846    1.416    0.294
       154 -11.3651    185.4823    203.5051   5.3897068262e+01   8.2275368673e+00    0.1179536   0.09505589  -2.73 8.433948e-05    1.012    0.012
       155 -12.8260     16.6301    196.5828   9.4370583561e+01   3.0040604769e+01    0.5822427    0.2388949 -58.30  0.002522916    2.868    0.651
       156 -13.4003     29.8080    169.2925   8.8893700779e+01   3.5463991385e+01     1.068932    0.8085075   1.12  0.005218368    1.537    0.350
       157 -15.4682      7.4081    181.8168   9.6392173012e+01   3.4257152838e+01     1.988657     1.640437  81.19   0.01223613    1.197    0.165
       158 -11.4421    249.1534    198.9090   4.3074604209e+01   2.0182237508e+00    0.1512826    0.1177047 -21.64  0.001248424    1.274    0.215
