#   1 NUMBER                 Running object number                                     
#   2 MAG_AUTO               Kron-like elliptical aperture magnitude                    [mag]
#   3 X_IMAGE                Object position along x                                    [pixel]
#   4 Y_IMAGE                Object position along y                                    [pixel]
#   5 X_WORLD                Barycenter position along world x axis                     [deg]
#   6 Y_WORLD                Barycenter position along world y axis                     [deg]
#   7 A_WORLD                Profile RMS along major axis (world units)                 [deg]
#   8 B_WORLD                Profile RMS along minor axis (world units)                 [deg]
#   9 THETA_WORLD            Position angle (CCW/world-x)                               [deg]
#  10 FWHM_WORLD             FWHM assuming a gaussian core                              [deg]
#  11 ELONGATION             A_IMAGE/B_IMAGE                                           
#  12 ELLIPTICITY            1 - B_IMAGE/A_IMAGE                                       
         1 -11.8756    211.5354     34.3615   4.1290899578e+01   2.8212163989e+01    0.9242963    0.7117028 -61.70  0.004155034    1.216    0.178
         2 -11.2758    219.3246     27.0719   3.8696415407e+01   2.7298209196e+01    0.6488984    0.4544022  58.05  0.001723034    1.510    0.338
         3 -10.3278      2.0000     22.4774   1.0035090685e+02   7.0912513282e+01    0.6866449   0.06565521 -55.63  0.002075397    6.441    0.845
         4 -11.6879    231.2996     15.4051   3.4943717830e+01   2.5954607561e+01    0.6912101    0.5408995 -64.97  0.002751855    1.089    0.081
         5  -9.3638      1.8459      4.1955   9.2832399472e+01   7.3977114789e+01    0.3213239   0.07413484 -46.30  0.001412649    3.292    0.696
         6  -8.7372     33.8800    237.9467   1.2190792914e+02   2.0729383152e+01    0.2157773      0.12194  72.43  0.001333253    1.554    0.357
         7 -10.7629     93.6559    246.0472   1.1103365546e+02   1.1568352229e+01     0.687938    0.2261327  29.68  0.002354351    4.515    0.779
         8 -11.2900     84.2530    247.8958   1.1305865535e+02   1.2558215360e+01    0.8702692    0.4961549 -68.33  0.004260197    2.009    0.502
         9 -11.0457     59.5797    248.8568   1.1785999341e+02   1.5643630532e+01    0.8583002    0.3679822  31.56  0.004270921    2.518    0.603
        10  -8.9185     40.0926    248.0088   1.2139219193e+02   1.8144662921e+01     0.361861    0.1517704 -64.01  0.001990655    2.600    0.615
        11 -10.7519     30.1884    247.8935   1.2315835873e+02   1.9276682141e+01    0.4696147    0.4136288  18.50  0.003628888    1.717    0.418
        12 -13.7003      2.8486    131.4493   1.2070232459e+02   4.6967073524e+01     6.641195     1.424025 -80.07   0.01946717    5.532    0.819
        13  -9.3699     40.1006    234.3520   1.2050886980e+02   2.0719162618e+01     0.208837    0.1566027  77.36 0.0004569843    1.126    0.112
        14  -9.1419     37.9980    231.0069   1.2068433125e+02   2.1611050095e+01     0.199367     0.143198  63.28 0.0003299876    1.094    0.086
        15 -12.2179    115.5533    230.7260   1.0484374148e+02   1.1096391622e+01    0.9613706    0.3700784  39.35  0.004184986    2.153    0.535
        16 -10.3101    120.3310    224.8337   1.0307315964e+02   1.1447348588e+01    0.3943973    0.2766565 -36.15  0.002157068    1.863    0.463
        17 -10.3274    101.8514    229.0275   1.0753900507e+02   1.3518498743e+01    0.3353656     0.237398  30.15  0.001932967    1.442    0.307
        18  -7.9900     44.4895    230.1480   1.1936959836e+02   2.1032486467e+01    0.1606468    0.1027733 -81.18  0.001005411    1.510    0.338
        19  -7.8651    169.5019    232.5476   9.3781272292e+01   2.1027732786e+00    0.1320941    0.1082179  24.86 0.0008085966    1.028    0.027
        20 -10.2017     95.2627    226.8522   1.0868618803e+02   1.4923265117e+01    0.3917154    0.2329607  64.06  0.002022084    1.851    0.460
        21  -9.6603     22.2910    224.0845   1.2324120658e+02   2.4674107667e+01     0.258919    0.1310702  44.24  0.001095673    1.678    0.404
        22  -8.1554     37.0571    223.8102   1.2037141027e+02   2.3148788523e+01    0.2019689   0.09331631  58.96 0.0009113487    1.925    0.480
        23 -10.1850     30.7391    219.9248   1.2134642396e+02   2.4629150349e+01    0.4745771    0.2508882  77.23  0.002689261    1.785    0.440
        24 -10.8538     87.6254    226.6097   1.1027414688e+02   1.6086448465e+01    0.7535397    0.3911778  87.08  0.002407364    3.119    0.679
        25  -9.4826    164.4828    218.9362   9.2700640802e+01   5.2105233443e+00    0.3336389    0.1355889 -47.28  0.001387964    2.838    0.648
        26  -9.5839     72.9358    218.7382   1.1257078902e+02   1.9732260531e+01    0.2445572    0.1790141  53.06  0.001489643    1.165    0.142
        27  -9.8349     45.0022    217.6365   1.1831626371e+02   2.3500475875e+01    0.3984372    0.2538095  58.03  0.002377916    1.329    0.247
        28 -11.1341     17.6298    218.3570   1.2379401958e+02   2.6293846307e+01    0.4581061     0.338462 -59.08  0.001697377    1.676    0.403
        29 -10.0761    134.9799    236.2052   1.0146378676e+02   7.0480405820e+00    0.2135984    0.1705216  89.64   0.00128373    1.648    0.393
        30 -10.0731     58.3927    180.0417   1.1164987461e+02   3.0176972307e+01    0.4007726     0.264406 -38.14  0.001482712    2.073    0.518
        31 -10.0264     64.0679    174.3238   1.0953596256e+02   3.0793952687e+01    0.2982616    0.2454775 -44.31 0.0005917601    1.415    0.293
        32 -11.3642     83.9681    229.3981   1.1133126345e+02   1.6062221550e+01    0.7209738    0.4116311  82.57  0.003604213    2.295    0.564
        33 -10.0334     74.1080    164.5089   1.0557589047e+02   3.1776468602e+01     0.354762    0.2819008 -61.97  0.000522676    1.226    0.184
        34 -10.8695     81.5433    158.2831   1.0260522911e+02   3.2203047532e+01    0.7193975    0.6650767 -35.54  0.001743445    1.210    0.174
        35 -11.5989     60.9847    160.8145   1.0850307355e+02   3.4434521425e+01    0.5284441    0.2947668 -44.70  0.001394177    2.087    0.521
        36  -9.9676     73.3185    154.7370   1.0425927318e+02   3.4263263939e+01    0.4011801    0.3268379  63.25  0.002198543    1.249    0.199
        37 -12.9635      9.2513    207.8252   1.2481424015e+02   2.9247119079e+01     1.254241    0.8434191 -70.01  0.002822928    1.492    0.330
        38  -8.0840    125.0796    154.2773   9.0195197805e+01   2.5698960202e+01     0.209434    0.1958185  48.20  0.000406808    1.054    0.051
        39 -10.5710     70.4832    145.4972   1.0351113382e+02   3.6931423216e+01    0.5471979    0.4085698 -27.39  0.001830946    1.692    0.409
        40 -10.9706     67.5201    142.5161   1.0384619640e+02   3.8072814756e+01    0.4995445    0.4101428  49.13  0.001562361    1.261    0.207
        41  -8.9929     95.9877    143.9948   9.6000006791e+01   3.3390148927e+01    0.3762861    0.2242393 -40.64  0.001600952    1.874    0.467
        42  -8.5123     99.8046    140.0175   9.4108828677e+01   3.3703975811e+01    0.3251385    0.2179558 -22.37  0.001354074    2.158    0.537
        43 -10.4275     84.4619    142.0906   9.8902827846e+01   3.5719581799e+01     0.310551    0.2689989 -49.69 0.0005265771    1.148    0.129
        44  -9.8824     74.8888    136.1404   1.0054971473e+02   3.8621738810e+01    0.4594698    0.2929757  65.45  0.002022913    2.059    0.514
        45 -10.4884     58.5580    131.3560   1.0453445854e+02   4.1997101067e+01    0.6320804    0.2548308 -73.77  0.002095315    3.501    0.714
        46  -9.1873    107.6200    131.6865   9.0064453104e+01   3.4311260781e+01    0.4115269    0.3143333  38.34   0.00147941    1.325    0.245
        47 -13.4465      5.3967    240.8657   1.2712807870e+02   2.3101087847e+01     3.949525    0.9775644 -71.27   0.01889186    3.553    0.719
        48  -8.5628     32.5812    130.7425   1.1217862429e+02   4.4928435164e+01    0.2674452    0.1046106 -64.28    0.0011446    2.091    0.522
        49  -7.7651     18.3149    130.3042   1.1625877092e+02   4.6212360251e+01    0.1290948   0.08147494 -46.01 0.0005280019    1.620    0.383
        50  -8.6634     95.6843    127.8163   9.2663903517e+01   3.7370683928e+01    0.3090254    0.2333809 -17.60  0.001432798    1.686    0.407
        51 -11.4348     29.7201    207.7726   1.2070291242e+02   2.7265649446e+01    0.5108523    0.3509428 -46.48  0.002215664    2.019    0.505
        52  -7.9564    105.9479    120.2293   8.7850616205e+01   3.7342969383e+01    0.2035533    0.1961379  12.37 0.0003004086    1.058    0.055
        53  -7.8812    168.4294    113.2850   6.9572207580e+01   2.5503618353e+01    0.2265903     0.146208 -51.77 0.0009439233    1.693    0.409
        54  -7.9669    205.5411    110.4973   6.1220119218e+01   1.7627016241e+01    0.1483075    0.1400716 -38.52 6.872367e-05    1.022    0.022
        55  -7.8272    134.4925    103.4942   7.5347563564e+01   3.5260007276e+01     0.156079    0.1550522  11.47 0.0001450589    1.031    0.030
        56  -9.1190     61.0008    234.6601   1.1647770322e+02   1.8128613629e+01    0.3031007    0.1774654  77.80 0.0009367269    1.777    0.437
        57  -7.4630     61.6699     71.7249   8.9406781638e+01   5.5616758234e+01    0.1421054   0.09925865 -15.01 0.0006990941    1.594    0.373
        58  -9.9237      1.8766     59.5675   1.1073256627e+02   6.3559267544e+01    0.4056833    0.1341004 -61.41  0.001508734    2.211    0.548
        59  -9.7011     13.0025     60.4534   1.0618482858e+02   6.2809867481e+01    0.3356078    0.1286938 -55.75  0.001356599    1.953    0.488
        60  -8.1108     34.6834     56.3876   9.5652162025e+01   6.1981107373e+01    0.2589572    0.1194298  23.47   0.00105603    2.343    0.573
        61  -9.2320    204.6739     50.1862   4.6112417330e+01   2.7730493225e+01    0.3108805    0.1688951 -30.25  0.001380085    1.958    0.489
        62  -9.5370      2.0102     48.4298   1.0812135581e+02   6.5895554127e+01     0.522585    0.1358718 -68.83  0.001686454    5.375    0.814
        63  -7.7753     29.6605     60.3244   9.8992410962e+01   6.1627974548e+01    0.1176872   0.09930328  71.66 0.0007051161    1.725    0.420
        64 -11.6513    203.7195     39.4230   4.3505490131e+01   2.9419708516e+01    0.5920938    0.5214726 -61.57  0.002244246    1.079    0.073
        65 -11.9626      5.1758    185.5448   1.2432694937e+02   3.4364520403e+01    0.9948998    0.5358765  79.12  0.003301383    1.617    0.382
        66  -8.7261    133.6924     40.5588   5.5944383439e+01   4.6659895110e+01     0.284485    0.2121368 -81.17 0.0006174247    1.821    0.451
        67  -9.4674      2.0972     37.9898   1.0529780072e+02   6.7991434546e+01    0.4166848   0.05525025 -61.26  0.001222491    6.283    0.841
        68 -10.6324     73.3954    249.6828   1.1531038594e+02   1.3708255320e+01    0.7124509    0.5303026  60.04  0.003493397    1.091    0.083
        69 -10.5627    114.3520    240.9851   1.0631793122e+02   9.4183987821e+00    0.2753224     0.257335 -10.18  0.001415416    1.347    0.257
        70  -8.8580     57.1136    238.5320   1.1754713074e+02   1.7875947242e+01    0.1693679    0.1532518 -82.18  0.000751629    1.317    0.240
        71 -13.4022     39.9018    197.6898   1.1773589769e+02   2.8349429135e+01     2.670124     1.187018  68.44   0.01175329    2.658    0.624
