#   1 NUMBER                 Running object number                                     
#   2 MAG_AUTO               Kron-like elliptical aperture magnitude                    [mag]
#   3 X_IMAGE                Object position along x                                    [pixel]
#   4 Y_IMAGE                Object position along y                                    [pixel]
#   5 X_WORLD                Barycenter position along world x axis                     [deg]
#   6 Y_WORLD                Barycenter position along world y axis                     [deg]
#   7 A_WORLD                Profile RMS along major axis (world units)                 [deg]
#   8 B_WORLD                Profile RMS along minor axis (world units)                 [deg]
#   9 THETA_WORLD            Position angle (CCW/world-x)                               [deg]
#  10 FWHM_WORLD             FWHM assuming a gaussian core                              [deg]
#  11 ELONGATION             A_IMAGE/B_IMAGE                                           
#  12 ELLIPTICITY            1 - B_IMAGE/A_IMAGE                                       
         1 -10.2868      4.7873     16.8155   8.6621070909e+01   7.2021001973e+01     0.365277    0.1485064 -46.63  0.001934069    2.321    0.569
         2  -8.3153    163.8623     11.3276   3.5469413435e+01   4.2318593695e+01    0.1963022    0.1803958 -23.95 0.0004061039    1.351    0.260
         3  -7.6655    111.3244      2.3197   4.0614764193e+01   5.5260535759e+01    0.1314214   0.07721274  40.38 0.0005290851    1.676    0.403
         4  -8.5249      2.3955      1.8555   8.0920057549e+01   7.4372102475e+01    0.1787583    0.1087834  10.00 0.0006573678    1.400    0.286
         5  -9.9103    186.2542    240.1719   8.3275352710e+01  -2.5668727043e+00    0.4077629    0.3214314 -68.08  0.001256285    2.112    0.526
         6  -9.2614    248.8594    249.8268   7.3169747709e+01  -1.1797918887e+01    0.3382264     0.193436   9.21  0.002102401    1.634    0.388
         7 -10.0438    226.7292    248.7414   7.6887722001e+01  -9.1385688296e+00    0.3953174    0.2731885  41.63  0.002458523    1.992    0.498
         8 -10.0400    226.8524    242.8305   7.5909840570e+01  -8.3230683388e+00    0.3864628    0.1778504  12.86  0.001716686    2.991    0.666
         9  -8.0717      4.0136    244.0000   1.2197216151e+02   2.1082250211e+01    0.1732788   0.05691653  30.56  0.000810098    2.996    0.666
        10 -10.2956    207.1135    234.6294   7.8255303664e+01  -4.5661841135e+00    0.2350839    0.2019194 -13.56 0.0005822223    1.159    0.137
        11  -8.5089    176.8545    225.0990   8.2758042515e+01   1.3724684444e+00    0.2263599    0.1790327 -28.43 0.0002766777    1.264    0.209
        12  -9.4981    174.5023    234.2747   8.4745855439e+01   1.1731633297e-01    0.3405118    0.2276169  35.52 0.0002543161    1.408    0.290
        13  -9.4065    175.9826    229.8712   8.3727028635e+01   6.6187592578e-01    0.2834495    0.2404073  12.56 0.0003372077    1.027    0.026
        14  -8.7152    234.9966    235.2419   7.3191341593e+01  -8.2249723884e+00    0.1836798     0.108402 -15.30  0.001050098    1.625    0.385
        15  -9.3581     96.8796    226.3210   1.0077309557e+02   1.3492193456e+01    0.2450701    0.1933855 -53.13 0.0006169376    1.402    0.287
        16  -7.4213    187.4651    226.4865   8.0793819307e+01  -4.5706074182e-01    0.2277521    0.1105945  43.29 0.0007809295    2.315    0.568
        17  -7.8006    204.1386    222.8523   7.6838266780e+01  -2.2594283106e+00    0.1771657    0.1649732  10.56 0.0004660713    1.263    0.208
        18 -10.0013    143.7584    218.5715   8.8908452136e+01   7.8018426671e+00    0.2491208    0.2356528 -38.35 0.0003441426    1.148    0.129
        19  -8.8412     95.6184    213.0196   9.9328528149e+01   1.6582920153e+01    0.2494658    0.1915905  38.58 0.0003435322    1.216    0.178
        20  -8.6347    166.8906    204.6068   8.1357169657e+01   6.7997492200e+00    0.2364651    0.1947081 -35.60 0.0003821566    1.222    0.181
        21  -7.4345    152.2223    201.6086   8.4117385320e+01   9.8638987834e+00    0.1846076    0.1825589 -56.54  0.000601035    1.137    0.120
        22  -9.5705     27.8603    198.7358   1.1397234721e+02   2.8695299896e+01    0.3187003    0.2030436 -70.07 0.0003073018    1.449    0.310
        23  -7.7737    210.6709    194.6711   7.0460392713e+01   1.6256491862e+00    0.1416832   0.09494629  -7.74 0.0007051291    1.710    0.415
        24  -7.7869     42.3158    194.6959   1.1010110644e+02   2.8090110103e+01    0.1419418   0.08852658  64.88 0.0003016191    1.622    0.384
        25  -7.9736     93.9814    189.7519   9.6345560018e+01   2.2244509141e+01    0.2064521    0.1941724  -7.55 0.0004627097    1.196    0.164
        26  -7.8562     75.3310    189.7931   1.0115507885e+02   2.5030693321e+01    0.1966098    0.1224222 -56.10 0.0003913149    1.605    0.377
        27  -7.4854     99.5133    186.4371   9.4390879148e+01   2.2162800229e+01    0.1452358    0.1397033  59.67   7.8932e-05    1.008    0.008
        28  -8.9352     30.3842    183.2405   1.1189687602e+02   3.2191483941e+01    0.2293346     0.209269 -70.86 0.0004152415    1.157    0.136
        29  -7.0829    188.2836    182.7059   7.2613224590e+01   7.5082628805e+00     0.129419    0.1148493 -86.17 0.0001935068    1.539    0.350
        30  -7.0061    126.5083    172.6251   8.4945881899e+01   2.0831923574e+01    0.1496747    0.1436467  24.21 0.0001030112    1.039    0.037
        31  -9.6140    174.3183    151.9353   6.9162417631e+01   1.6367332757e+01    0.3081906    0.2526484 -38.13 0.0003201095    1.164    0.141
        32  -9.0930    179.7096    148.9284   6.7340251312e+01   1.5944945785e+01    0.3689046    0.2414501  29.77 0.0009972642    1.772    0.436
        33  -8.7481    117.7939    148.0305   8.2170900553e+01   2.8333055895e+01     0.250407    0.2226471  23.37 0.0002214687    1.182    0.154
        34  -9.3407    177.5657    141.7500   6.6188192050e+01   1.7862398031e+01    0.3731071    0.2101647  33.94  0.001169617    2.087    0.521
        35  -7.6720     81.0778    137.8894   9.0597932288e+01   3.7277385534e+01     0.218779    0.1976805  80.92            0    1.188    0.158
        36  -9.4460    175.1160    131.1160   6.4260723017e+01   2.0570616515e+01    0.2378404    0.2075257  -6.33 0.0007534738    1.293    0.227
        37  -9.3823    164.3300    131.5965   6.6725115650e+01   2.2712427708e+01    0.3026121    0.1484736  49.94  0.001149348    2.208    0.547
        38  -7.5263    124.1680    122.7591   7.4505882759e+01   3.3064307763e+01     0.207929    0.1814087 -14.41 0.0008605049    1.273    0.215
        39  -8.3376     67.0591    115.5788   9.0176280594e+01   4.4989544530e+01    0.2451921    0.1998741 -72.45 0.0003242047    1.330    0.248
        40  -8.7625    199.8296    107.1975   5.3912428491e+01   2.0111099806e+01    0.3722662    0.1027785 -38.16  0.001131538    3.658    0.727
        41  -9.7153    181.3949    105.7600   5.6922718387e+01   2.4300338997e+01    0.4383312    0.3313043 -41.25  0.001051496    1.267    0.211
        42  -8.1669    101.4588    105.7022   7.6601377997e+01   4.1478913714e+01    0.2786038     0.187941  17.54  0.001174089    1.939    0.484
        43  -8.7860    203.4270    105.2368   5.2851091381e+01   1.9725464014e+01    0.2094437    0.1205096 -50.26 0.0009509943    1.659    0.397
        44 -10.1609     85.7237     97.8388   7.9423412494e+01   4.6159286586e+01    0.2530116     0.236535   5.83  0.000263599    1.067    0.063
        45  -7.5926    218.4993     97.4835   4.8744394865e+01   1.8037631100e+01    0.1364498    0.1200768 -53.15 0.0008104017    1.017    0.017
        46  -7.3575     97.2011     97.5988   7.5682526318e+01   4.4097195123e+01    0.2008736    0.1431979  26.34 0.0001939293    1.538    0.350
        47  -9.1305    204.3293     92.8429   4.9850285878e+01   2.1741081020e+01    0.2982811    0.1057179 -45.86  0.001095307    2.603    0.616
        48  -8.8036    222.1988     85.3547   4.5562910358e+01   1.9331775922e+01     0.259846   0.09740405 -37.15  0.001024197    2.550    0.608
        49  -7.1010    157.6493     92.7787   5.8453267188e+01   3.2070557133e+01    0.1449939      0.11359  27.45 0.0002396843    1.549    0.355
        50  -9.0101    190.1865     79.7946   4.9022890275e+01   2.7034382270e+01    0.1848503     0.171517  14.08  0.001002063    1.338    0.252
        51  -7.5258    134.7851     77.7633   5.9491524147e+01   4.0079017100e+01    0.1949188    0.1682892 -71.81 0.0003678123    1.283    0.221
        52  -7.1149    197.3281     63.8007   4.4094480098e+01   2.8013201114e+01    0.1810509    0.1224016 -30.75 0.0004990869    1.663    0.399
        53  -7.0721    118.7347     54.3455   5.6294115781e+01   4.7637242388e+01    0.1384876    0.1090402 -71.55 0.0005742445    1.607    0.378
        54  -7.2713    157.4594     51.7534   4.7328547059e+01   3.8983958471e+01    0.1735211    0.1379133 -17.22 0.0005727147    1.558    0.358
        55  -7.8356    150.0555     49.7558   4.8118422057e+01   4.1017871178e+01     0.187311    0.1642789  68.25  0.001082109    1.059    0.056
        56  -9.0362    119.0519     42.0807   5.2259197203e+01   4.9319763022e+01    0.3022765    0.2027651 -26.36 -0.0009232552    1.681    0.405
        57  -8.1157    224.0366     40.9387   3.5812416232e+01   2.5536568923e+01    0.1811846    0.1498107 -74.21 0.0003560696    1.035    0.034
        58  -7.9035    236.3200     36.1197   3.3695545270e+01   2.3688934308e+01    0.1655743    0.1220608 -54.03  0.000728689    1.157    0.136
        59  -7.7104    134.2252     34.0098   4.6478594526e+01   4.6824670438e+01    0.1664201    0.1125949 -30.72 0.0008721502    1.646    0.393
        60  -9.0499    113.4083     27.0376   4.8563133163e+01   5.2456629748e+01      0.23171    0.1589828  48.73 0.0005484403    1.292    0.226
        61  -7.2541    186.4931     24.5649   3.6117024678e+01   3.5716388983e+01    0.1258382    0.1072863 -89.68 5.652457e-05    1.037    0.036
        62  -8.4143    132.0021     24.0218   4.3828556561e+01   4.8489203611e+01    0.1558173    0.1455616  67.93 0.0009648238    1.065    0.061
        63  -7.7706    208.5457     21.5156   3.3162209338e+01   3.1198288775e+01    0.1209885    0.1003363 -79.08 0.0008083809    1.039    0.038
        64  -6.8510    215.2961    249.3392   7.9088835212e+01  -7.8276311526e+00    0.1250385   0.07690695  -5.37 0.0005242284    1.656    0.396
        65  -8.4541    110.1604     16.6257   4.5726075565e+01   5.4280824158e+01    0.1928277   0.09658519  51.64 0.0009405328    1.676    0.403
        66  -8.7550      1.8163    248.9069   1.2260649524e+02   2.0309879427e+01    0.1601315    0.1377095  86.72  0.001238797    1.269    0.212
        67  -8.1186    240.3282    244.3132   7.3749671456e+01  -1.0118871207e+01    0.1221725   0.07180362  -5.21 0.0007043258    1.670    0.401
