#   1 NUMBER                 Running object number                                     
#   2 MAG_AUTO               Kron-like elliptical aperture magnitude                    [mag]
#   3 X_IMAGE                Object position along x                                    [pixel]
#   4 Y_IMAGE                Object position along y                                    [pixel]
#   5 X_WORLD                Barycenter position along world x axis                     [deg]
#   6 Y_WORLD                Barycenter position along world y axis                     [deg]
#   7 A_WORLD                Profile RMS along major axis (world units)                 [deg]
#   8 B_WORLD                Profile RMS along minor axis (world units)                 [deg]
#   9 THETA_WORLD            Position angle (CCW/world-x)                               [deg]
#  10 FWHM_WORLD             FWHM assuming a gaussian core                              [deg]
#  11 ELONGATION             A_IMAGE/B_IMAGE                                           
#  12 ELLIPTICITY            1 - B_IMAGE/A_IMAGE                                       
         1 -14.3201    200.3344     14.9358   2.8953780793e+02   6.4656053191e+00    0.1466064     0.079301 -35.51   0.01116455    2.285    0.562
         2 -13.5785    205.4153      8.7347   2.8944057414e+02   6.5083411960e+00   0.07662523   0.04334507  -0.20  0.001458283    2.413    0.586
         3 -13.6185      3.7484     10.1612   2.9196977868e+02   7.6439599525e+00    0.1280697   0.03871636 -62.59   0.00913842    3.291    0.696
         4 -10.6597     33.4843    228.9772   2.9278119723e+02   4.9303541373e+00   0.01728648   0.01286758 -84.73  0.001834952    1.577    0.366
         5 -10.3701    249.5046    249.2752   2.9020025356e+02   3.4615584902e+00   0.01563363  0.008667924 -54.57  0.001466739    1.841    0.457
         6 -12.1355    140.2327    248.7126   2.9155718894e+02   4.0927904125e+00   0.02715442   0.02083867  66.28    0.0029324    1.499    0.333
         7 -11.2836    119.8849    238.2504   2.9175414821e+02   4.3305854454e+00   0.01666262   0.01049365 -77.84  0.001605657    1.900    0.474
         8 -11.9480    125.3797    249.6418   2.9174723726e+02   4.1667308067e+00   0.02730827   0.01432517  24.38  0.002482262    1.791    0.442
         9 -12.0930    125.1770    243.5763   2.9171698858e+02   4.2384429890e+00   0.03356127   0.01482571  51.65  0.002536977    2.924    0.658
        10 -12.3947    107.0282    247.2837   2.9196314978e+02   4.2988058438e+00   0.02977742   0.02047757  14.83  0.002853249    1.463    0.317
        11 -11.7714     98.0226    248.2964   2.9208083596e+02   4.3383467246e+00   0.02879689   0.01616619  40.55  0.001358552    1.711    0.416
        12 -11.0855    101.2869    246.0067   2.9202779828e+02   4.3463847593e+00    0.0158479   0.01240742  88.60 0.0004260362    1.497    0.332
        13 -10.9124     81.8500    249.0929   2.9228667812e+02   4.4211960578e+00   0.01778707   0.01556222  30.90  0.002065739    1.074    0.069
        14 -12.7488     81.3287    243.9662   2.9226552078e+02   4.4838151877e+00   0.05006096   0.02838707 -30.94  0.004414147    2.256    0.557
        15 -10.7965     88.8259    249.0351   2.9219942920e+02   4.3821433137e+00   0.01652331   0.01132263  55.22 0.0009925578    1.622    0.383
        16 -10.5479     85.3949    247.1887   2.9223222639e+02   4.4231661082e+00   0.01693089   0.01143844 -76.54  0.001426245    1.711    0.416
        17 -14.7362     32.0752    247.8224   2.9290023646e+02   4.7190422493e+00    0.6811792    0.1962854  15.35   0.03086978    7.783    0.872
        18  -9.6597     94.7294    216.6269   2.9195086282e+02   4.7255829963e+00   0.01303035   0.01028236  60.87 0.0007774157    1.398    0.285
        19  -8.8517    152.7394    212.9665   2.9120796820e+02   4.4371350085e+00  0.008789854  0.008598804  87.27 0.0002727065    1.094    0.086
        20 -10.5244    194.8105    198.0353   2.9060292198e+02   4.3701831303e+00   0.02292663    0.0112055  85.97  0.001504347    4.424    0.774
        21 -11.5815     68.4617    196.3610   2.9216898805e+02   5.1110146698e+00   0.02107124   0.01290128 -38.07  0.001580044    1.849    0.459
        22 -13.5401     45.7784    230.8210   2.9263783108e+02   4.8390345423e+00   0.06974775   0.02174353  31.36   0.00160271    2.692    0.629
        23 -11.6620     73.6387    188.9619   2.9206442356e+02   5.1676364206e+00   0.01585279    0.0119886 -36.25 0.0008390171    1.430    0.301
        24 -13.2368     69.9316    174.3583   2.9203174388e+02   5.3586705640e+00   0.02702462   0.01421048 -39.72  0.001775292    2.217    0.549
        25 -10.8974     82.4899    176.6284   2.9188730299e+02   5.2607244534e+00   0.01230868   0.01162121   3.02 0.0003816042    1.053    0.050
        26  -9.6143    229.4846    229.5155   2.9034206832e+02   3.8057718400e+00   0.01150122  0.006807422 -85.01 0.0007333872    2.275    0.560
        27 -12.1279     88.8725    167.3885   2.9175766603e+02   5.3318511563e+00   0.04982006   0.02628743  43.28  0.004515206    1.891    0.471
        28 -12.9197     67.7297    144.7997   2.9189934198e+02   5.7151129555e+00   0.05923244   0.03422271  71.63  0.005018449    2.611    0.617
        29 -12.2059     58.5026    133.2818   2.9195223502e+02   5.9016365612e+00   0.09165548   0.03478999 -82.29  0.004345854    8.365    0.880
        30  -9.9275    101.0716    151.3042   2.9151833116e+02   5.4493967686e+00   0.01445066   0.01267085 -26.39 0.0008139855    1.201    0.167
        31  -9.0452    103.9579    147.0249   2.9145912262e+02   5.4827059418e+00   0.01380032  0.007678235 -37.13   0.00122425    2.131    0.531
        32 -11.9654     89.9803    150.7232   2.9165362179e+02   5.5194122657e+00    0.0143456   0.01183049 -24.78  0.000525482    1.307    0.235
        33 -11.6505     44.6852    148.5826   2.9220756778e+02   5.8022445264e+00    0.0247181   0.01428923  -1.74  0.002129516    2.324    0.570
        34  -8.7295    192.1782    144.1360   2.9034307636e+02   5.0118457276e+00  0.009149972  0.007605567  58.00 0.0003811437    1.285    0.222
        35  -9.7898    111.5816    136.6466   2.9130771207e+02   5.5599032451e+00   0.01523791  0.009907981 -25.74  0.001460135    1.875    0.467
        36 -10.4986     99.1889    133.8673   2.9144734364e+02   5.6629570270e+00   0.01381905   0.01026509 -35.38 0.0004653386    1.467    0.318
        37 -14.3044     10.0495    207.1017   2.9295567354e+02   5.3179884692e+00     0.191689    0.1040403 -22.97   0.01375297    2.750    0.636
        38 -14.8678     50.5951    220.4494   2.9252185363e+02   4.9323494082e+00    0.1312115    0.1126353  21.62  0.009405677    1.099    0.090
        39 -11.3952     50.2532    129.8634   2.9203677615e+02   5.9883480957e+00    0.0158881   0.01127215  39.58 0.0006392424    1.350    0.259
        40 -10.7310     35.5027    225.5154   2.9273737781e+02   4.9591763133e+00    0.0174948   0.01399673  34.84  0.001860633    1.177    0.150
        41  -9.4282    108.1515    123.7626   2.9128065958e+02   5.7293228903e+00  0.009615649   0.00854805  38.35 0.0003572578    1.087    0.080
        42 -10.9824    168.2442    113.2283   2.9047351752e+02   5.5081901045e+00   0.01727939    0.0130701  54.47 0.0008373063    1.417    0.294
        43 -10.2585     42.8626    108.8107   2.9201516285e+02   6.2752655387e+00   0.01080575  0.009309195 -19.22 0.0005686551    1.228    0.186
        44 -10.0306    163.1861    249.1865   2.9127388155e+02   3.9562221437e+00   0.01011087   0.00781088  53.79  0.001092143    1.373    0.272
        45 -15.6452      3.3212    230.6601   2.9316638945e+02   5.0819651984e+00    0.8354886          nan -61.30   0.03674482    8.579    0.883
