#   1 NUMBER                 Running object number                                     
#   2 MAG_AUTO               Kron-like elliptical aperture magnitude                    [mag]
#   3 X_IMAGE                Object position along x                                    [pixel]
#   4 Y_IMAGE                Object position along y                                    [pixel]
#   5 X_WORLD                Barycenter position along world x axis                     [deg]
#   6 Y_WORLD                Barycenter position along world y axis                     [deg]
#   7 A_WORLD                Profile RMS along major axis (world units)                 [deg]
#   8 B_WORLD                Profile RMS along minor axis (world units)                 [deg]
#   9 THETA_WORLD            Position angle (CCW/world-x)                               [deg]
#  10 FWHM_WORLD             FWHM assuming a gaussian core                              [deg]
#  11 ELONGATION             A_IMAGE/B_IMAGE                                           
#  12 ELLIPTICITY            1 - B_IMAGE/A_IMAGE                                       
         1 -14.9550      6.2514     70.8314   9.7483688848e+01   6.2482378411e+01     1.284121    0.7755058 -58.36  0.006271724    1.374    0.272
         2 -12.1181    194.7940     23.0860   2.7236391686e+01   3.4422325094e+01    0.4820372    0.2841208 -27.61  0.002648749    1.875    0.467
         3 -13.6663    188.4285     25.0882   2.8335227447e+01   3.5578987845e+01     1.670467    0.4594798 -54.42  0.005279754    4.955    0.798
         4 -13.6992    187.9861     12.5117   2.5283492894e+01   3.7039119384e+01    0.9611681    0.5179083 -45.19  0.005358683    1.652    0.395
         5 -14.4007    166.4137     28.1881   3.1606911836e+01   4.0185010500e+01     1.081943    0.8440198 -89.38  0.005290424    1.201    0.168
         6 -14.3268    120.9255     36.7688   4.1730306401e+01   4.9876886994e+01     1.593002     0.608716  55.15  0.006331862    2.346    0.574
         7 -14.6049    147.0675     29.8823   3.4777939877e+01   4.4518739156e+01     1.475909    0.6361519  67.46  0.006346194    2.218    0.549
         8 -12.9590    242.4511     35.9473   2.6136603137e+01   2.3411831289e+01    0.5609695     0.256815  78.51  0.002536057    2.482    0.597
         9 -12.9984     44.2654     32.4751   6.5012910708e+01   6.6413889500e+01    0.7022899    0.5522395  34.41  0.004216022    1.284    0.221
        10 -13.5338      2.8177     10.1964   7.8647316175e+01   7.5219703151e+01    0.7382648    0.4821747 -45.28  0.004692471    1.565    0.361
        11 -13.1814      7.9556      2.5684   7.0321762404e+01   7.5859203565e+01     0.665085    0.3945214  40.98  0.003866894    2.214    0.548
        12 -15.9609     12.9835     20.9440   7.7064851496e+01   7.2453144412e+01     1.982591     1.080248 -22.85  0.008573487    1.870    0.465
        13 -14.0377     24.9264     13.3772   6.5596587867e+01   7.2189603518e+01    0.9405286    0.2755889  39.25  0.003778668    3.366    0.703
        14 -12.6516    223.4055     20.7601   2.4385359107e+01   2.8793600976e+01    0.2846635    0.2644684  31.95  0.001950781    1.561    0.359
        15 -14.6843    217.7123     13.1133   2.3151192535e+01   3.0755312963e+01     1.242013    0.9406419 -29.66  0.007278568    1.506    0.336
        16 -13.1764     55.5685     26.9493   5.7363618504e+01   6.5309201832e+01    0.6340406    0.4048678  41.99  0.002424923    1.473    0.321
        17 -12.2623     63.6170     24.6695   5.3104486211e+01   6.4088996877e+01    0.4721336     0.311892   6.37  0.002253842    1.857    0.461
        18 -13.4053     86.0923     14.4408   4.1410538391e+01   6.0500964649e+01    0.7146552    0.4362378 -53.16   0.00355923    2.216    0.549
        19 -15.3771     98.8560     11.0452   3.6991635424e+01   5.7914482024e+01     1.637738    0.8310785  65.19  0.007123401    1.797    0.444
        20 -12.4502     70.1815     15.8764   4.6705973858e+01   6.3804801542e+01    0.3758945    0.3521524  73.85  0.001837063    1.266    0.210
        21 -12.5106     59.0804     16.1069   5.0727138571e+01   6.6031684331e+01    0.3693959    0.3213048  47.34  0.002376951    1.206    0.171
        22 -12.0127     46.7605     12.7594   5.4051093182e+01   6.8746540681e+01    0.2860037    0.2320786  38.87  0.001336151    1.196    0.164
        23 -13.9336     41.9926      4.3849   5.1551693281e+01   7.0534870765e+01    0.6854331    0.5037763  24.87  0.003513297    1.171    0.146
        24 -12.5159    153.0271      8.5771   2.7681931733e+01   4.5352970177e+01    0.2754134    0.2300809  70.50 0.0009418516    1.139    0.122
        25 -10.9389     59.2838      7.6648   4.6417642960e+01   6.6892164728e+01    0.2612841    0.1067676  38.72  0.001017522    2.352    0.575
        26 -13.6938    140.8033     21.5282   3.3164616419e+01   4.6948118030e+01     1.187795    0.3597184  69.32  0.002845441    3.263    0.694
        27 -12.7498    119.5834      3.1274   3.0317350132e+01   5.3720276176e+01    0.5502475    0.2712159 -89.76  0.002433832    2.523    0.604
        28 -10.9055     66.9418      3.7310   4.1926581481e+01   6.5669322956e+01    0.1771379     0.143024  49.84  0.000489174    1.105    0.095
        29 -11.6333     74.8741      8.5204   4.1857764127e+01   6.3542585057e+01    0.4142695    0.1834211 -13.87  0.001337676    2.955    0.662
        30 -11.1515    232.7912      1.5626   1.9877261709e+01   2.9018965941e+01     0.186772   0.09184752  76.22  0.001124712    2.003    0.501
        31 -13.5155    120.7839     25.6660   3.7934183224e+01   5.1261570384e+01    0.9671822    0.6288829  39.47  0.004978096    1.678    0.404
        32 -11.2719    169.2241      1.5556   2.4138740267e+01   4.2261616873e+01    0.2920639   0.09844081  71.73   0.00128159    2.558    0.609
        33 -11.5733     81.0277      1.5018   3.7049991032e+01   6.2782496303e+01    0.5159234   0.08005335  60.85  0.001629872    4.333    0.769
        34 -11.6147     61.4266      1.4858   4.2534881580e+01   6.7015301718e+01    0.3534281     0.110719  59.02  0.001388711    2.936    0.659
        35 -12.1153     76.9835    156.6933   8.7710507654e+01   3.2792786877e+01    0.4491673    0.2987732  21.09  0.001549746    1.695    0.410
        36 -12.7499    109.2764    249.1158   9.2353118096e+01   7.7576256413e+00    0.3884155    0.2726731  36.45  0.002380855    1.222    0.182
        37 -12.2900     51.5849    248.8480   1.0469696658e+02   1.4732272857e+01    0.3693091    0.3069514 -77.71  0.002577314    1.334    0.250
        38 -12.4912     59.7999    246.4113   1.0276582806e+02   1.4284022908e+01    0.3235314    0.1819106  12.85  0.001610005    2.420    0.587
        39 -10.8437     41.6531    250.3166   1.0687401855e+02   1.5521210497e+01    0.1297704   0.06724779  55.27  0.000704815    1.724    0.420
        40 -12.6249      2.9816    249.2135   1.1459760294e+02   1.9474246178e+01    0.4449258    0.2997368  63.74  0.002598384    1.176    0.150
        41 -13.5792      9.5717    245.3939   1.1315056047e+02   1.9636976527e+01    0.7716026    0.3679951  54.82  0.003562303    1.685    0.406
        42 -13.3209     73.5205    153.1974   8.8135571314e+01   3.4192700289e+01    0.7433247    0.5663823  12.56  0.002980677    1.529    0.346
        43 -11.4902    103.3806    149.9113   7.8765494506e+01   3.0344360077e+01    0.3945769    0.2488054 -33.94  0.001608411    1.855    0.461
        44 -12.2646      6.2079    145.3959   1.0784343127e+02   4.3326061764e+01    0.2892595    0.2162818  53.78  0.001660844    1.366    0.268
        45 -11.8487    244.5036    147.4998   4.8534279555e+01   6.6103001960e+00    0.2764732   0.09926508 -38.76  0.001223013    2.207    0.547
        46 -12.4418     60.8011    147.0224   9.0976160164e+01   3.7545590772e+01    0.4508522    0.3329295  -5.11  0.002102439    1.739    0.425
        47 -11.7434    212.2426    154.7584   5.5056937847e+01   1.0224318407e+01    0.2257242   0.09378839 -32.19 0.0008971618    2.457    0.593
        48 -12.5425    246.3263    134.8416   4.5799453886e+01   8.3628202604e+00    0.3076452    0.2091556 -68.86  0.001649617    2.422    0.587
        49 -12.0142    135.7076    132.2627   6.6112303625e+01   2.8602525423e+01    0.4872989    0.2531238  43.91  0.001636016    2.014    0.503
        50 -12.1187     45.2914    133.1083   9.3661155430e+01   4.3131427460e+01    0.5904921    0.3553973 -87.54  0.002530569    2.006    0.502
        51 -13.1108     82.2029    113.3047   7.7019962381e+01   4.3078965484e+01     1.154211    0.7765699  45.15  0.005214407    1.592    0.372
        52 -14.0708    108.9825    121.2641   7.0680919896e+01   3.6319837229e+01     1.371455      1.09783   4.41  0.006496388    1.519    0.342
        53 -14.4728    106.2179    106.0337   6.7538007855e+01   4.0413583827e+01     2.141342      1.22618 -35.01  0.008535161    1.967    0.492
        54 -13.3128     95.5719    110.3444   7.1945939243e+01   4.1436950214e+01    0.8715355    0.7030243 -66.79  0.004163351    1.363    0.267
        55 -11.9178      4.1929    119.4603   1.0590228180e+02   5.0250395981e+01    0.5066531    0.1465299  15.96  0.001834096    3.911    0.744
        56 -12.6937     42.3453     90.5244   8.6023933379e+01   5.4518916994e+01    0.3639923    0.2787823 -69.86 0.0001632236    1.386    0.278
        57 -14.5732     24.2210     92.4151   9.3979162008e+01   5.5884477298e+01     1.368969     1.179965 -26.51  0.008050962    1.162    0.139
        58 -14.8004     16.0203    107.8336   1.0002997884e+02   5.2547807045e+01     1.570377      1.00594  71.44  0.007419598    1.891    0.471
        59 -13.4769      2.3186     97.2560   1.0380725630e+02   5.6112307045e+01    0.8536634    0.3137634 -77.40  0.003130373    2.601    0.616
        60 -11.2018    121.9503    112.2100   6.4712399908e+01   3.5863483118e+01    0.2712048    0.2204867 -43.05 0.0006430639    1.191    0.160
        61 -12.1089     63.2772    109.9785   8.2740932617e+01   4.6881573883e+01    0.5437227    0.3482604 -59.07  0.002465629    1.503    0.335
        62 -11.4342     42.1184    106.9163   8.9877042056e+01   5.0393414801e+01    0.3116643    0.2080593  13.73  0.001070905    1.721    0.419
        63 -12.1501    135.9105    102.8280   5.8578900818e+01   3.4985447997e+01    0.6598596    0.2503518  47.67  0.002071299    2.754    0.637
        64 -11.7889    134.7870    125.6522   6.4751366689e+01   3.0267098013e+01      0.32459    0.2792549 -21.55  0.001026836    1.227    0.185
        65 -12.3589     49.1749     93.4060   8.3995236826e+01   5.2966326784e+01    0.4172153     0.412723 -14.41  0.002454911    1.093    0.085
        66 -12.2441     51.6163     98.2494   8.4250580041e+01   5.1446483562e+01    0.7413151    0.3929771 -14.97  0.002459459    3.706    0.730
        67 -11.6459     46.4916     98.5106   8.6308383466e+01   5.2028870797e+01    0.2673878    0.2484222 -44.03  0.001050737    1.017    0.017
        68 -12.0255     60.9649     97.5512   8.0505766220e+01   5.0324987483e+01    0.4181548     0.320354  80.57  0.001986052    1.774    0.436
        69 -11.4312     89.8734     97.4719   7.0272724154e+01   4.5515304380e+01    0.3205585    0.2465901 -82.61  0.001196744    1.765    0.433
        70 -12.8482    136.2082     95.0192   5.6359518455e+01   3.6523418560e+01     0.507073    0.3726075  47.47  0.002436134    1.404    0.288
        71 -10.8200     81.3373     93.3268   7.1965248737e+01   4.8024732299e+01    0.1597757    0.1170779 -13.52 0.0007051687    1.726    0.420
        72 -10.9424    181.3289    120.6746   5.3215657733e+01   2.2013287110e+01    0.1458139    0.1114567 -72.85 0.0007050253    1.701    0.412
        73 -11.6728     35.6577     86.5490   8.7823107921e+01   5.6250301428e+01    0.2844261    0.2635836 -24.13 0.0005872616    1.069    0.064
        74 -12.4275    188.5611     84.0507   4.3065579002e+01   2.7173024636e+01    0.5444891    0.2622417  41.91  0.002215937    2.782    0.641
        75 -13.6676    164.1243     71.5475   4.3932551716e+01   3.4588763087e+01     1.140377    0.9013005  74.80  0.006129683    1.345    0.257
        76 -13.2909    160.8983     80.7747   4.7048048191e+01   3.3738719753e+01     1.732436    0.9292476  23.97  0.004734742    6.104    0.836
        77 -14.2250    169.5612     76.8496   4.4395443813e+01   3.2487462285e+01     1.171241    0.5077754  53.08  0.004732436    2.391    0.582
        78 -12.7589    135.5798     79.9406   5.2188093577e+01   3.9586707421e+01    0.6231827     0.430187  42.23  0.002503636    1.535    0.348
        79 -13.4057     65.4542     51.7010   6.3922754761e+01   5.9526081303e+01       1.2601    0.7398435 -26.17  0.005715729    1.971    0.493
        80 -13.5594     54.4059     67.5508   7.4237466166e+01   5.8226383080e+01     1.838228    0.8314362  31.30  0.007499255    2.308    0.567
        81 -13.5354     87.3956     64.9619   6.0842113684e+01   5.2867508011e+01    0.9946384    0.6250135  14.33   0.00401437    2.502    0.600
        82 -13.4980     91.6327     57.8175   5.6935553340e+01   5.3295985559e+01    0.5503893    0.5249723  -0.35  0.002813098    1.031    0.030
        83 -12.9292     54.7634     81.7146   7.8543778252e+01   5.5011169007e+01    0.5917969     0.421143 -59.04  0.002932039    1.459    0.314
        84 -14.0777     61.2391     75.6161   7.4066806717e+01   5.5417070028e+01    0.7573519    0.5207894 -28.13   0.00126779    1.559    0.358
        85 -13.1607     71.2934     74.9113   6.9941887201e+01   5.3898168828e+01     0.742447    0.4755788  -0.29   0.00301248    2.472    0.596
        86 -12.3806     77.1803     73.0849   6.7168457572e+01   5.3228010051e+01    0.5300994    0.3682163 -12.70  0.001642112    1.889    0.471
        87 -13.1633    238.9129     81.3068   3.5793447467e+01   1.7889681811e+01    0.5882158    0.3243899 -78.63  0.002680886    3.155    0.683
        88 -12.8421    212.7924     78.3473   3.8243566148e+01   2.3177548473e+01    0.7772034    0.4471309 -81.68  0.003422199    2.842    0.648
        89 -11.8840    113.9184     79.8273   5.7673900401e+01   4.4415492797e+01    0.4057778    0.3407388 -43.46  0.001339583    1.183    0.155
        90 -11.4667     41.6201     76.1806   8.2464888189e+01   5.8047906841e+01    0.2513264    0.1942544 -63.06 0.0007233792    1.374    0.272
        91 -13.0765     28.4122    245.8493   1.0934689178e+02   1.7757146868e+01    0.4361053    0.2998929  61.94  0.002872481    1.242    0.195
        92 -14.0095      4.7774     63.4263   9.6564790914e+01   6.4316478354e+01    0.6586565    0.5260575   8.50  0.003755358    1.375    0.273
        93 -12.1690     36.6331     92.8585   8.8931541594e+01   5.4579815439e+01    0.4743136    0.2823703   2.48  0.001473102    2.150    0.535
        94 -12.4890    218.5052     74.0023   3.6550190375e+01   2.2733212233e+01     0.253603    0.2140054 -73.71  0.001245282    1.184    0.156
        95 -12.3211    214.5994     71.2702   3.6404563432e+01   2.3903660449e+01    0.2877659     0.241696  89.41   0.00123605    1.264    0.209
        96 -13.5747    199.4226     69.5561   3.7939252686e+01   2.7229033660e+01    0.6753886    0.4372976  51.44  0.003009832    1.771    0.435
        97 -11.4653    117.8419     72.1735   5.4217737265e+01   4.5007857638e+01    0.2418895    0.2371488  53.61 0.0005309599    1.021    0.020
        98 -12.9089    133.6557     66.0309   4.8445969999e+01   4.2496940775e+01    0.7926398    0.6758616  16.91  0.003505799    1.393    0.282
        99 -11.5709     99.9060     65.1580   5.6952915951e+01   5.0225156125e+01    0.3221639     0.250668 -57.05   0.00161862    1.464    0.317
       100 -11.9498     25.0283     58.9755   8.5045980364e+01   6.3779747620e+01    0.5040958    0.3666968 -50.64  0.002180475    1.268    0.212
       101 -11.7874     30.7661     60.9814   8.2838690458e+01   6.2741997261e+01    0.3494441    0.1887883 -50.20  0.001520128    1.660    0.398
       102 -12.6677    200.1948     61.3913   3.5876682706e+01   2.8290321416e+01    0.2468698    0.2331385 -61.85 0.0009113111    1.128    0.114
       103 -12.8053     79.0866     60.3841   6.2072518232e+01   5.5374097900e+01    0.5505467    0.4644634 -51.82  0.002995951    1.312    0.238
       104 -13.1291     82.2752     54.3903   5.8757351160e+01   5.5825233479e+01    0.7228714    0.5402579   2.68   0.00361636    1.633    0.388
       105 -13.5848    177.8222     56.7029   3.7728896709e+01   3.3821144444e+01    0.8882286    0.5105329 -49.24  0.003500109    1.648    0.393
       106 -11.1286    111.6063     58.8080   5.1493259893e+01   4.8758828955e+01     0.231545    0.2116543 -15.19 0.0006065652    1.153    0.133
       107 -14.6339    120.4422     54.5196   4.7832578041e+01   4.7435104652e+01    0.9569068    0.6845939  48.94  0.002114142    1.365    0.267
       108 -11.1055     39.0977     60.1165   7.8553239901e+01   6.1944043755e+01     0.266101    0.1831943  58.77   0.00126837    2.265    0.558
       109 -11.4104     17.5963     55.3657   8.7749026963e+01   6.5255553139e+01    0.3397657    0.1757717 -59.58  0.001638386    1.858    0.462
       110 -12.6163    247.9885     51.8827   2.8898970438e+01   2.0407299291e+01    0.5259922    0.2636384 -37.79   0.00298127    1.646    0.392
       111 -13.6906    103.0395     50.2431   5.0831050672e+01   5.2074736366e+01     1.121967    0.5445956 -50.59  0.002706294    2.642    0.622
       112 -13.4367     97.8804     50.1250   5.2250467276e+01   5.3237655788e+01     0.651942    0.3902132 -46.66  0.002313172    1.848    0.459
       113 -11.3846     37.2040     53.5914   7.7161817685e+01   6.3546568348e+01     0.255856    0.1798856  19.45  0.001319096    1.438    0.305
       114 -11.3755     38.4569     50.5029   7.5404338030e+01   6.4006046613e+01    0.3013357    0.1930235  21.64  0.001559689    1.592    0.372
       115 -11.9331    135.9533     49.6880   4.2868303286e+01   4.4539503841e+01    0.3972256    0.2649449  38.69  0.001765876    1.727    0.421
       116 -11.1978     31.7566     65.0234   8.3631964356e+01   6.1737860854e+01    0.3773741    0.1810896 -43.84  0.001686014    1.866    0.464
       117 -13.0536    157.0837     44.3850   3.7493563730e+01   4.0314005847e+01     0.824788    0.5160783  35.64  0.003872206    2.184    0.542
       118 -12.6976      3.9596     43.0927   9.1535487201e+01   6.8904915001e+01    0.5026062    0.3311146 -12.14   0.00295507    1.478    0.324
       119 -12.0722     11.7014     43.4755   8.7136663713e+01   6.8280231548e+01    0.4556033    0.2339697  -6.50  0.001948796    2.329    0.571
       120 -14.2519    212.7625     41.0763   2.9735243586e+01   2.8480914029e+01     1.881351    0.6354285  76.73  0.007084263    4.094    0.756
       121 -13.5415    171.7012    242.7282   7.8483968557e+01   8.5685299026e-01    0.5981928    0.4110561  11.24  0.003688803    1.294    0.227
       122 -13.8298     97.7919    239.1210   9.3751538439e+01   1.1074963925e+01    0.7988188    0.4721977  30.91  0.004340386    1.471    0.320
       123 -14.0023     91.0626    231.5217   9.4422141821e+01   1.3432689741e+01    0.5895509    0.5345707 -20.19  0.003845391    1.255    0.203
       124 -11.5994    147.4848    238.9832   8.2922769103e+01   4.5771143616e+00    0.1522826     0.114513  89.86 0.0008097095    2.480    0.597
       125 -12.4529    109.9574     41.8922   4.6033503884e+01   5.1745903326e+01    0.5273407    0.1834789  54.62   0.00120618    2.634    0.620
       126 -12.6223     24.7973    217.2339   1.0840817166e+02   2.4128485369e+01    0.6558341    0.2726969  50.30  0.003117317    2.113    0.527
       127 -11.4571     13.7123    222.4500   1.1119644847e+02   2.4017640944e+01     0.349535    0.1606065  79.30  0.001319382    2.209    0.547
       128 -13.8915     26.5044    226.2851   1.0860057840e+02   2.1983271288e+01    0.7944406    0.3902681 -53.85  0.004014917    2.446    0.591
       129 -11.8145     70.4974     35.9897   5.5583071636e+01   6.1155784900e+01    0.3058458      0.28009  -8.70 0.0007783947    1.095    0.087
       130 -13.2872    132.4213     32.7183   3.8116244604e+01   4.7660575378e+01    0.5837068    0.4074234  55.74  0.001842293    1.355    0.262
       131 -13.7495     20.5624    223.9774   1.0977457666e+02   2.3053965787e+01    0.5428514    0.5043259  87.98  0.002396967    1.199    0.166
       132 -11.2225     34.9748     34.7066   7.0670370358e+01   6.7424110524e+01    0.2001695    0.1715054  -7.07 0.0004759569    1.015    0.015
       133 -14.0455     65.5497    223.1882   9.9442318282e+01   1.8366447202e+01     1.096876    0.6856504  47.52   0.00597862    1.450    0.310
       134 -13.8885     64.4167    214.3875   9.8833546623e+01   2.0430634560e+01    0.5845834    0.3897896  53.39    0.0029609    1.435    0.303
       135 -12.6632     94.3724    218.3097   9.2104063990e+01   1.5719799319e+01    0.2675043    0.2209121  50.10   0.00158671    1.179    0.151
       136 -12.8519     59.3940    212.7779   9.9883757883e+01   2.1395714022e+01    0.4079254    0.2425751 -47.63  0.001277786    1.972    0.493
       137 -12.0403      4.0168    211.5939   1.1279119970e+02   2.7248086270e+01    0.4136721    0.1839523  88.99  0.002047264    2.125    0.529
       138 -13.5207    216.1141     27.8833   2.6485248561e+01   2.9423257943e+01    0.5488471    0.2546661 -50.26  0.002834074    1.804    0.446
       139 -11.0365    136.6746    211.3025   8.1232071699e+01   1.1178997160e+01    0.1322355     0.103542  59.40 0.0003940187    1.640    0.390
       140 -11.7939     72.3035    206.8300   9.6084226490e+01   2.1151300661e+01    0.3160644    0.2761646  70.51  0.001876994    1.130    0.115
       141 -12.2477     41.2276    206.1173   1.0368315846e+02   2.4981551380e+01    0.2541685    0.1636531  74.45   0.00135044    1.582    0.368
       142 -12.4334     75.9631     37.0139   5.4076639327e+01   5.9904376205e+01    0.4098993    0.2489301  43.45  0.001094773    1.539    0.350
       143 -11.5016     88.7521     26.1391   4.5577605191e+01   5.8618749855e+01    0.3486356    0.1774632 -27.68  0.001611574    2.137    0.532
       144 -11.6414     31.1305     25.2584   6.8301357076e+01   6.9534739193e+01    0.3689548    0.1944616  22.40  0.001485987    2.004    0.501
       145 -11.4099     36.2967     23.1330   6.4489671842e+01   6.9108324299e+01    0.3155231    0.1934957 -28.81  0.001562576    1.601    0.375
       146 -11.5122     51.2726     20.4137   5.6024054449e+01   6.6978485302e+01    0.2953614    0.1507375  49.84  0.001225556    2.029    0.507
       147 -12.1218     46.4716     20.2732   5.8081512177e+01   6.7850798128e+01    0.3682482    0.2627304  10.14  0.002130209    1.419    0.295
       148 -12.2879     57.5342    203.0465   9.9351233753e+01   2.3849811204e+01     0.573427    0.2767445 -89.36   0.00229143    2.895    0.655
       149 -13.1041     16.2185    197.4238   1.0912655902e+02   2.9477405012e+01    0.7976495    0.1973203 -60.90  0.002937182    3.625    0.724
       150 -13.3259     40.1394    194.4732   1.0290674356e+02   2.7856136587e+01    0.5277014     0.288778  77.25  0.002427683    2.090    0.521
       151 -12.9136     21.8673    165.9984   1.0514240163e+02   3.6769262762e+01    0.4402699     0.303563 -10.22  0.001267554    1.977    0.494
       152 -13.5264     30.2309    169.1841   1.0309181365e+02   3.5181504110e+01     1.003912     0.551504 -35.63  0.003997992    2.476    0.596
       153 -13.9779     22.1940    181.1395   1.0639419046e+02   3.2903726500e+01    0.9719734     0.415983 -58.03    0.0042947    2.261    0.558
       154 -15.2183      8.1137    183.4347   1.1021970095e+02   3.3525073993e+01     1.341006     1.098978  87.73  0.008535654    1.060    0.057
       155 -15.2491     15.8250    174.8775   1.0758140360e+02   3.5024778669e+01     2.274953     1.151841  65.47    0.0105259    2.057    0.514
       156 -11.2224    200.9704    191.9720   6.4344672125e+01   5.3806461019e+00    0.2059577    0.1725103 -14.68 0.0007654848    1.018    0.018
       157 -11.6321    248.4888    195.4984   5.6843656779e+01  -1.2870801864e+00    0.1197324   0.08897725 -18.90 9.588739e-05    1.006    0.006
       158 -11.4048    155.6705    184.6767   7.2357431255e+01   1.3635463717e+01    0.1489819    0.1044358 -10.06 0.0007049631    1.697    0.411
       159 -11.8902     49.0279    181.6749   9.9239253451e+01   3.0022907499e+01     0.383801    0.1939385 -62.68  0.001728263    1.874    0.466
       160 -12.0228    198.4733    181.2626   6.2810605498e+01   7.6199647463e+00    0.2412886    0.2276494  31.11  0.001544771    1.324    0.245
       161 -12.6630    124.3377    166.5943   7.6444616341e+01   2.2779746145e+01    0.6639626    0.4021265 -65.32  0.002772994    2.089    0.521
       162 -12.0668    164.3949    195.5943   7.2421087928e+01   1.0110867084e+01    0.2587372    0.1279819 -59.74 0.0009597098    3.398    0.706
       163 -11.2795      2.0238    159.2373   1.1018193444e+02   4.0026840711e+01    0.3106135    0.1445906 -68.71  0.001467813    1.826    0.453
