#   1 NUMBER                 Running object number                                     
#   2 MAG_AUTO               Kron-like elliptical aperture magnitude                    [mag]
#   3 X_IMAGE                Object position along x                                    [pixel]
#   4 Y_IMAGE                Object position along y                                    [pixel]
#   5 X_WORLD                Barycenter position along world x axis                     [deg]
#   6 Y_WORLD                Barycenter position along world y axis                     [deg]
#   7 A_WORLD                Profile RMS along major axis (world units)                 [deg]
#   8 B_WORLD                Profile RMS along minor axis (world units)                 [deg]
#   9 THETA_WORLD            Position angle (CCW/world-x)                               [deg]
#  10 FWHM_WORLD             FWHM assuming a gaussian core                              [deg]
#  11 ELONGATION             A_IMAGE/B_IMAGE                                           
#  12 ELLIPTICITY            1 - B_IMAGE/A_IMAGE                                       
         1 -14.5701      3.5950    137.0882   2.9272293957e+02   6.1869432075e+00    0.3144931   0.06632125 -62.47   0.01762561    5.311    0.812
         2 -13.5760    191.8352     24.6155   2.8981155732e+02   6.2945308367e+00   0.07859009   0.07296062 -28.30  0.007232815    1.096    0.087
         3 -13.4300    207.6401      6.2885   2.8951105013e+02   6.4035335150e+00   0.06524348    0.0484203 -23.34  0.006971762    1.561    0.359
         4 -12.8304      2.5961     20.9101   2.9200631911e+02   7.5133472082e+00   0.08160605   0.03021988 -42.88  0.005895311    3.251    0.692
         5 -12.1817      2.5052     10.4181   2.9194145209e+02   7.6329978735e+00   0.04200263    0.0302907 -29.05  0.004440173    1.573    0.364
         6 -11.8601      2.5956      3.2301   2.9189520371e+02   7.7140083491e+00   0.06053255    0.0186568  28.80  0.004332669    3.107    0.678
         7 -11.1810    199.1832    245.4879   2.9111438980e+02   3.7403501530e+00   0.01691299   0.01104735  -6.47  0.001593567    2.066    0.516
         8 -12.6116    174.9590    248.5190   2.9141612417e+02   3.8566184184e+00   0.03915497   0.02668843  30.79  0.004124595    1.425    0.298
         9 -11.9623    124.3507    249.6472   2.9201418354e+02   4.1583238529e+00   0.03706395   0.01675023  37.87  0.003200487    2.123    0.529
        10 -13.0244    142.2958    246.3989   2.9178426098e+02   4.0837757690e+00   0.05179903   0.03755709 -39.71   0.00557349    1.451    0.311
        11 -13.1081    132.9003    246.1923   2.9189271001e+02   4.1444998190e+00   0.05012633   0.03393461  38.57  0.005259351    1.451    0.311
        12  -9.0152     89.2365    250.3729   2.9242896401e+02   4.3679994776e+00  0.009696831  0.005799854  38.15  0.000558025    1.632    0.387
        13  -8.8952     63.6798    250.6208   2.9272916244e+02   4.5236092659e+00  0.009253978  0.005942265  37.26 0.0006323342    1.518    0.341
        14 -10.0156     29.8924    249.1889   2.9311512974e+02   4.7490852470e+00   0.01531276   0.01185012 -88.06  0.001389492    1.534    0.348
        15 -10.3148     29.8861    244.0772   2.9308334234e+02   4.8072732312e+00   0.01490407   0.01049684 -65.66 0.0004369758    1.491    0.329
        16  -9.1602      2.3533    249.4928   2.9343892135e+02   4.9158873874e+00   0.01193571   0.01044342 -51.96 0.0008567614    1.151    0.131
        17 -11.9575    182.7203    234.7514   2.9123928523e+02   3.9647946407e+00   0.03470123   0.01961754  80.24  0.002634149    3.447    0.710
        18 -10.5953     95.5436    240.3243   2.9229248876e+02   4.4431485611e+00   0.01983919  0.009030791 -42.84 0.0009563304    2.465    0.594
        19 -11.6776     57.2793    211.6963   2.9256095509e+02   5.0060153422e+00   0.08241116   0.03798087  57.22  0.005746588    3.795    0.737
        20 -12.6265     51.1659    218.5580   2.9267531233e+02   4.9658378938e+00   0.09548935   0.06078587  54.19  0.009356054    1.836    0.455
        21 -12.8387     37.9580    237.6116   2.9294866262e+02   4.8308748338e+00   0.01963418   0.01581641 -28.60 0.0007391104    1.339    0.253
        22 -13.9121     43.2057    230.5168   2.9284304740e+02   4.8790965526e+00   0.05776731   0.04085334  43.41   0.00319118    1.433    0.302
        23  -9.0237     25.9672    241.0046   2.9311000173e+02   4.8664710231e+00  0.009758765  0.009175169  24.02  0.001191024    1.044    0.042
        24  -8.8520     12.4772    240.4680   2.9326436689e+02   4.9559943993e+00  0.006691988  0.006359361 -14.19  0.000808597    1.062    0.059
        25 -12.3017     84.9209    225.2694   2.9232256480e+02   4.6802634329e+00     0.088585  0.007324541  39.72  0.003733223    8.983    0.889
        26 -12.5775    104.7348    230.4062   2.9212307635e+02   4.4988958872e+00    0.0847891          nan  34.57  0.003949824    7.213    0.861
        27 -13.3935    128.7528    231.7317   2.9185070173e+02   4.3346718921e+00    0.1047248   0.02233245  27.33  0.006014589    4.851    0.794
        28 -11.3462    118.7476    230.1329   2.9195760843e+02   4.4149987594e+00   0.03407083   0.01939436  63.09  0.002872204    2.648    0.622
        29  -9.7890      3.9130    227.5122   2.9328377560e+02   5.1563227132e+00   0.02088768   0.01332667  10.89  0.002027994    1.842    0.457
        30  -9.9834    172.8240    221.9005   2.9127431986e+02   4.1724194326e+00   0.01067181  0.009158507 -26.48  0.001237893    1.228    0.186
        31  -8.9532     83.1537    219.1218   2.9230479718e+02   4.7611437257e+00  0.009458844  0.007914559  64.44  0.001073013    1.329    0.248
        32  -8.3352     25.2769    215.3034   2.9295778054e+02   5.1631269795e+00   0.00675913  0.004983444 -26.90 0.0002715538    1.544    0.352
        33  -8.1487    221.5191    213.5052   2.9065318758e+02   3.9646163943e+00  0.006644418  0.006434657  44.18 2.723904e-05    1.046    0.044
        34 -10.5028     20.9562    210.7347   2.9297981272e+02   5.2418309312e+00   0.02705165   0.01680508  34.44  0.002059126    1.554    0.356
        35 -12.3233     10.6474    206.8310   2.9307605249e+02   5.3499902186e+00   0.03871395   0.02684737  15.22  0.002790224    1.554    0.356
        36 -11.5406     63.4707    202.2979   2.9242980272e+02   5.0745492662e+00   0.01409971   0.01176543 -36.62 0.0005656273    1.240    0.194
        37 -10.3633      1.7783    199.7013   2.9313534179e+02   5.4859233420e+00   0.02859938  0.006334523 -55.59  0.001846601    3.840    0.740
        38  -9.6694    192.1587    193.5606   2.9087079376e+02   4.3741210563e+00   0.02671909   0.01348441  87.88  0.001541619    5.935    0.832
        39 -10.4264     11.0799    196.1100   2.9300409061e+02   5.4692877550e+00   0.02389099  0.008213234  33.91  0.001831413    2.651    0.623
        40 -11.8705     69.6078    193.5522   2.9230332551e+02   5.1359753289e+00   0.01450903   0.01225817 -34.35 0.0005098889    1.229    0.186
        41  -9.9017     34.6918    193.2035   2.9270965028e+02   5.3562733614e+00   0.02461215   0.01196172  67.91   0.00136454    6.297    0.841
        42 -11.8439     20.4782    174.8717   2.9276145276e+02   5.6527710471e+00   0.08216786   0.04320096 -77.55  0.006771154    2.728    0.633
        43 -12.8589     10.0482    156.5455   2.9276902481e+02   5.9257424759e+00   0.06095448   0.04075986  80.31  0.005840648    2.106    0.525
        44 -11.1281    160.4172    248.3428   2.9158480076e+02   3.9490458919e+00    0.0253219   0.01373777  67.78  0.001901369    3.422    0.708
        45 -10.0943     98.6735    154.2095   2.9171687706e+02   5.4029983451e+00   0.01492681   0.01231895 -54.19 0.0007793804    1.220    0.180
        46  -9.2551    101.8055    149.8334   2.9165278768e+02   5.4332968124e+00  0.009942815  0.008759112 -22.27 0.0005508811    1.189    0.159
        47 -11.8134     87.4783    153.4351   2.9184303672e+02   5.4813257411e+00   0.01458281   0.01205495 -24.44 0.0005504284    1.306    0.234
        48 -11.0094     27.6329    154.2581   2.9254880096e+02   5.8429691339e+00   0.01755947  0.008370798 -63.94  0.001127667    2.233    0.552
        49 -12.1046     67.4931    144.0138   2.9201793681e+02   5.7124776680e+00   0.02594193   0.02146088  47.83  0.001681585    1.246    0.197
        50 -11.1610     64.6850    141.6783   2.9203617917e+02   5.7564521305e+00   0.01780762   0.01298453 -38.38 0.0008938085    1.453    0.312
        51  -9.9100    109.9673    138.4489   2.9148585866e+02   5.5120028088e+00   0.02098601   0.01141487 -31.24  0.001405092    2.492    0.599
        52 -10.5262     97.4255    135.8054   2.9161606266e+02   5.6199906206e+00   0.01202507   0.01078389  -8.57 0.0004146661    1.162    0.139
        53  -8.3064     86.0416    136.0207   2.9175067403e+02   5.6882451807e+00   0.01033673  0.007511961  58.90 0.0005526401    1.593    0.372
        54  -9.6468    134.2448    146.6959   2.9125356927e+02   5.2672867087e+00   0.03821327   0.01350898 -72.84  0.001995515    6.601    0.849
        55  -9.2100    117.1027    129.2307   2.9134449586e+02   5.5724248487e+00   0.02059799  0.007945831 -33.88  0.001094528    6.231    0.840
        56  -9.1592    107.0846    124.7126   2.9143338761e+02   5.6860633596e+00  0.009035306  0.008057436  18.25 0.0002814825    1.114    0.102
        57  -9.8041    168.1743    113.2440   2.9064654868e+02   5.4361337808e+00   0.01258609   0.01067461  62.70 0.0008579065    1.295    0.228
        58  -9.0032    203.4862    111.5094   2.9022282460e+02   5.2356151044e+00  0.006728123  0.006353507 -15.55 0.0001992349    1.072    0.068
        59  -9.7582    156.6863     75.1472   2.9054124470e+02   5.9404239180e+00   0.01043286  0.008535396  85.15 0.0008862594    1.426    0.299
        60  -9.5335     29.2827    186.9405   2.9273381570e+02   5.4610003873e+00   0.01846038  0.009663129  63.97  0.001366999    3.431    0.709
        61 -13.1247     66.3808    178.5297   2.9224709492e+02   5.3268484188e+00   0.02795298   0.01429842 -38.00  0.001846071    2.359    0.576
        62 -10.6850     79.4992    180.1456   2.9210371648e+02   5.2271006560e+00   0.01167239   0.01114171 -18.77 0.0003840796    1.055    0.052
        63 -11.6561     86.6312    170.5421   2.9196013607e+02   5.2920557406e+00   0.03311976   0.02517987 -27.57  0.003609017    1.467    0.318
        64  -9.7981     81.9557    248.9966   2.9250544789e+02   4.4288025048e+00   0.01109938  0.007820179  60.70  0.001030063    1.697    0.411
        65 -10.0005     19.7123    247.6953   2.9322481668e+02   4.8290417178e+00    0.0231935   0.01400874  -1.89  0.001956007    2.404    0.584
        66 -10.6539    237.8988    247.3624   2.9067448016e+02   3.4780238379e+00   0.01380986  0.009779254 -50.92  0.001471089    1.413    0.292
        67 -10.8486    190.4765    246.9765   2.9122532970e+02   3.7776158044e+00   0.01808008   0.01104568  84.38  0.001553477    2.622    0.619
