#   1 NUMBER                 Running object number                                     
#   2 MAG_AUTO               Kron-like elliptical aperture magnitude                    [mag]
#   3 X_IMAGE                Object position along x                                    [pixel]
#   4 Y_IMAGE                Object position along y                                    [pixel]
#   5 X_WORLD                Barycenter position along world x axis                     [deg]
#   6 Y_WORLD                Barycenter position along world y axis                     [deg]
#   7 A_WORLD                Profile RMS along major axis (world units)                 [deg]
#   8 B_WORLD                Profile RMS along minor axis (world units)                 [deg]
#   9 THETA_WORLD            Position angle (CCW/world-x)                               [deg]
#  10 FWHM_WORLD             FWHM assuming a gaussian core                              [deg]
#  11 ELONGATION             A_IMAGE/B_IMAGE                                           
#  12 ELLIPTICITY            1 - B_IMAGE/A_IMAGE                                       
         1 -15.6049     23.7616    132.9059   1.2217143081e+02   4.4824826716e+01     4.370922     3.325106  38.26   0.02949287    1.510    0.338
         2 -12.4813    191.5863     29.9679   5.2654649923e+01   3.3486727652e+01     1.701809    0.8858374  35.44  0.006517847    2.585    0.613
         3  -9.1919    211.8693      7.7902   4.3717689555e+01   3.0716916645e+01    0.2019477    0.1820413  58.13 0.0005727036    1.183    0.155
         4 -10.0606      2.9808      5.5833   1.0381388941e+02   7.4397230710e+01    0.2739248    0.1791818 -45.61  0.001871089    1.150    0.130
         5  -7.6643    138.2585      3.9205   5.1751002335e+01   5.0379703577e+01    0.1877367    0.1729819  -7.95  0.000330824    1.125    0.111
         6 -10.1523    214.3574      2.5522   4.2025596889e+01   3.0603805702e+01    0.6563236    0.2860596  76.19   0.00277108    2.280    0.561
         7 -11.6312     74.6423    220.6425   1.1919411164e+02   2.1203250780e+01    0.2152911    0.1809673  17.52 0.0005806978    1.809    0.447
         8 -13.1118    245.0635    236.4059   9.1287432206e+01  -6.1094491704e+00      2.77589     1.088313 -26.59   0.01537543    2.848    0.649
         9 -15.0423    120.2672    235.2167   1.1233681215e+02   1.2541490089e+01     3.659571     3.504608  55.03   0.02975967    1.284    0.221
        10 -18.4213     31.0032    237.1178   1.2771128702e+02   2.3537760524e+01     3.366074     1.531243  49.28   0.02296042    1.576    0.366
        11 -14.9022     65.7040    229.4777   1.2144978024e+02   2.0839688282e+01    0.5940446    0.3276874  47.97  0.003946928    1.398    0.285
        12 -10.4457    241.1137    210.4752   8.7813350969e+01  -2.9295304520e+00    0.3304474    0.3211393  81.69 0.0007542697    1.808    0.447
        13 -11.8928     68.5415    213.7673   1.1975665105e+02   2.3187270719e+01    0.1784832    0.1366272  63.03 0.0002993617    1.012    0.012
        14 -12.2486     59.8005    209.8959   1.2107449739e+02   2.4972124493e+01     0.249686    0.1996304 -38.95  0.001040162    2.078    0.519
        15 -10.1466     54.1411    208.1018   1.2199314711e+02   2.5980982023e+01    0.0722914   0.05646157  52.32 0.0005027133    1.218    0.179
        16  -8.9156     76.9551    205.3223   1.1743977699e+02   2.3617668413e+01    0.1339326    0.1054081  61.56  0.000247738    1.028    0.027
        17 -11.6350     40.7993    201.7756   1.2404120509e+02   2.8683875611e+01    0.2798118    0.1296671 -66.49   0.00163492    2.190    0.543
        18 -12.2381     47.2437    198.1963   1.2256792203e+02   2.8638640204e+01    0.5444653    0.2654627  36.95  0.002124803    2.016    0.504
        19  -9.2245     62.2531    202.8247   1.2004874922e+02   2.5972854364e+01    0.1229684    0.1054713  78.04 0.0002249279    1.172    0.147
        20 -10.9401     17.7937    201.5561   1.2825850314e+02   3.1086511737e+01       0.2422   0.09252894  62.17  0.001352335    2.152    0.535
        21 -11.8117     57.9357    199.5263   1.2061037502e+02   2.7124196135e+01    0.1722516    0.1364191  83.34 0.0003392458    1.132    0.117
        22 -10.7059     20.6147    196.8271   1.2749993613e+02   3.1705855489e+01    0.1382401   0.09976094  76.98 0.0002711813    1.053    0.050
        23 -11.3800     24.4462    197.5106   1.2682837884e+02   3.1201461530e+01    0.1600365    0.1242191  67.58 0.0001264224    1.115    0.103
        24 -11.2878     26.6187    194.8465   1.2626869560e+02   3.1493648930e+01    0.3578425    0.1486761  75.43  0.001842162    2.361    0.576
        25 -11.1882    240.2484    192.7681   8.4882608058e+01  -7.9313592697e-01    0.4589673    0.3698537   0.75  0.002302936    1.100    0.091
        26  -9.0877     90.0755    196.9099   1.1402038818e+02   2.3365828201e+01    0.1706545    0.1440239  64.71 0.0003671317    1.044    0.043
        27  -9.7289     57.8380    193.7217   1.2014741703e+02   2.8249012619e+01    0.1431119    0.1039807  65.43 0.0003255896    1.105    0.095
        28 -10.1991     11.8806    191.3011   1.2883352956e+02   3.3576130062e+01    0.1705782   0.09521629  72.89 0.0009843593    1.382    0.277
        29 -11.3857     35.7029    189.4509   1.2417904864e+02   3.1605567161e+01    0.2634982    0.1367123  38.92  0.001592633    1.854    0.461
        30  -9.8169     49.6631    189.4025   1.2141518861e+02   3.0065873349e+01    0.1211629     0.103471  73.40 0.0002117272    1.156    0.135
        31  -8.7037    227.5323    186.8810   8.5949285707e+01   1.9937626344e+00    0.3126521    0.1848568  46.12  0.001241744    1.768    0.434
        32 -10.1312     17.6608    186.8450   1.2751052660e+02   3.3912382786e+01   0.09247722   0.07567854  65.13 0.0002080481    1.209    0.173
        33 -10.0322     46.6162    185.4509   1.2170780961e+02   3.1200455844e+01    0.1577726    0.1208449  60.83 9.982041e-05    1.122    0.109
        34 -10.3887     43.7681    183.3826   1.2211917525e+02   3.1935986569e+01    0.1582863    0.1189359  71.31 0.0001774482    1.048    0.046
        35 -10.3901     10.0202    185.9778   1.2891933174e+02   3.4772521724e+01    0.1144303   0.08220382  74.02            0    1.010    0.010
        36 -10.6380     32.3026    183.3248   1.2442555885e+02   3.3176574300e+01    0.1807278    0.1768655  37.26 0.0007216177    1.511    0.338
        37 -10.5169      6.3429    183.8572   1.2951235363e+02   3.5504323356e+01    0.1279812   0.09365865  80.80  0.000242852    1.071    0.066
        38  -9.0300    228.0716    181.9959   8.4951414653e+01   2.5320746639e+00    0.2050053    0.1553423  27.17            0    1.149    0.130
        39 -13.6528     78.9268    234.8926   1.1955235075e+02   1.8285091512e+01     0.434929    0.3266056  51.81   0.00330976    1.127    0.113
        40  -8.8203     50.9047    180.3521   1.2039791516e+02   3.1735198874e+01    0.1071515   0.05874942 -84.53 0.0002025705    1.731    0.422
        41  -9.5736    104.9922    175.4987   1.0826570358e+02   2.5265980197e+01    0.6671315    0.2279026 -54.74  0.002701228    3.061    0.673
        42 -10.7064    101.0042    175.9889   1.0919913533e+02   2.5793481251e+01    0.1838128    0.1590896  66.21  0.001167871    1.003    0.003
        43  99.0000     81.5092    176.5147   1.1349518210e+02   2.8577466925e+01     0.438439     0.237503 -40.70  0.001430151    3.170    0.685
        44  -9.2713     84.4863    172.5382   1.1236075460e+02   2.8970248462e+01    0.2936683    0.2044697  29.61   0.00104737    1.723    0.420
        45 -10.1266      9.9280    181.0789   1.2868887212e+02   3.5744167321e+01    0.1506204   0.04236263 -77.25 0.0007003871    2.925    0.658
        46  -9.0065    196.0836    173.9869   8.9207117268e+01   9.3292812830e+00    0.2231637    0.2017828 -27.17 0.0004545438    1.219    0.180
        47  -8.1264    196.0175    169.9681   8.8451402437e+01   9.9607637610e+00    0.1904768    0.1774667  51.74 0.0006175572    1.252    0.201
        48  -9.5616    175.3518    172.3579   9.2929526109e+01   1.3440681075e+01    0.3029778    0.2692572  41.39   0.00090828    1.082    0.076
        49  99.0000      4.4366    203.3233   1.3070225413e+02   3.1978886892e+01    0.7948064     0.349737 -70.35  0.005034084    2.225    0.551
        50 -14.7422     73.0566    247.0038   1.2140666537e+02   1.7136649324e+01    0.7292557    0.5334473  37.99  0.005607452    1.485    0.327
        51  -8.7108     91.8554    163.6089   1.0952080561e+02   2.9746759957e+01    0.2384902    0.1780875 -84.69  0.001308792    1.349    0.259
        52  -8.0492     89.6798    240.1210   1.1810861504e+02   1.6055706935e+01    0.1172017   0.09119257  50.44  0.000398396    1.142    0.125
        53  -8.0228    182.9566    138.5145   8.4470435995e+01   1.7792873020e+01    0.2165779    0.1383994  45.19  0.000416689    1.522    0.343
        54  -9.2633    104.6676    133.2374   1.0137636067e+02   3.4299237600e+01    0.2255467    0.2158913  71.34 0.0002477939    1.064    0.060
        55  -8.3375    133.1644    147.8910   9.7336584745e+01   2.5998504828e+01    0.4846214    0.2039779 -39.23  0.001740442    3.147    0.682
        56  -7.9370    207.9091    143.8316   8.0798275259e+01   1.1782811714e+01    0.2037653    0.1691182   2.70 0.0003462888    1.186    0.157
        57  -7.8868    162.7705    129.6065   8.6713209882e+01   2.3704059507e+01     0.209548    0.1387813  56.01 0.0009423769    1.639    0.390
        58  -8.3663    125.1535    127.2754   9.5000929279e+01   3.1867826322e+01    0.2853861    0.2215777 -88.36 0.0009565288    1.575    0.365
        59  -7.4568    120.4935    128.4448   9.6413165682e+01   3.2502952786e+01     0.145061     0.136575  81.27 7.163423e-05    1.038    0.037
        60  -8.8089     89.5808    124.9845   1.0369857885e+02   3.8666001221e+01    0.2637402    0.1812131  58.85 0.0007050468    1.557    0.358
        61  -7.7084    126.9802    147.7325   9.8739385682e+01   2.7182818699e+01    0.1869885    0.1663777  52.96 0.0002090643    1.070    0.065
        62  -9.4543    105.9743    154.4753   1.0485620203e+02   2.9443486815e+01    0.3474061    0.2395933 -58.54  0.000566687    1.476    0.322
        63 -12.3741     67.8942    144.1459   1.1247106191e+02   3.7429974634e+01     1.023842    0.5327264  60.33  0.003154215    2.159    0.537
        64  -8.6287     95.3239    157.8931   1.0788592131e+02   3.0427892722e+01    0.3011287    0.1830487  42.01 0.0009692459    1.589    0.371
        65  -7.6774    216.4562    109.0183   7.1041481910e+01   1.5580813921e+01    0.2109079    0.1357706 -32.19 0.0003434072    1.466    0.318
        66  -8.7929    197.1352    106.6727   7.3942809381e+01   2.0287993572e+01    0.3200493    0.2769772 -10.08  0.001081578    1.164    0.141
        67  -9.6425     98.0913    153.8592   1.0661195030e+02   3.0857600195e+01     0.446174    0.2976176 -80.41  0.002226234    1.684    0.406
        68  -7.4781    181.2006    104.6077   7.6541420233e+01   2.4312956882e+01      0.20147     0.140586  38.54 0.0002451412    1.490    0.329
        69  -8.1448    120.4831     99.4730   8.9478632448e+01   3.8836792771e+01    0.1497403    0.1450488 -35.47 0.0008093463    1.049    0.047
        70  -8.5441     96.5209    141.0643   1.0486306068e+02   3.3913359673e+01    0.2150245     0.191867  23.23 0.0004399184    1.349    0.259
        71  -8.2216    123.0838     96.0694   8.7864629585e+01   3.9037088727e+01    0.2334084    0.2187105 -78.08 0.0006253152    1.110    0.099
        72  -7.9346    112.4552     88.7160   8.8720921030e+01   4.2780535035e+01     0.271996    0.1425664 -49.90 0.0007769504    1.873    0.466
        73  -7.6756    157.1559     87.2112   7.6893253286e+01   3.3207380933e+01    0.2126671    0.1841356 -71.22 0.0004180716    1.319    0.242
        74  -8.2778    104.1623     86.6416   9.0507262035e+01   4.4846942997e+01    0.2427468    0.1916071 -55.49 0.0005009868    1.242    0.195
        75  -7.9995     59.9921     85.7174   1.0408326927e+02   5.2108992329e+01    0.1796371    0.1646451 -56.86 0.0001953901    1.062    0.059
        76  -8.8875    157.2684     82.8478   7.5580268000e+01   3.4003387719e+01    0.4264987    0.2801098  83.48  0.001611656    2.550    0.608
        77  -8.5918    109.7684     83.9896   8.8118362254e+01   4.4332174060e+01    0.2244721    0.2143824  44.72 0.0002367517    1.099    0.090
        78  -8.3874     80.1249     78.6423   9.5634985592e+01   5.0838249901e+01    0.2871521    0.1957717 -25.07  0.000368238    1.870    0.465
        79  -8.0477     94.2014    137.8560   1.0487944596e+02   3.5003486881e+01    0.2130478    0.1862745 -45.38 0.0008392729    1.287    0.223
        80  -7.5722    138.5515     74.4220   7.7434654823e+01   4.0035484630e+01    0.1526771    0.1493996 -17.94 0.0001655219    1.008    0.008
        81  -7.7802    118.2538     65.2277   7.9777263195e+01   4.6400552546e+01    0.1989411    0.1752144 -68.59 0.0003952748    1.291    0.225
        82 -12.0781    174.9976     48.0883   6.1042349904e+01   3.5386805880e+01      1.41094    0.8667196  52.61  0.004958572    1.617    0.382
        83  -7.9858    214.6912     54.9878   5.6829412105e+01   2.4272919554e+01    0.2100245    0.1775158 -29.33 0.0004515716    1.126    0.112
        84 -11.5735    187.9875     39.9197   5.6284527195e+01   3.3145621474e+01    0.9563606    0.6048967  43.10  0.004095837    1.717    0.418
        85 -12.8916     56.8581    220.5755   1.2238599706e+02   2.3429338528e+01     1.112956    0.4668133  60.45  0.006142314    2.134    0.531
        86  -8.0525     39.9843     25.8227   9.2782528206e+01   6.7356394441e+01    0.1701643    0.1427782 -24.91 0.0003131266    1.046    0.044
        87  -9.5916     92.6227    231.8092   1.1690754521e+02   1.6962989113e+01    0.2735955    0.1886844 -62.08  0.001250445    1.771    0.435
        88  -9.8695     86.2396    230.7016   1.1794168470e+02   1.8000414995e+01    0.1474472    0.1123693  64.05   0.00036349    1.077    0.071
        89  -9.1221     81.7161    223.2925   1.1813180488e+02   1.9825449254e+01    0.1057887   0.07501681  62.17            0    1.127    0.113
