#   1 NUMBER                 Running object number                                     
#   2 MAG_AUTO               Kron-like elliptical aperture magnitude                    [mag]
#   3 X_IMAGE                Object position along x                                    [pixel]
#   4 Y_IMAGE                Object position along y                                    [pixel]
#   5 X_WORLD                Barycenter position along world x axis                     [deg]
#   6 Y_WORLD                Barycenter position along world y axis                     [deg]
#   7 A_WORLD                Profile RMS along major axis (world units)                 [deg]
#   8 B_WORLD                Profile RMS along minor axis (world units)                 [deg]
#   9 THETA_WORLD            Position angle (CCW/world-x)                               [deg]
#  10 FWHM_WORLD             FWHM assuming a gaussian core                              [deg]
#  11 ELONGATION             A_IMAGE/B_IMAGE                                           
#  12 ELLIPTICITY            1 - B_IMAGE/A_IMAGE                                       
         1  -9.7856     81.1332     11.9053   4.7073719936e+01   6.0782160324e+01    0.3093641      0.24769  32.88  0.001807195    1.113    0.101
         2 -10.1162     54.1175     14.0482   5.6764674881e+01   6.5802895985e+01    0.6271455    0.1967637  36.81   0.00248317    3.120    0.680
         3 -10.7443     43.6859     20.1354   6.3786801173e+01   6.6866646478e+01     1.043548    0.5529667  17.42   0.00516883    2.204    0.546
         4 -12.6885     61.3690     32.0032   6.1630319649e+01   6.2394631623e+01     2.285666     1.101934 -27.24   0.01087007    2.298    0.565
         5 -12.4844     66.6730     19.7244   5.4667684169e+01   6.2892100505e+01     1.543053     1.001636  44.39  0.009016713    1.326    0.246
         6 -10.5607     82.8791     40.5466   5.7435564530e+01   5.7184879067e+01    0.6416454    0.4051116  33.98  0.003333156    1.497    0.332
         7 -10.6522      2.6522     29.7242   8.9381112902e+01   7.0190559885e+01    0.5619066    0.3459613 -73.59  0.002716823    3.693    0.729
         8  99.0000     37.4258     13.5830   6.3576636628e+01   6.8615887457e+01     0.610207    0.1946462 -37.37  0.002622462    3.603    0.722
         9 -12.6169    246.2230      9.7403   2.4809439586e+01   2.5763875396e+01     1.227605     0.496316 -45.38  0.007305944    1.953    0.488
        10  -8.7360     30.4545     18.6089   6.9295193128e+01   6.9007958362e+01    0.3599689    0.3002134 -56.53  0.001685932    2.157    0.536
        11  -9.1401    116.1269     17.9789   4.1102236399e+01   5.2596185453e+01    0.4157899    0.2256171   8.24  0.001766997    3.477    0.712
        12 -11.5861     59.3471     57.3432   7.2070853413e+01   5.8811171928e+01     1.477758    0.5943715 -45.48  0.006003705    2.643    0.622
        13  -8.1006    100.2922      8.3770   4.1130335993e+01   5.6986476616e+01    0.1306301   0.07857808  34.18 0.0001102456    1.739    0.425
        14  -9.2341     60.4846      4.5407   5.0258071561e+01   6.5528009053e+01    0.2527926    0.2102141 -59.06  0.001668239    1.849    0.459
        15  -9.2092     64.6410      2.2906   4.7939176656e+01   6.4911965778e+01     0.278333    0.1308039  39.25  0.000531098    1.781    0.439
        16 -10.1353     91.9774      3.5468   4.1224312210e+01   5.9179459984e+01    0.1887015     0.172365  10.71 0.0001431358    1.238    0.192
        17 -10.9618     54.3319     45.0982   6.9605447814e+01   6.1666885866e+01    0.8281616    0.4014235  21.65   0.00292914    2.611    0.617
        18  -9.8189    213.8818    249.9320   7.5065778873e+01  -7.6349849630e+00    0.3703595    0.1712005  17.48   0.00181356    2.271    0.560
        19 -10.0744    205.5077    250.3015   7.6742619737e+01  -6.7053493119e+00    0.3732543     0.141145  29.28  0.001724955    2.457    0.593
        20 -10.6649    188.2252    249.0652   7.9999003051e+01  -4.3739128324e+00    0.3262785    0.2518113   8.21  0.001929376    1.080    0.074
        21  -9.7913      1.6551    144.5591   1.1295810458e+02   4.4004477120e+01    0.3614224    0.1549777 -85.05  0.001508842    2.346    0.574
        22  -8.1874     48.6688    139.2057   9.7362393704e+01   4.1364299400e+01    0.2105319    0.1184103 -54.32 0.0003270514    1.585    0.369
        23  -9.0939     15.5585    136.6935   1.0773969845e+02   4.5131070311e+01    0.3272518    0.1959927  87.82  0.001549471    1.858    0.462
        24  -9.0164     43.9343    133.9422   9.7987037434e+01   4.3281744846e+01    0.3713593    0.1849963 -61.60  0.001494282    1.797    0.443
        25 -10.2787     24.5621    133.9575   1.0442803159e+02   4.5143670190e+01    0.3594145    0.2204251  31.29 0.0004990504    1.792    0.442
        26  -9.0204     22.1872    130.2365   1.0465627576e+02   4.6307630340e+01    0.2793368    0.1530651 -45.44  0.000717527    1.698    0.411
        27  -9.5969     30.4611    133.2198   1.0236000965e+02   4.4821958324e+01    0.3945521     0.222796  89.87  0.001648037    2.314    0.568
        28  -8.1901     76.7010    133.7102   8.7119921934e+01   3.9030698659e+01    0.1565457    0.1151051 -24.01 0.0002599414    1.560    0.359
        29  -9.7181      8.8448    131.5672   1.0923769277e+02   4.6914887938e+01    0.2693819    0.2575987 -31.91 0.0006959917    1.172    0.147
        30  -8.6133     73.5140    130.4427   8.7442016105e+01   4.0351040281e+01    0.1521604    0.1453716 -41.53 9.777377e-05    1.018    0.018
        31  -7.9935     89.3473    129.2492   8.2070207396e+01   3.8122890696e+01    0.1563915     0.119485  -9.88 0.0006389525    1.582    0.368
        32 -10.3496      3.8636    125.1444   1.1005404930e+02   4.8857821169e+01     0.325954    0.2434787  77.64  0.001860201    1.461    0.315
        33  -9.1768     43.4815    121.8019   9.5856752818e+01   4.6486164449e+01    0.4418904    0.1870485 -66.19  0.001646777    2.427    0.588
        34  -9.5514     34.4105    122.2680   9.9132739426e+01   4.7299595142e+01    0.2912789     0.115929 -59.38  0.001140602    2.105    0.525
        35  -8.7349     80.9832    121.7708   8.2993297000e+01   4.1372764296e+01    0.2083456    0.1932207  19.34            0    1.106    0.096
        36  -9.4146     70.7420    120.2094   8.6047415012e+01   4.3357667113e+01    0.2641382    0.2231927 -47.61 0.0002496279    1.116    0.104
        37  -8.8684     57.9993    120.9857   9.0605702880e+01   4.4948374610e+01    0.2186928    0.2009521 -44.01            0    1.015    0.015
        38 -10.6322    107.9980    119.8978   7.4047386880e+01   3.7022686618e+01    0.2536444    0.2405032 -12.11  0.001324008    1.046    0.044
        39  -7.9759     94.2597    120.3965   7.8379786515e+01   3.9447217779e+01    0.1654398    0.1153134 -24.47 0.0005516713    1.708    0.415
        40  -8.6754     76.2912    119.9719   8.4119653192e+01   4.2567631769e+01    0.2266485    0.1936231 -48.05 0.0007284711    1.118    0.106
        41  -8.4902     89.0119    120.0000   7.9950510909e+01   4.0463909067e+01    0.2483162   0.08879463  35.03 0.0004592086    2.875    0.652
        42 -11.2727      3.6567    113.5097   1.0856755899e+02   5.1814371053e+01    0.7365196    0.2896574 -54.18  0.003283106    1.951    0.487
        43 -10.4189      2.6562    105.0308   1.0768313682e+02   5.3976259974e+01     0.375682    0.2450677 -21.96  0.002075933    1.632    0.387
        44  -9.1755      4.0424     99.2077   1.0623862920e+02   5.5334069783e+01    0.4189496    0.1557893 -52.55  0.001846886    2.006    0.502
        45  -9.4325     46.9715    115.9016   9.3403881042e+01   4.7597972167e+01    0.2203127    0.1943714 -43.93 0.0003873903    1.022    0.021
        46 -10.7803     46.9602    110.9026   9.2318658772e+01   4.8854256507e+01     0.471425    0.2847911 -63.05  0.001404907    1.650    0.394
        47  -8.9333     43.0339    115.9919   9.4839072504e+01   4.8018304700e+01    0.2234455    0.1710245  68.78 0.0007268445    1.685    0.407
        48  -8.9160     32.9723    112.5356   9.7797474398e+01   4.9919409378e+01    0.2577158    0.1647548 -10.89 0.0005409979    1.874    0.466
        49 -11.0175     27.0028    113.7438   1.0021134240e+02   5.0151228834e+01    0.3356537    0.2903569 -70.50            0    1.158    0.136
        50  -9.0470     22.2247    112.6585   1.0175617909e+02   5.0817183229e+01     0.276997    0.2000745 -15.39 0.0009513561    1.517    0.341
        51 -10.2450     12.1943    113.8639   1.0558649276e+02   5.1226901469e+01    0.3337991    0.2810499 -49.84  0.001001222    1.047    0.045
        52  -9.2426     60.4608    113.9222   8.8142119465e+01   4.6395087365e+01     0.230982    0.2015964  37.14 0.0003582308    1.245    0.197
        53 -10.3326     38.4598    110.5651   9.5374433807e+01   4.9872138352e+01    0.2811457    0.2579151 -88.66  0.000786006    1.243    0.195
        54 -10.0643     41.5631    109.4672   9.3991273210e+01   4.9818178481e+01    0.3099024    0.2197169 -55.52 5.683353e-05    1.279    0.218
        55  -8.4225     82.0689    110.9891   7.9950414812e+01   4.3818027751e+01    0.2388795    0.1755251 -18.52 0.0004876135    1.583    0.368
        56  -8.8685     99.6324    109.7135   7.3939105265e+01   4.0982028364e+01    0.1611606    0.1203652  -4.19 0.0004417178    1.701    0.412
        57 -10.4210     66.8508    108.8154   8.4640752067e+01   4.6741168854e+01    0.4740309    0.2462962  21.50  0.001706528    2.272    0.560
        58 -10.4343     64.9859    103.0539   8.3840164000e+01   4.8395069413e+01    0.5613727    0.3209794 -45.02  0.002444203    1.637    0.389
        59 -10.2687     69.9926     99.0306   8.0970391655e+01   4.8579101972e+01    0.3710762    0.2905241   4.31  0.001867147    1.380    0.275
        60  -9.3261     89.3291    107.9211   7.6744486404e+01   4.3285303791e+01    0.3235215    0.2089257  30.91  0.001208133    1.606    0.378
        61  -9.1059     77.3958    107.4352   8.0611322764e+01   4.5434812033e+01    0.2896881    0.2339278 -43.48   0.00146067    1.183    0.155
        62 -10.3354     51.4640    103.4940   8.8925937127e+01   5.0129536197e+01    0.4424229    0.2554438 -77.54  0.001697181    2.824    0.646
        63 -10.3576    114.4986    104.1473   6.7982962142e+01   3.9303698487e+01    0.4109638     0.271271  -0.94 0.0009673142    2.592    0.614
        64 -10.0702     36.5798    104.3757   9.4749821523e+01   5.1599948749e+01    0.6287678    0.3102862 -16.65   0.00230058    3.195    0.687
        65  -9.4735     22.5430     96.7868   9.8567663141e+01   5.4718641247e+01    0.3685876    0.2015014  39.20 0.0004880039    2.207    0.547
        66  -9.0297     14.7659     99.9919   1.0224726538e+02   5.4509064834e+01    0.3357844    0.1213099 -68.36  0.001285696    2.662    0.624
        67 -10.1400     11.1070     97.2778   1.0316756199e+02   5.5405397660e+01    0.2648809    0.2080739 -31.73 0.0006004821    1.189    0.159
        68  -9.2434     15.2608     94.9955   1.0109266742e+02   5.5688025020e+01    0.3247093    0.2244459   3.50  0.001796083    1.587    0.370
        69  -8.7820     13.8099    105.3831   1.0358613305e+02   5.3244910183e+01    0.2227445    0.1529523 -22.50   0.00120388    1.523    0.343
        70  -9.2352     99.6882     83.2760   6.6397865978e+01   4.6637804905e+01    0.3959196       0.2518  65.22  0.001340732    2.430    0.589
        71  -8.9365     96.6700    101.7016   7.2690286659e+01   4.3352387981e+01    0.2473155    0.1514489 -44.11 0.0005742959    1.608    0.378
        72  -9.9093     97.1306     90.9465   6.9479107734e+01   4.5584150249e+01    0.4936876     0.409261 -82.53  0.002442952    1.621    0.383
        73  -9.7075     97.9868     98.2718   7.1314835234e+01   4.3856197119e+01    0.2892844    0.2277593 -43.29 0.0003800767    1.261    0.207
        74  -8.9446     95.5057     95.4547   7.1299761462e+01   4.4940499915e+01    0.2742581     0.251442  79.25 0.0008310581    1.305    0.234
        75 -10.1721    112.4797     99.3302   6.7234716241e+01   4.0750767733e+01    0.2937029    0.2552716 -17.01  0.001021325    1.218    0.179
        76 -10.4142     80.5481     99.8022   7.7480064568e+01   4.6680977330e+01    0.4380879    0.2537868  14.11   0.00152965    2.493    0.599
        77  -9.4620     33.9784     99.0576   9.4567725168e+01   5.3155557063e+01    0.2071425    0.1815482 -36.92 0.0002912036    1.011    0.011
        78  -9.8713    136.9110     96.6117   5.9935610603e+01   3.6121778095e+01    0.3241369    0.2146183 -26.35  0.001039594    1.830    0.453
        79  -9.5282     52.8225     90.1733   8.4970230643e+01   5.3080980547e+01    0.3141184    0.1981953  35.13     0.000755    1.685    0.406
        80 -11.4113     47.3754     85.5575   8.5851058331e+01   5.4820162940e+01    0.8712016    0.5069904  23.72   0.00358798    1.782    0.439
        81 -11.2549     51.7328     80.2498   8.2583925709e+01   5.5421253159e+01    0.9529122    0.4930262  14.39  0.003079718    2.458    0.593
        82 -10.1581     43.4730     93.5378   8.9519219559e+01   5.3459778717e+01    0.3179319    0.2643074 -40.42  0.001031991    1.079    0.073
        83  -8.0310    143.2580     97.6352   5.8675816504e+01   3.4531476118e+01    0.1524944    0.1161563 -72.45 0.0006972329    1.634    0.388
        84 -10.6207    116.4001     96.0379   6.5191480982e+01   4.0630861580e+01    0.3896906    0.2752869 -66.24  0.001716426    1.868    0.465
        85  -8.3405    105.3501     97.3143   6.8775294155e+01   4.2620890064e+01    0.1597211    0.1193572  -0.74 0.0007046677    1.726    0.421
        86  -7.9617    157.2659     96.3110   5.5167287304e+01   3.1713638834e+01    0.1416057    0.1173851  -0.90  0.000207135    1.540    0.350
        87  -9.9974    124.4896     95.8013   6.2904474918e+01   3.8969613404e+01    0.3364721    0.2211915 -76.93  0.001273667    2.718    0.632
        88 -10.1153    132.7830     93.7309   6.0177381553e+01   3.7593235546e+01    0.3666402    0.1993044  45.39  0.001270551    1.837    0.456
        89  -8.6280     64.5270     93.9206   8.1560448797e+01   5.0582095698e+01    0.2234954    0.1373742 -48.39 0.0005093581    1.553    0.356
        90  -9.0199    110.3096     93.5376   6.6227758557e+01   4.2409214230e+01    0.2067581    0.1439135  31.21 0.0009364247    1.525    0.344
        91  -7.9522     83.4796     93.5088   7.4704211720e+01   4.7573980885e+01    0.1497502     0.140889  -9.31 3.753662e-05    1.008    0.008
        92 -10.0320    116.6809     88.4674   6.2952716281e+01   4.2102330293e+01    0.3507922    0.2039421 -31.61 0.0008974022    1.970    0.492
        93 -10.4575     72.4002     89.2330   7.7348642935e+01   5.0392750321e+01    0.6325074    0.4437231 -86.65 0.0008197593    2.733    0.634
        94 -10.1885     72.1061     76.2412   7.3510603440e+01   5.3155333464e+01    0.5685928    0.3805894   2.02  0.002550936    1.916    0.478
        95 -11.3140     62.2029     83.7834   7.9530942995e+01   5.3171415681e+01    0.6954336     0.410016   8.87   0.00272995    2.284    0.562
        96 -10.6758     65.1533     81.1604   7.7624228550e+01   5.3277467919e+01    0.4485102    0.4194283  50.40  0.001091698    1.287    0.223
        97 -11.0836    107.4413     86.4470   6.5006373614e+01   4.4435007901e+01    0.4999219    0.4035401  66.50  0.000525919    1.493    0.330
        98  -8.9045     65.9161     88.9981   7.9655474352e+01   5.1472322794e+01    0.2720288    0.1993341 -51.92  0.001361225    1.406    0.289
        99  -9.2937     16.7757     88.7729   9.9197251972e+01   5.7064976446e+01    0.2556126     0.184453 -84.17 0.0003239187    1.727    0.421
       100  -9.2683     13.8880     85.4496   9.9681609943e+01   5.8042588674e+01    0.5029128    0.2424452 -28.43  0.002291352    2.164    0.538
       101  -9.5433      7.2338     87.6167   1.0288965455e+02   5.7942431004e+01    0.2974514    0.1825054 -62.80  0.001338188    1.424    0.298
       102  -8.2352    177.2717     85.3400   4.8477806913e+01   2.9327931754e+01    0.1343615    0.1125772   1.03 0.0006991802    1.608    0.378
       103  -9.3899    163.0245     84.6899   5.0984640856e+01   3.2579912043e+01    0.3928701    0.1704598  57.61  0.001502966    2.465    0.594
       104  -9.8661    139.2931     84.0685   5.5921094611e+01   3.7997597518e+01    0.2706631    0.2461558  20.29 0.0007249329    1.204    0.169
       105  -9.1557     29.2547     83.1483   9.2671790438e+01   5.7342288792e+01    0.2899404    0.2426798  67.08  0.001155604    1.650    0.394
       106 -12.2156    139.2811     72.8152   5.2772770905e+01   3.9988249252e+01     1.018916    0.6504316  40.19  0.002368202    1.684    0.406
       107 -10.5624    128.9614     81.0000   5.7554780112e+01   4.0857653750e+01     0.506893     0.326881  61.40  0.002139324    1.745    0.427
       108 -10.7738    126.0471     74.8373   5.6495056045e+01   4.2609857331e+01    0.5354946    0.2800823  47.04  0.002271279    1.845    0.458
       109 -10.7686    113.7009     80.2075   6.1355589991e+01   4.4325816574e+01    0.4957846    0.4733444  -7.00  0.002370648    1.056    0.053
       110 -12.0513    116.5081     74.0188   5.8727298589e+01   4.4851207336e+01     1.108856    0.7127962 -57.00  0.004971808    1.958    0.489
       111 -10.6185    103.9344     76.0793   6.2911373832e+01   4.7149503124e+01     0.562218    0.3582833   0.76  0.001926007    2.766    0.638
       112 -10.4013     96.3083     75.6888   6.5114320917e+01   4.8775388496e+01    0.5756031    0.4334021  35.49  0.002010674    1.286    0.223
       113  -9.5504    151.8473     73.5508   5.0287532404e+01   3.7014494624e+01    0.2948627    0.1953953 -29.72  0.001082495    1.717    0.417
       114 -10.6717    149.8985     67.8112   4.9121720789e+01   3.8400489543e+01    0.5154218    0.4025159  44.94  0.001595628    1.324    0.245
       115 -11.5054    107.0938     64.8368   5.8472696895e+01   4.8466573194e+01     1.112711    0.7846673  -7.15  0.005275302    1.898    0.473
       116 -11.4098    119.0059     60.5770   5.3967606151e+01   4.6555093429e+01    0.9451401    0.6111209 -13.90  0.003282929    2.193    0.544
       117  -8.3511     88.1182     84.0000   7.0328407768e+01   4.8735500264e+01    0.2380726   0.08224156  40.13 0.0007906685    2.861    0.651
       118 -10.1977     82.0117     80.1073   7.1201646606e+01   5.0646258493e+01    0.6212639    0.3856851 -48.94     0.002857    1.716    0.417
       119 -10.5041     87.7569     72.8182   6.6957269058e+01   5.0988865365e+01    0.5902406    0.3873931 -28.83  0.001018026    1.646    0.392
       120  -8.8597     82.1863     73.0066   6.8897409009e+01   5.2001623856e+01    0.3508814    0.2089761 -38.12  0.001111962    1.701    0.412
       121  -8.2933     75.5552     83.4633   7.4499513399e+01   5.1095432485e+01    0.1486983    0.1321304  -7.94 0.0001173038    1.067    0.063
       122  -9.0860     40.0874     80.4824   8.7417608381e+01   5.6815889094e+01     0.217292    0.1599778  -8.99 0.0005516715    1.373    0.272
       123 -10.0094      7.7911     79.4798   1.0098757313e+02   5.9799205363e+01    0.6096628    0.2580377 -39.40  0.002813999    2.018    0.505
       124  -8.5943      1.9752     80.7803   1.0374785424e+02   5.9807363889e+01    0.1535805    0.1503373 -69.44 0.0004447015    1.254    0.202
       125 -10.7903     46.9858     95.7046   8.8695835799e+01   5.2537734438e+01    0.5397908    0.2963045 -53.48  0.001009677    1.680    0.405
       126 -10.5351    172.4162     76.7856   4.7219464275e+01   3.1851982734e+01    0.3555898    0.2887868 -82.84 0.0006608408    1.298    0.230
       127 -10.2894    173.9534     72.3186   4.5835080040e+01   3.2244463764e+01    0.2830372    0.2710414  36.76  0.001239876    1.211    0.174
       128  -9.2839     24.9106     78.0250   9.3214874518e+01   5.8889526043e+01    0.3879207    0.2273605  -8.73  0.001896616    1.924    0.480
       129  -9.2553     30.5619     75.4994   9.0085344400e+01   5.8920710872e+01    0.3760394      0.23449  37.82  0.001866398    1.908    0.476
       130  -9.0237    185.3340     77.3189   4.5166704926e+01   2.8935432491e+01    0.1324199    0.1093761  17.46 0.0007048821    1.697    0.411
       131  -7.7239     17.6383     77.2828   9.6197481645e+01   5.9646087267e+01    0.1224778   0.09950034  55.02 0.0004685966    1.679    0.404
       132  -9.0099    194.1186     76.1375   4.3521359291e+01   2.7250186421e+01    0.1868175    0.1814165 -19.54 0.0004469771    1.244    0.196
       133  -9.9483    163.6159     74.7409   4.8301462629e+01   3.4157193108e+01     0.413627    0.1991145  59.12  0.001731174    2.124    0.529
       134  -9.4455    209.4547     73.9552   4.0863751315e+01   2.4423356845e+01     0.195957    0.1147208 -43.18 0.0003416615    1.542    0.351
       135  -9.7412     15.7222     72.3453   9.5818409039e+01   6.0883868173e+01    0.5170063    0.2861075 -20.74  0.002588965    1.866    0.464
       136  -9.7370     18.1666     65.4813   9.2872209845e+01   6.2176111262e+01    0.3265868    0.1688989 -37.88  0.001049255    1.656    0.396
       137  -8.3268      4.7668     74.6706   1.0126540021e+02   6.1056300915e+01     0.158687    0.1089606  22.64 0.0003669531    1.672    0.402
       138  -9.8945     38.6904     72.6935   8.5763233482e+01   5.8656222627e+01     0.356451    0.2465427  25.63  0.001231693    1.488    0.328
       139  -9.7255     33.7144     68.9836   8.6824635261e+01   5.9986710498e+01    0.4277477    0.2802289 -51.48  0.002043785    1.497    0.332
       140  -9.7445     20.0021     56.6012   8.9376654751e+01   6.3843704628e+01    0.4610311    0.2580729  25.31  0.002460477    1.855    0.461
       141 -10.0819      2.8777     39.7069   9.2766293353e+01   6.8382766091e+01    0.3639252    0.1951132 -59.86  0.001970606    2.098    0.523
       142 -10.4239     24.3501     68.3131   9.0828864943e+01   6.1052014332e+01    0.5287796    0.2168615  28.81  0.001974744    2.526    0.604
       143 -11.0825     29.3520     61.2708   8.6422849148e+01   6.2021567187e+01    0.6663619     0.326978 -36.05  0.002632075    1.876    0.467
       144 -10.8208     11.4620     46.5165   9.0428700604e+01   6.6503789625e+01    0.8433956    0.5172706  55.70  0.003224393    3.745    0.733
       145  -9.6852     16.1214     43.8063   8.7091944365e+01   6.6629138955e+01    0.2522312     0.167328  -8.85 0.0007659945    1.367    0.268
       146  -9.1494     51.4494     70.8098   7.9810305741e+01   5.7430342757e+01    0.4647365    0.2123624  26.25  0.001951604    2.291    0.564
       147 -10.0285      9.5121     67.3996   9.7403630724e+01   6.2384337485e+01    0.5155919    0.2994284 -37.21  0.002401809    1.427    0.299
       148  -8.7663    123.1575     67.6644   5.5087323428e+01   4.4481252850e+01    0.2459965    0.1960125 -51.60   0.00116145    1.365    0.267
       149  -8.0448     44.6594     68.7260   8.1990194051e+01   5.8754778403e+01    0.1418936   0.09440981 -13.13 0.0006996896    1.613    0.380
       150 -10.4591    210.8885     66.3928   3.9034759795e+01   2.5293931076e+01    0.2304574     0.150779 -52.19 0.0005804896    1.352    0.260
       151 -10.6602     94.5686     66.1077   6.2594182240e+01   5.0858313482e+01    0.4012218     0.295839   4.53  0.001661338    1.661    0.398
       152 -10.2251     68.3780     49.0009   6.5565145735e+01   5.8685446886e+01    0.4163382    0.2347382  40.08  0.000393937    1.661    0.398
       153 -10.1275    197.4274    245.4352   7.7560981469e+01  -4.9496028573e+00    0.2699146    0.1581861   6.67  0.001418485    1.787    0.440
       154 -10.2225     70.0482     40.7706   6.1866970930e+01   5.9620983682e+01    0.6404092    0.3158095  35.26  0.001982071    1.926    0.481
       155 -12.0031    179.1003    241.1559   8.0634846412e+01  -1.8540229053e+00    0.7518394    0.4279539  20.68  0.003867713    1.669    0.401
       156 -10.3403     50.7896     31.6521   6.5717525422e+01   6.4233741336e+01    0.5266311    0.3873794  16.74   0.00320708    1.195    0.163
       157  -8.7581    245.3348    241.6912   6.7987990922e+01  -9.8776088105e+00   0.09623501   0.09061013 -13.84 0.0004265144    1.675    0.403
       158  -8.5338    212.0415    241.4561   7.4039901924e+01  -6.1122331566e+00    0.1729051    0.1070454  22.05 0.0003465959    1.502    0.334
       159  -8.6690    221.0101    239.5162   7.2013314413e+01  -6.8736362916e+00    0.1762498    0.1066473  22.73  0.001026378    1.572    0.364
       160  -9.8561    173.5604     65.6681   4.4240128578e+01   3.3384686267e+01    0.2743014    0.1663668  64.71   0.00089573    1.654    0.395
       161  -9.0921    129.4749     65.4908   5.2908651065e+01   4.3421275828e+01    0.3153827    0.1345324  53.08   0.00122981    2.231    0.552
       162 -11.9539     82.0841     56.6497   6.3455317150e+01   5.4918740713e+01    0.7536034    0.5306842 -42.57            0    1.561    0.360
       163 -10.9827     38.9287     62.1522   8.2366630585e+01   6.0776510539e+01    0.5057288    0.3740122 -20.36  0.001278147    1.232    0.188
       164 -11.9467    139.5780     55.8391   4.7868302592e+01   4.2609771711e+01    0.7620361    0.6699119  79.42   0.00143269    1.131    0.116
       165 -11.5195    151.1595     46.7190   4.3102129529e+01   4.1228507769e+01    0.7389766    0.4713801 -16.73  0.003578551    2.227    0.551
       166 -11.0946    160.7747     43.0658   4.0522375294e+01   3.9506650691e+01    0.5565367    0.3278286 -60.50  0.001468239    1.952    0.488
       167 -10.6003    164.7706     40.0532   3.9129364647e+01   3.8983547134e+01    0.2499416     0.214885  59.88 0.0002007694    1.183    0.155
       168  -9.5539    161.5707     35.1027   3.8326979588e+01   4.0325826314e+01    0.3286308    0.2055863  86.70  0.001080096    1.724    0.420
       169 -11.3532    164.0059     55.5180   4.3243167092e+01   3.7058668854e+01    0.5573807    0.4445333 -83.08   0.00163727    1.280    0.219
       170 -10.1951    126.6973     43.0166   4.6773616484e+01   4.7346826707e+01    0.4945443     0.330636 -76.82  0.002367023    2.148    0.534
       171 -10.6216    139.0455     34.7547   4.1897178771e+01   4.5542051202e+01     0.353742    0.2258836  51.73  0.001540678    1.459    0.314
       172  -9.5840    110.9441     39.4881   4.9240157492e+01   5.1360354136e+01    0.7437912    0.3018113  59.45  0.002984924    2.454    0.592
       173  -9.6249    111.4927     33.6842   4.7203229432e+01   5.1952958266e+01    0.3754523    0.2765682  28.65  0.001122515    1.484    0.326
       174 -10.9819    128.4716     58.6045   5.1094528039e+01   4.4732150262e+01    0.6571497    0.3974189  57.12  0.003130785    1.584    0.369
       175 -11.2077    129.6978     52.4626   4.8979810816e+01   4.5363676582e+01    0.7639691    0.4846851  52.02  0.003761614    1.453    0.312
       176  -9.7433    101.4894     59.2455   5.8267523264e+01   5.0574431279e+01    0.2947074    0.2215782 -71.27  0.001445438    1.954    0.488
       177  -9.6860     42.3589     61.2949   8.0569749160e+01   6.0518349459e+01    0.2822905     0.200879   1.93 0.0009437491    1.395    0.283
       178 -10.6395    190.7734     58.5419   3.9917681048e+01   3.0671669174e+01    0.2330505    0.1717294 -43.60 0.0003818809    1.326    0.246
       179 -11.1720    128.7455     38.8153   4.5069236139e+01   4.7415497376e+01     1.383001    0.5932415  66.82  0.005486204    2.598    0.615
       180 -10.0132      3.7854     56.6738   9.7352532494e+01   6.4993402204e+01    0.4660338    0.2889969  -0.26  0.002007316    1.612    0.380
       181 -10.3211      3.5384     50.8802   9.5863623037e+01   6.6184616139e+01    0.4115805    0.3253691 -63.33   0.00249648    1.483    0.326
       182 -11.6838    204.8766     56.0657   3.7527707189e+01   2.8040477868e+01     0.391985    0.2858368 -14.59  0.001589216    2.121    0.529
       183 -12.0883    182.0475     54.7794   4.0257192425e+01   3.3119336232e+01    0.5551588    0.4504012 -16.85  0.003232148    1.627    0.385
       184 -10.6286    182.3051     48.0756   3.8612709467e+01   3.3996284151e+01    0.2528621    0.2043891  89.71 0.0008738886    1.142    0.124
       185  -8.3454     68.2468     55.4172   6.7940971839e+01   5.7660315344e+01    0.2329541     0.185554  87.78 0.0008291503    2.268    0.559
       186  -9.6164    174.9978     55.0366   4.1364732308e+01   3.4648497294e+01    0.3049761    0.1730561  55.36 0.0009912804    1.744    0.427
       187 -10.0479     43.3363     53.7966   7.7551667696e+01   6.1793171220e+01    0.4726855     0.280129   5.26  0.002095498    2.003    0.501
       188  -9.2598     38.5454     54.5275   7.9958123876e+01   6.2277366423e+01    0.3226261    0.1835111 -51.45 0.0009459205    1.973    0.493
       189 -11.8263     99.5438     46.0019   5.4392151565e+01   5.2979611187e+01    0.8651715    0.7680376 -41.66  0.003361576    1.271    0.213
       190 -11.1336     87.3304     46.9974   5.8355199244e+01   5.5379091357e+01    0.6318369    0.3582562  41.30  0.002332882    1.609    0.378
       191  -9.8461     90.3161     31.3837   5.1843249918e+01   5.6830262717e+01    0.4948132    0.3147239  68.00  0.001784533    1.972    0.493
       192 -10.2137    191.7918    233.0152   7.6662855790e+01  -2.1508518459e+00    0.3855114    0.1637964  29.93  0.001732985    2.253    0.556
       193  -9.8173     79.6305     34.8482   5.6354944860e+01   5.8587246245e+01    0.3904789    0.1934329  48.12  0.001252026    1.813    0.448
       194 -11.2077    212.5258     49.6154   3.5252501944e+01   2.7369132631e+01    0.4386455    0.1666593 -34.80  0.001909729    2.776    0.640
       195  -9.5954    121.7115     49.6946   4.9941639741e+01   4.7572402286e+01    0.2981388    0.2579039   2.63  0.001725091    1.331    0.249
       196 -11.7990    193.2250     44.6553   3.6400996505e+01   3.2075596154e+01     0.387574    0.2926259  47.84  0.001486997    1.612    0.380
       197 -10.4706    189.5258     38.4804   3.5438058449e+01   3.3674590680e+01    0.2296709    0.2009538 -37.68  0.001320276    1.326    0.246
       198 -10.5624    161.0214     49.7270   4.2228209160e+01   3.8556893048e+01    0.3695664    0.3113947 -15.99  0.001768281    1.484    0.326
       199 -10.3079     89.9807     38.0941   5.4367129264e+01   5.6064072021e+01    0.4386868    0.3668928  47.08  0.002648266    1.123    0.110
       200  -9.4371     41.6583     43.4473   7.4467772895e+01   6.3810882212e+01    0.4468368    0.2839735 -56.56  0.002237236    2.455    0.593
       201  -9.8021     23.3358     44.1561   8.3528915701e+01   6.5883892210e+01    0.2970598    0.2027103 -16.55  0.001059646    1.297    0.229
       202  -9.9472    178.3035     43.5800   3.8077976206e+01   3.5483347193e+01    0.2033191    0.1655037  -1.55 0.0006228864    1.795    0.443
       203 -11.5419     30.0378     38.2214   7.7931454696e+01   6.6164414654e+01    0.3742741    0.2691428  -0.18  0.001185242    1.227    0.185
       204 -10.8499    207.4560     39.7839   3.3711469579e+01   2.9710619146e+01    0.3533432    0.1940923 -64.88 0.0009804234    1.840    0.457
       205  -8.9384    141.3726     40.2486   4.3050426882e+01   4.4329591283e+01    0.2131619    0.1929465  71.01  0.000595311    1.007    0.007
       206 -10.7064    187.4030     48.1962   3.7956997706e+01   3.2861343841e+01    0.2798186    0.1916094 -85.33  0.001357536    1.507    0.336
       207  -9.1963     13.5917     38.8578   8.6658278711e+01   6.7741974900e+01    0.2020204    0.1519866  15.75  0.000342233    1.350    0.259
       208  -9.6547      8.4194     27.1097   8.5023590886e+01   7.0189760814e+01    0.6638408    0.2064149  33.92     0.002784    3.878    0.742
       209 -10.0851      6.5241     32.4753   8.8191458095e+01   6.9433503563e+01    0.3308721    0.2062005 -48.02  0.001102262    1.587    0.370
       210  -9.6213    212.9480    216.5099   6.9586120349e+01  -2.1148037411e+00    0.1836875    0.1192257  26.20 0.0004575863    1.557    0.358
       211  -9.3271     83.2609     30.3131   5.3513814736e+01   5.8418398413e+01    0.4225399    0.2685287 -14.97  0.002238376    1.862    0.463
       212  -9.0115    176.2268     32.9501   3.5779742634e+01   3.7281351812e+01    0.1570139   0.09955624 -39.03 0.0006015699    1.633    0.387
       213  -9.7968    169.1364     31.6753   3.6393497672e+01   3.9021318411e+01    0.2245376    0.1585139 -54.05  0.001065411    1.408    0.290
       214  -9.0289     98.9759     31.9764   4.9702513016e+01   5.4912280368e+01     0.300768    0.1557975  50.36  0.001048954    1.660    0.398
       215  -8.6580    154.4161     30.2620   3.8119782893e+01   4.2532083839e+01    0.2639894    0.1109632 -38.91  0.001121954    2.426    0.588
       216  -9.1630    154.4724     24.6645   3.6623927255e+01   4.3144695253e+01    0.2960349     0.215026 -23.58  0.001748927    1.695    0.410
       217  -9.1372    135.2865     30.8512   4.1440760914e+01   4.6864125625e+01    0.1907138    0.1634931 -83.02 0.0007462117    1.203    0.169
       218  -8.7099    120.1665     31.2099   4.4492051455e+01   5.0285309508e+01    0.1883236    0.1571219  45.53 0.0004203281    1.132    0.117
       219  -9.3640    219.8633    210.1391   6.7129880895e+01  -1.9288242733e+00    0.1852425    0.1648578 -23.52 0.0005690842    1.240    0.194
       220 -10.2907     10.1698     31.9353   8.5935811371e+01   6.9236365009e+01    0.6459536     0.221598 -42.82  0.003042727    2.417    0.586
       221  -9.3055    125.5272     23.4552   4.1019025182e+01   4.9910788536e+01    0.1951118    0.1279043  -6.41 -5.088821e-06    2.135    0.532
       222 -10.0902    107.5783     26.2857   4.5647407264e+01   5.3666010820e+01    0.2972645    0.2131799  35.09 0.0007096631    1.404    0.288
       223  -9.4415    103.0997     23.7873   4.5839036937e+01   5.4923670537e+01    0.3208156    0.1865187  51.10 0.0009013077    1.453    0.312
       224  -9.6055     23.8765     26.2741   7.6129633281e+01   6.8768205476e+01    0.3194655     0.156535  20.83  0.001666994    1.951    0.488
       225  -9.3353    128.4803     25.5388   4.1104088542e+01   4.9015175692e+01    0.1300622    0.1115351  58.30 -3.373282e-05    1.052    0.049
       226  -8.3095    116.3135     24.6726   4.3213462941e+01   5.1878498595e+01    0.1279773   0.09564544 -76.25 0.0005264908    1.669    0.401
       227  -9.9084     86.4566     22.4260   4.9620756108e+01   5.8645367817e+01    0.5729045    0.2692086  66.88  0.001959904    3.057    0.673
       228  -8.8079     91.8209     19.3677   4.7049596094e+01   5.7824778686e+01     0.278789    0.1549563  36.88  0.001028784    1.756    0.430
       229  -8.3502    243.3187    178.3370   5.7134839886e+01   4.4359871681e-01    0.1325038   0.08464865 -16.24 0.0007049265    1.704    0.413
       230  -8.1936    147.8378     22.3636   3.6975450253e+01   4.4907936650e+01    0.1679261    0.0998211  58.51            0    1.487    0.328
       231 -10.2799    131.3821     20.5264   3.9087644111e+01   4.8870872242e+01    0.2326071    0.2122008  76.75 0.0001923402    1.070    0.065
       232  -9.8728      6.6104    167.0854   1.1371480340e+02   3.7894551124e+01    0.2254702    0.1719709  48.56  0.001329195    1.379    0.275
       233 -10.7078      6.2731    158.2061   1.1297753031e+02   4.0197306362e+01    0.4272901    0.2200095 -76.42  0.001921786    1.665    0.400
       234  -8.4614    141.2586     18.6066   3.6930464839e+01   4.6799609321e+01    0.1809002   0.09798256  57.93 0.0005464673    1.591    0.371
       235  -9.5690     12.6292    153.9453   1.1071126131e+02   4.0849478951e+01    0.2177752    0.1879305  43.51 0.0005205076    1.283    0.221
       236  -8.4341      1.3769     15.8337   8.4475421552e+01   7.2548269793e+01    0.1551068   0.08183344 -32.98 0.0005465647    1.570    0.363
       237  -8.5577     93.0689     14.9335   4.5118660195e+01   5.7983626784e+01    0.2183076    0.1252029  33.22  0.001136907    1.820    0.451
       238  -7.5198     19.5319     20.6466   7.5966492649e+01   7.0091877407e+01    0.1161883   0.09107994   4.27 0.0001429906    1.096    0.088
       239  -8.0654     21.5039    153.6125   1.0804792740e+02   4.0240632155e+01    0.1362647    0.1207078 -65.14 0.0001492117    1.051    0.049
       240  -8.4950      3.6586    152.3259   1.1314967279e+02   4.1883760658e+01    0.1396676   0.08724205  64.54 0.0007051209    1.734    0.423
       241  -9.3242    236.4976    146.9675   5.2177555905e+01   6.9374433678e+00    0.2055521    0.1085514 -41.08 0.0007611893    1.552    0.356
       242  -9.5501     36.3218    144.8184   1.0227101625e+02   4.1208355222e+01    0.3156754    0.2058925  87.62 0.0003884046    1.792    0.442
