#   1 NUMBER                 Running object number                                     
#   2 MAG_AUTO               Kron-like elliptical aperture magnitude                    [mag]
#   3 X_IMAGE                Object position along x                                    [pixel]
#   4 Y_IMAGE                Object position along y                                    [pixel]
#   5 X_WORLD                Barycenter position along world x axis                     [deg]
#   6 Y_WORLD                Barycenter position along world y axis                     [deg]
#   7 A_WORLD                Profile RMS along major axis (world units)                 [deg]
#   8 B_WORLD                Profile RMS along minor axis (world units)                 [deg]
#   9 THETA_WORLD            Position angle (CCW/world-x)                               [deg]
#  10 FWHM_WORLD             FWHM assuming a gaussian core                              [deg]
#  11 ELONGATION             A_IMAGE/B_IMAGE                                           
#  12 ELLIPTICITY            1 - B_IMAGE/A_IMAGE                                       
         1 -11.8675     48.0661     35.1529   6.4634460838e+01   6.7080166556e+01     1.001166    0.7127941 -84.67  0.004359777    2.600    0.615
         2 -12.9231     44.6129     23.2267   5.9963545588e+01   6.9941575213e+01     1.219668     0.859293 -57.17   0.00608818    1.819    0.450
         3 -11.9956     78.2180     13.5643   4.0007435899e+01   6.3987014944e+01    0.5268423    0.3084031 -10.58  0.002331031    2.017    0.504
         4 -11.6092    178.6360     23.9397   2.6855468678e+01   3.7011573089e+01    0.4974957    0.4106936 -46.56  0.002902936    1.097    0.089
         5 -11.3746    172.9279     20.7115   2.6428639725e+01   3.8739564329e+01    0.4548028    0.2696151  45.14   0.00216093    1.978    0.494
         6 -10.0351    128.4880     17.9145   3.1047270378e+01   5.0469088757e+01     0.294829    0.2470251  79.37  0.001414425    1.171    0.146
         7 -10.2397     20.8420     13.7945   6.9885208519e+01   7.5460657411e+01    0.4353571    0.1973681 -36.28  0.001899352    2.238    0.553
         8 -12.3918    155.9967     11.7588   2.5219326300e+01   4.3874549629e+01    0.6026066    0.3819434 -47.97  0.003015418    1.502    0.334
         9 -12.7552    169.2438     10.0245   2.3384384148e+01   4.0683531525e+01    0.5498636    0.4356012 -35.26  0.003168071    1.194    0.163
        10 -13.1898    162.8647      3.3097   2.1740496892e+01   4.2862458990e+01     1.678615    0.3896401  74.07  0.005464192    3.892    0.743
        11 -10.9239     39.1200      8.3365   5.3157626502e+01   7.3366277163e+01    0.4359814    0.2608861 -12.23  0.002032503    2.063    0.515
        12 -11.4797    193.4543      6.3420   2.0465235809e+01   3.5192503631e+01    0.5073436    0.1852422 -51.92  0.002106449    2.541    0.606
        13 -11.8925    208.5830      4.2234   1.9003263260e+01   3.1973529413e+01    0.5418842    0.3020756 -85.98   0.00290386    1.875    0.467
        14 -11.7634    204.7728      4.4117   1.9260208849e+01   3.2796396412e+01    0.4084075    0.3085381 -79.07  0.002542465    1.294    0.227
        15 -11.6903    143.9044      3.9456   2.3687139526e+01   4.7690822111e+01    0.5965868    0.3878711 -68.77  0.002973825    1.571    0.364
        16 -11.7710     83.9800      3.5910   3.2861968408e+01   6.3545844747e+01    0.8580175     0.377898  69.81  0.003461616    2.254    0.556
        17 -10.6589     71.3568      5.6061   3.7438825915e+01   6.6527509257e+01    0.4366753    0.2630383  61.53   0.00210005    1.588    0.370
        18 -10.6936    129.7347      4.2483   2.5384190194e+01   5.1406263688e+01    0.4696788    0.2409649  65.78   0.00209875    1.795    0.443
        19 -10.6725    121.1966      4.2798   2.6499860666e+01   5.3677447355e+01    0.4173588    0.3803774 -64.74  0.002440217    1.090    0.082
        20 -10.3091    105.9257      4.6926   2.9017634461e+01   5.7711406872e+01    0.3968183    0.2092069 -71.70  0.001576636    2.540    0.606
        21 -10.4202     61.5766      1.9732   3.8284059463e+01   6.9241925328e+01    0.4327019    0.1679255  49.79  0.001748737    2.267    0.559
        22  -9.8345    217.5107      2.0321   1.7990808452e+01   3.0243267944e+01    0.2328653    0.1422615 -67.06  0.001168013    1.545    0.353
        23 -10.7833    223.3417      4.9228   1.8437269905e+01   2.8778357827e+01    0.4386503     0.137568 -42.91  0.001983821    2.321    0.569
        24  -8.9900     17.5233      1.5324   6.3250258567e+01   7.8104146085e+01    0.1283571    0.1104447  -8.31 0.0003656593    1.003    0.003
        25 -12.2919    242.2888    109.1025   4.1439560410e+01   1.3493744767e+01    0.5580717    0.4012716 -49.87  0.003464844    1.685    0.407
        26 -10.8029    189.2877    116.0194   5.0812594173e+01   2.1805357942e+01    0.5071908    0.2425856 -16.87   0.00178868    3.465    0.711
        27 -10.7007    222.9464    107.1716   4.3515706216e+01   1.6961926944e+01    0.3352725    0.2646812  41.96  0.002104329    1.448    0.309
        28 -10.1206    148.6208    111.1483   5.7705259310e+01   3.0742710391e+01    0.3243722    0.1727176 -48.91   0.00130201    2.056    0.514
        29 -10.9128     18.4972    105.1212   9.8395452943e+01   5.3210449565e+01    0.7219704     0.317533  56.43   0.00291972    2.561    0.610
        30 -10.6190    212.8880    112.8033   4.6241138159e+01   1.7950575107e+01    0.3621224    0.2126935 -34.64  0.001905965    1.496    0.332
        31  -9.3987    156.0133    108.7531   5.5463241579e+01   2.9657860359e+01    0.1925078    0.1239571  46.45 0.0008898878    1.605    0.377
        32  -8.9663    165.2888    134.6704   5.9726740124e+01   2.3212794085e+01    0.1306471    0.1124184 -74.43 0.0006357911    1.620    0.383
        33 -10.0463     30.7483    101.8043   9.3092334903e+01   5.3021686307e+01    0.2840995    0.1924968 -45.42  0.001423338    1.550    0.355
        34  -9.4298     46.9771    100.4209   8.6425916476e+01   5.1588441399e+01      0.35382    0.1491737 -36.40  0.001088989    4.048    0.753
        35 -10.0565    112.6602     99.3246   6.3658143893e+01   4.0609071615e+01    0.1568854    0.1228578  87.71 0.0007051181    1.726    0.421
        36  -9.2906    208.6274     94.7733   4.2602431978e+01   2.1286352269e+01    0.1939249     0.106125 -37.98 0.0009424768    1.624    0.384
        37  -9.2173    178.9817     93.2443   4.6913797718e+01   2.7484117674e+01    0.1812236    0.1218319  52.41 0.0008891626    1.615    0.381
        38 -11.1423      2.3887     86.5451   1.0304126111e+02   5.9104876082e+01    0.8028103    0.2181182 -80.27  0.002762642    3.276    0.695
        39 -12.5031      4.7663     75.8970   1.0073335132e+02   6.1788411583e+01    0.8950357    0.4852895  63.57  0.004188889    2.051    0.512
        40 -12.7379     14.7440     73.0207   9.5377357364e+01   6.1949644038e+01    0.9187486    0.5830372  38.02  0.004705325    1.692    0.409
        41  -9.9302    193.3344     86.9449   4.2900268630e+01   2.5455418642e+01     0.294746    0.2086581  82.30  0.001414782    2.046    0.511
        42 -12.5282     42.8672     80.6498   8.3716820787e+01   5.7208611686e+01     1.109392    0.7837394 -12.01  0.005011042    1.851    0.460
        43  -9.9921    144.8481     80.9722   5.0130408645e+01   3.7118076131e+01    0.3653794    0.2278108  47.76  0.001472779    1.650    0.394
        44  -9.7423    214.9965     79.7527   3.8053087621e+01   2.2117233784e+01    0.2566757    0.1442861 -41.75  0.001292152    1.622    0.384
        45  -9.4681    220.7530     77.9909   3.6913960358e+01   2.1240065922e+01    0.1795759    0.1362121 -65.93 0.0009575791    1.629    0.386
        46 -10.0633    169.7317     76.5040   4.3921590324e+01   3.2159075169e+01    0.2921094    0.2619401 -32.71  0.001552778    1.040    0.039
        47 -10.2150     75.6523     68.7920   6.6328838368e+01   5.4831253720e+01    0.5121591    0.3550091  10.60  0.002174075    2.102    0.524
        48  -9.5353    248.3414     69.6719   3.2052636766e+01   1.7257438685e+01     0.126259   0.07495704 -50.37 0.0007051383    1.740    0.425
        49  -9.6963     83.6942     69.0096   6.3418014289e+01   5.3186318264e+01    0.2242569     0.201913 -42.77  0.001069274    1.088    0.081
        50 -11.4049    214.5658     66.8870   3.4882757801e+01   2.3880531178e+01    0.3171788    0.2408621  10.73  0.001802368    1.601    0.375
        51  -9.5082    179.1358     66.1783   3.9406947387e+01   3.1577265336e+01    0.2038083    0.1636841 -62.51  0.001088045    1.356    0.262
        52 -11.2898    233.0552     64.3855   3.2289676391e+01   2.0611509608e+01    0.3165158    0.2221072  45.06  0.001904521    1.721    0.419
        53  -9.1379    250.2998     63.6350   3.0517804419e+01   1.7610269196e+01    0.1279742    0.0709044 -47.85 0.0007033893    1.727    0.421
        54  -8.8970    132.3239     63.6862   4.7396182522e+01   4.3097842485e+01    0.1570759    0.1173796 -70.06 0.0007041356    1.661    0.398
        55 -10.7808     25.4478     65.2846   8.8242163438e+01   6.3079402797e+01    0.4593434     0.261947 -62.10  0.002168071    1.557    0.358
        56 -10.8293    209.5949     59.8472   3.3645253441e+01   2.5789065601e+01    0.2999335    0.1967332 -45.94  0.001619139    1.415    0.293
        57 -11.4626    228.1304     59.5164   3.1602038307e+01   2.2123308761e+01      0.36678    0.2265857 -78.27  0.001900182    2.314    0.568
        58  -9.2198     76.5045     59.5192   6.2584942120e+01   5.6676414357e+01    0.1497146    0.1458851 -26.61 0.0008103657    1.003    0.003
        59  -8.9653    248.3254     58.3329   2.9487854728e+01   1.8548889872e+01    0.1167695   0.08529067   7.41  0.000705111    1.711    0.415
        60 -10.8408    217.0542     56.9415   3.2084251907e+01   2.4618922403e+01    0.2060599     0.152124  16.28  0.001148535    1.733    0.423
        61  -9.2813    138.1790     56.3856   4.3621775537e+01   4.2858306617e+01    0.2132765    0.1454053  74.14 0.0009500932    1.714    0.417
        62 -11.0445    198.6902     52.2876   3.2880143342e+01   2.9068957015e+01    0.4365667    0.1913209 -30.04  0.001893699    1.982    0.495
        63  -9.9945    220.7173     53.4587   3.0831839420e+01   2.4298744178e+01    0.2149815    0.1298383  77.99   0.00112855    2.081    0.519
        64 -11.0237    215.2398     50.7886   3.0696184659e+01   2.5729518297e+01    0.2761134    0.2262148  36.41   0.00169051    1.462    0.316
        65 -10.6710     85.1112     47.9155   5.4681147853e+01   5.7130327233e+01    0.4989038    0.3469125  53.79   0.00233333    1.490    0.329
        66 -11.3611     81.4992     39.0116   5.1981987666e+01   5.9532894054e+01    0.7469473    0.4114672 -42.65  0.003165828    1.847    0.459
        67  -9.4299     35.1848     52.6050   7.9177960171e+01   6.5160338987e+01    0.1947994    0.1356996   8.74 0.0009494296    1.705    0.413
        68  -9.8321    164.8556     53.8926   3.7950495962e+01   3.6678570688e+01    0.2233584    0.1991814   9.63 0.0008608557    1.249    0.200
        69  -8.9606    242.3282     43.3186   2.6507503370e+01   2.1276068596e+01    0.1148039   0.08756227  12.51 0.0003698373    1.683    0.406
        70 -11.4665      3.2392     41.0801   9.5442462580e+01   7.0820641638e+01     0.525179    0.4530798  83.83  0.002519504    1.252    0.201
        71 -11.0313      5.9368     35.2603   9.1930142035e+01   7.2107261371e+01    0.3669847    0.2501771  14.78  0.001446425    1.615    0.381
        72 -11.8895    183.5453     40.4602   3.1288455582e+01   3.3969247056e+01    0.5269082    0.3922388  79.76  0.002863486    1.455    0.313
        73  -9.9012    159.3193    232.3115   7.7658147816e+01   8.8758823451e+00    0.1147259   0.07262508   4.29 0.0003006644    1.646    0.392
        74 -11.7151     39.9882     29.2660   6.6064098453e+01   6.9612690360e+01    0.6079328    0.3225552 -44.45  0.002760945    1.799    0.444
        75 -10.1106      3.1847    230.1688   1.0955198062e+02   2.6340127557e+01    0.1597556   0.08703195  52.16   0.00104206    1.345    0.257
        76  -9.6209    223.4948     40.4811   2.7317417280e+01   2.5225072551e+01    0.1273471    0.1060486 -38.61 0.0001479363    1.003    0.003
        77 -11.0183    197.8644     34.1745   2.7954073387e+01   3.1403184349e+01    0.3241626    0.1900485 -42.65  0.001654551    1.491    0.329
        78  -9.3932     65.9586     35.4800   5.6297288618e+01   6.3563097158e+01    0.2023105    0.1321245  73.73 0.0008099005    2.578    0.612
        79 -10.1080     86.0000     31.6894   4.6996063180e+01   5.9659719476e+01      0.21525    0.1890055  51.36  0.001106661    1.126    0.112
        80  -9.9559     66.9814     29.2966   5.2689010313e+01   6.4406004575e+01    0.3037773    0.1826245  -7.13  0.001177059    2.681    0.627
        81  -9.6950     90.0411     28.3094   4.4119952737e+01   5.9172244881e+01    0.2758434    0.2024916 -54.80  0.001329412    1.564    0.361
        82  -9.4550     31.7980    227.3766   1.0352294669e+02   2.4369838614e+01    0.1497029    0.0923003  20.63 0.0007556489    1.661    0.398
        83 -10.8854    248.6126    224.2640   6.1610210016e+01  -4.4742943315e-01    0.3220263     0.210244 -14.57  0.002544371    1.274    0.215
        84 -12.5812    203.7635    220.6261   6.8089544557e+01   4.9045656927e+00    0.4548673    0.2974196   3.34  0.003151799    1.293    0.226
        85  -9.2668    224.3245     22.6836   2.2798774640e+01   2.6921601996e+01    0.1348068   0.07268244 -52.18 0.0007043644    1.669    0.401
        86  -9.8469    187.4653     19.6483   2.4749619017e+01   3.5344334503e+01    0.2577567    0.1637426  84.28  0.001339664    1.659    0.397
        87 -12.6401    183.7048    216.3747   7.0970303421e+01   7.8867981713e+00    0.4020257     0.275197  26.93  0.002726567    1.252    0.201
        88  -9.6689     94.1846     17.0994   3.7490071860e+01   5.9562928771e+01    0.2786348    0.1829963 -78.53  0.001118281    2.052    0.513
        89  -9.7714     14.3015     17.6740   7.7734045619e+01   7.5459273865e+01    0.1213486    0.1030082  73.97 0.0004166078    1.639    0.390
        90 -10.3142    226.6104     15.4996   2.0876895053e+01   2.7150167195e+01    0.4021972    0.1938749  87.93  0.002043328    2.407    0.585
        91 -10.3795     51.7049    218.9574   9.8737452099e+01   2.3911461787e+01    0.1625916    0.1340423  52.81 0.0008985415    1.083    0.077
        92  -9.7814     67.5125    217.4896   9.5119108461e+01   2.2454391272e+01     0.119633   0.09441639  42.66 0.0001037631    1.028    0.027
        93  -9.5028    141.3202    207.3293   7.7891955970e+01   1.4780084630e+01    0.1244624   0.08462726   0.02 0.0005862325    1.689    0.408
        94 -11.0060    243.6833    200.9328   5.8700605498e+01   2.4290613016e+00    0.3453965    0.2842251  -1.27  0.002788882    1.355    0.262
        95  -8.6676    220.2927     11.3224   2.0193276997e+01   2.8838691810e+01    0.1132194   0.09144836  22.52 0.0004337913    1.612    0.380
        96  -9.8646    203.0952    196.9088   6.4503106265e+01   7.8639653906e+00     0.169255    0.1445861   6.63 0.0009018176    1.234    0.190
        97 -10.8162    195.9561    185.8497   6.3885649728e+01   1.0283789005e+01    0.3231753    0.2411159  47.83  0.002003064    1.876    0.467
        98  -9.8115     37.0213    185.4909   9.9919631526e+01   3.2045242703e+01    0.1888824    0.1095514  28.50   0.00103344    1.595    0.373
        99 -10.8726    220.1892    156.0842   5.4292652374e+01   1.0802353908e+01    0.2021348    0.1809416  13.49  0.001130887    1.282    0.220
       100  -9.5357     20.5039    155.5188   1.0228939709e+02   4.0347699974e+01    0.1292334    0.1096008  65.22 0.0008103423    1.014    0.014
       101 -12.2509     10.8266    141.6704   1.0426880221e+02   4.4450970424e+01     0.680935    0.2567953  84.49  0.002740372    2.779    0.640
       102  -9.8739     53.5245    143.4852   9.1164282503e+01   3.9870308519e+01    0.2517631    0.2323137  78.23  0.001359966    1.032    0.031
       103 -10.0743     40.0569    140.6961   9.5018618117e+01   4.2087623052e+01    0.2835907    0.2205998  75.00   0.00159612    1.238    0.192
       104 -13.7056    241.9548    124.7012   4.4789143151e+01   1.1595171477e+01     1.279173     1.024634   0.85  0.008820545    1.171    0.146
       105  -9.2455     23.6716    125.6630   9.8772198163e+01   4.7455031604e+01     0.140371   0.09394635 -42.53 0.0007051901    1.729    0.422
       106 -11.3095     11.8076    124.4510   1.0273581550e+02   4.8688201317e+01    0.3666693    0.1672247 -86.55  0.001629237    2.067    0.516
       107 -10.1480      4.5430    124.6556   1.0522620086e+02   4.9110912049e+01    0.2416877     0.124958  45.91  0.001198168    1.802    0.445
       108  -9.5147     58.5122    124.5246   8.6706346115e+01   4.3933182184e+01    0.1425274    0.1344773  77.25 0.0004491154    1.007    0.007
       109  -9.3889    116.5193     17.4976   3.2910210500e+01   5.3681758304e+01    0.1433887     0.137629 -85.59 0.0002405883    1.028    0.027
