#   1 NUMBER                 Running object number                                     
#   2 MAG_AUTO               Kron-like elliptical aperture magnitude                    [mag]
#   3 X_IMAGE                Object position along x                                    [pixel]
#   4 Y_IMAGE                Object position along y                                    [pixel]
#   5 X_WORLD                Barycenter position along world x axis                     [deg]
#   6 Y_WORLD                Barycenter position along world y axis                     [deg]
#   7 A_WORLD                Profile RMS along major axis (world units)                 [deg]
#   8 B_WORLD                Profile RMS along minor axis (world units)                 [deg]
#   9 THETA_WORLD            Position angle (CCW/world-x)                               [deg]
#  10 FWHM_WORLD             FWHM assuming a gaussian core                              [deg]
#  11 ELONGATION             A_IMAGE/B_IMAGE                                           
#  12 ELLIPTICITY            1 - B_IMAGE/A_IMAGE                                       
         1 -13.7103    199.0145     61.5870   4.2249626913e+01   2.7929875123e+01      5.83037     1.975444 -32.13   0.02027529    3.763    0.734
         2 -14.0943    232.2251     42.5670   3.4405403443e+01   2.3678520648e+01     2.519792     1.668933  -4.36   0.01025081    4.080    0.755
         3 -14.9696    245.2898     75.3622   3.9634938663e+01   1.6463063512e+01     3.259528     1.717298  46.76   0.01639249    2.734    0.634
         4 -15.1377    245.1119     34.6232   3.1762050520e+01   2.2220501507e+01     13.46407     1.639988 -35.47   0.03209398   10.602    0.906
         5 -13.5359    220.5943     25.3351   3.1960214436e+01   2.8219632375e+01      2.32172     1.468695 -13.56   0.01189699    3.068    0.674
         6 -11.6144      3.8212     37.5862   9.3942526976e+01   6.8765694006e+01     1.018285    0.4877648 -58.89  0.005329105    2.256    0.557
         7 -10.6068    141.5957     40.3904   4.5818221659e+01   4.4220310067e+01    0.3688582    0.2264193 -45.95  0.001849285    1.740    0.425
         8  -9.8645    201.0072     29.0848   3.4605511440e+01   3.1923551483e+01    0.4703066    0.2763731 -16.80  0.002262825    2.942    0.660
         9  -9.3764    203.2222     18.7380   3.2117907149e+01   3.2654705831e+01    0.3376738    0.2438263  66.81  0.002161071    1.402    0.286
        10  -9.0663    142.0732     15.6285   3.8546839198e+01   4.6927258933e+01    0.3710908    0.1935654 -13.78  0.001717112    2.902    0.655
        11  -8.5054    200.8065     12.4220   3.0968289380e+01   3.3870076050e+01    0.2384486    0.1692794  45.35    0.0014549    1.942    0.485
        12  -8.4535    116.4825     12.4974   4.1905242562e+01   5.3173354023e+01    0.2521296    0.1907892  87.10  0.001504959    1.410    0.291
        13 -10.0093    120.2949      9.2959   4.0174391376e+01   5.2582869015e+01    0.4622146    0.2941571  63.89  0.001764938    1.313    0.238
        14 -10.9538    246.2272      2.9984   2.5913088142e+01   2.5715486000e+01    0.4711827    0.2209997  70.48  0.002081319    2.086    0.521
        15  -8.4016    205.1363      4.1357   2.8852222398e+01   3.3803435254e+01    0.2144091    0.1407379 -81.84  0.001374963    1.262    0.207
        16  -9.0290     24.3975    199.8820   1.1399089800e+02   2.8654300000e+01    0.2033785    0.1900285  65.99 0.0003864614    1.172    0.147
        17  -8.3698    249.9735    250.2406   7.1728154056e+01  -1.2214480517e+01    0.1385599   0.08068866  22.82 0.0008844269    1.616    0.381
        18  -9.3538    192.3725    194.2410   7.2679981229e+01   4.3733309797e+00    0.7844406    0.3903984 -61.99  0.002415292    5.142    0.806
        19 -12.3501    249.4374     43.8654   3.3152051273e+01   2.0204928092e+01    0.3706774    0.2146026 -42.56 0.0006170538    1.525    0.344
        20  -7.4577     91.1648    191.5826   9.6171024122e+01   2.2055444016e+01    0.1821807    0.1410861  19.79 0.0003157037    1.459    0.314
        21  -8.4965    234.3184    187.3154   6.3459405303e+01  -7.7376858828e-01    0.1327863   0.08826915 -11.32  0.000424585    1.652    0.395
        22  -8.8016     27.1302    184.1348   1.1187930153e+02   3.2236581706e+01    0.1910103    0.1815399  66.00 0.0003077669    1.161    0.139
        23  -7.5979    157.3344    181.0529   7.7767936568e+01   1.3102033281e+01    0.2562264    0.1590521  69.60 0.0009033073    3.303    0.697
        24 -10.6341    222.6953    177.0194   6.3520365703e+01   2.7532536279e+00    0.4908842    0.3682568  47.25  0.002482071    1.650    0.394
        25  -9.8275    226.9151    172.7626   6.1944373212e+01   2.8645796822e+00    0.3201507    0.2483578  53.65    0.0018411    1.713    0.416
        26  -7.6958    123.4388    175.1821   8.4931124703e+01   2.0597651573e+01    0.1982283    0.1488891 -68.25 0.0003818695    1.505    0.336
        27 -10.0069    230.3877    166.8451   6.0186257858e+01   3.3836793402e+00    0.3122999    0.2121419 -60.37  0.001116053    1.985    0.496
        28  -9.6931    171.5252    154.5534   6.9022803214e+01   1.6191976751e+01    0.2709358     0.258122 -22.20 0.0002895721    1.019    0.019
        29 -11.6717      8.6922    148.9858   1.1328212631e+02   4.2744314893e+01    0.9250607    0.5733306 -81.81  0.004278251    1.420    0.296
        30 -10.9494     14.0095    147.7686   1.1160804246e+02   4.2653731643e+01    0.7592337    0.3260587 -83.07  0.002895087    2.409    0.585
        31  -8.6842    204.5141    152.6476   6.1895326096e+01   1.0380060408e+01    0.4416112    0.2743324 -79.48  0.001451636    4.619    0.783
        32  -8.6229    192.1942    152.5157   6.4247107181e+01   1.2669905482e+01    0.3659296     0.194842 -58.78  0.001398517    2.597    0.615
        33  -8.7662    114.9888    150.0871   8.2071501238e+01   2.8251346429e+01    0.2231637    0.2163188 -29.92            0    1.046    0.044
        34  -8.7515    133.6732    148.2065   7.6668519381e+01   2.5103455194e+01    0.4181812    0.1908781 -56.89  0.001430624    2.544    0.607
        35 -11.3998     67.3239    137.1753   9.3488656111e+01   3.9548342557e+01     2.054066    0.9810234 -65.96  0.007797318    2.245    0.555
        36 -11.6592     48.5765    137.3490   9.9473913036e+01   4.1970353099e+01    0.9262368    0.8423283 -57.65  0.003421663    1.036    0.034
        37 -11.0901     56.6303    136.1405   9.6683914675e+01   4.1280350943e+01    0.7874646    0.4335536 -66.54  0.002052415    1.793    0.442
        38  -8.8862    177.0260    151.7075   6.7205287439e+01   1.5730323119e+01    0.2018571    0.1968342  12.51 0.0004582463    1.069    0.064
        39 -13.1629    171.1403     91.9183   5.4218340322e+01   2.9086173728e+01     2.440149     1.431724  42.24   0.01065177    1.960    0.490
        40  -7.8424    193.8246    141.5402   6.1537591715e+01   1.4570677268e+01    0.1924188    0.1415836  62.46 0.0007400748    1.684    0.406
        41  -7.4547     78.2514    139.6570   9.0584896620e+01   3.7266357112e+01    0.1519898      0.11708  83.70 0.0002494473    1.577    0.366
        42  -9.6442    209.7098    137.2527   5.7665532805e+01   1.2402299901e+01    0.3807231    0.3270091 -26.15  0.001497143    1.160    0.138
        43  -9.7135    221.0541    134.7645   5.5205974792e+01   1.0799259153e+01    0.4797986    0.2218105 -49.64  0.002033785    2.107    0.525
        44  -9.9418    197.8731    133.4055   5.8969072530e+01   1.5401389885e+01    0.3997349    0.3025652 -62.13  0.001592239    1.458    0.314
        45  -9.8347    197.4762    129.0098   5.8062799298e+01   1.6341596113e+01      0.33292    0.2736734 -54.56  0.001443451    1.180    0.153
        46  -9.8312    188.6147    129.7873   5.9918490064e+01   1.7957439893e+01    0.4746333    0.3401071 -85.81  0.002129843    2.095    0.523
        47  -8.9996    226.6710    131.0103   5.3516864288e+01   1.0484966207e+01    0.2249082    0.1697582  29.68 0.0007089705    1.671    0.402
        48  -8.2493    230.2793    135.7979   5.3942601477e+01   8.9903657516e+00    0.2156207    0.1493386 -57.21 0.0009005696    1.529    0.346
        49  -8.1302    160.3997    128.7741   6.5620549522e+01   2.4017467742e+01    0.2180266    0.1430918 -36.70 0.0008387035    1.563    0.360
        50  -9.1120    184.0292    124.1497   5.9519753102e+01   2.0026675655e+01    0.4324999    0.2949147   8.81  0.001765873    2.581    0.613
        51  -8.1393    169.7002    128.3484   6.3461339211e+01   2.2150966659e+01    0.1559523    0.1190594 -77.86 0.0007037313    1.687    0.407
        52 -10.4540     40.4598    140.0307   1.0249509254e+02   4.2197946754e+01    0.4095771    0.3179502   9.44 0.0007149495    1.532    0.347
        53  -8.5644    216.7341    118.1410   5.2355303029e+01   1.4655274370e+01    0.2578714    0.2233299   3.09  0.001014247    1.456    0.313
        54  -8.4577     64.9541    116.9899   8.9961489454e+01   4.5014545838e+01     0.216819    0.1989989 -34.60            0    1.060    0.056
        55 -10.7611    142.2160     98.3019   6.2137156152e+01   3.4393180754e+01    0.7163377    0.4146849  52.48  0.002142416    1.765    0.433
        56 -10.8699    134.3205    103.8947   6.5587127917e+01   3.4993728890e+01    0.8658162    0.4260282 -49.67  0.003070301    2.112    0.527
        57 -10.2234    116.9737    105.5661   7.0679497403e+01   3.8358629023e+01    0.6425832    0.2310217 -53.69  0.001894742    3.564    0.719
        58  -9.6774    206.3656    109.9295   5.2224939558e+01   1.8191989917e+01    0.2872836    0.2849148 -71.44  0.001084124    1.133    0.118
        59  -9.1267    209.0000    107.0200   5.1146197140e+01   1.8193638737e+01    0.3277803    0.1486808 -49.64  0.001349608    2.107    0.525
        60  -8.0451    196.9587    111.3146   5.4138836740e+01   1.9851963086e+01    0.1957004    0.1869231 -63.30 0.0005857235    1.057    0.054
        61  -9.0069    178.9989    108.6760   5.6837456209e+01   2.4159615447e+01    0.4052748     0.243457 -29.29  0.001303519    2.008    0.502
        62  -9.3147    147.8059    106.7689   6.3047538933e+01   3.1415369995e+01    0.3433073    0.2491054  17.23 0.0009947761    1.959    0.489
        63  -7.4589     99.3978    107.5613   7.6388806022e+01   4.1443425216e+01    0.3323437    0.1410384  24.78 0.0008066536    5.617    0.822
        64 -10.8776    125.7994    104.6169   6.8002712243e+01   3.6692595296e+01    0.6435732    0.2875117  46.57  0.002347058    2.258    0.557
        65 -13.9623    247.5080     65.0947   3.7391800390e+01   1.7590752619e+01      1.64556    0.8318697  70.25  0.001787107    2.230    0.552
        66 -10.1542     83.5011     99.5486   7.9297257804e+01   4.6202114618e+01    0.2632989    0.2529827 -18.45 0.0002465681    1.006    0.006
        67  -8.7675    132.2689     96.3102   6.4048535312e+01   3.7015952466e+01     0.266529    0.2172752 -47.62 0.0007013813    1.231    0.187
        68 -10.0736    183.3786     78.8644   4.8747711962e+01   2.8640728717e+01    0.4265071    0.3881197  36.05  0.002455452    1.316    0.240
        69  -9.8291    181.3715     73.0979   4.7656134470e+01   3.0056650859e+01    0.4389518    0.3340667 -13.94  0.002225379    1.844    0.458
        70  -8.7929    133.1329     80.2186   5.9301250252e+01   3.9943353601e+01     0.266635    0.1844002 -66.96 0.0004431187    1.873    0.466
        71  -8.2678    152.9718     78.7377   5.4412260046e+01   3.5637989543e+01     0.200302    0.1886163  89.20 0.0004127792    1.024    0.023
        72  -9.2664    172.3725    232.5741   8.3619655864e+01   3.8821970943e-01    0.2727751    0.2123272 -19.77 0.0004195473    1.289    0.224
        73  -9.4481    168.9851     68.5313   4.8608729877e+01   3.3644403543e+01    0.3707082    0.1923384 -42.76  0.001156457    1.886    0.470
        74  -9.4391    172.7791     65.6222   4.7202217921e+01   3.3231715512e+01    0.2804559    0.1857631  66.81  0.001152254    1.497    0.332
        75  -9.8881    136.3877     67.3982   5.4819100404e+01   4.1443240519e+01    0.5284198    0.1431331 -36.69  0.001587511    3.966    0.748
        76  -8.0171    159.1389     69.6249   5.0708441855e+01   3.5758211381e+01    0.2031757    0.1252669  48.08 0.0007301037    1.676    0.403
        77  -7.8637    130.7086     67.3801   5.6126481529e+01   4.2760089357e+01    0.1509355    0.1113562 -73.78 0.0001165103    1.744    0.427
        78  -9.4604    186.3447     62.9546   4.4377321293e+01   3.0544213479e+01    0.4498467    0.2243227 -27.69  0.000903657    2.694    0.629
        79  -9.7046    163.2205     62.3803   4.8012633984e+01   3.5965505829e+01    0.4463322    0.1705732 -39.40  0.001713587    2.582    0.613
        80 -10.9707    154.9639     55.4813   4.7634897410e+01   3.8956936977e+01    0.4997312     0.362154  34.12  0.001959832    1.728    0.421
        81 -11.6310    162.9167     51.0530   4.5042780841e+01   3.7728514244e+01    0.7770602    0.4000402 -45.24  0.003557774    1.956    0.489
        82 -10.9991    157.4078     49.0168   4.5426325930e+01   3.9314450597e+01    0.6131185    0.3483283 -34.22  0.002924282    1.900    0.474
        83 -10.2107    148.9835     52.0084   4.7775489694e+01   4.0878230758e+01    0.3081346    0.2413669 -38.48  0.000455103    1.358    0.264
        84 -11.4480    152.4921     47.9097   4.5981642536e+01   4.0630641802e+01    0.6231064    0.4021976 -33.30  0.002740957    1.698    0.411
        85  -7.4401    117.2820     56.3555   5.6012648089e+01   4.7609830851e+01     0.143343    0.1083969  15.89 0.0007016326    1.663    0.398
        86  -9.9600    171.4766     54.4752   4.4546470330e+01   3.5231481104e+01    0.2731981    0.1847157 -64.93  0.001224151    1.578    0.366
        87  -8.6708    173.5664    227.9701   8.2618288713e+01   1.0317644311e+00    0.2165147    0.1630303  14.73   0.00122857    1.250    0.200
        88  -8.4960    137.6397     50.6917   4.9627143492e+01   4.3744388377e+01    0.1453674    0.1031117  31.12 0.0007040677    1.737    0.424
        89 -11.6056      9.6881     42.0275   9.2327148184e+01   6.7531691417e+01    0.7061127    0.3359025 -42.04  0.003812826    1.712    0.416
        90  -7.8154    201.1465    225.8093   7.6610046088e+01  -2.6121134726e+00    0.1768416    0.1300429  -6.65 0.0004033696    1.291    0.225
        91  -9.2710    117.5313     44.4078   5.2119592934e+01   4.9300171965e+01    0.2400662    0.2292115  -2.95 9.895973e-05    1.140    0.123
        92 -10.1565    138.5273     45.1680   4.7812037319e+01   4.4309051812e+01     0.353902    0.1718553  55.95  0.001563579    1.854    0.461
        93 -10.2316    140.3652    220.9910   8.8796111769e+01   7.5374045844e+00    0.2647934    0.2433382 -41.78 0.0004352982    1.175    0.149
        94  -9.9595    194.9869     37.5534   3.7186265038e+01   3.2189731699e+01    0.6061614     0.373887 -46.11  0.003364327    1.529    0.346
        95  -8.9526    189.5840     37.1596   3.7735902039e+01   3.3449150685e+01    0.2235111    0.1611913  63.30 0.0008364063    1.375    0.273
        96 -10.2065    134.5197     35.4365   4.5681929540e+01   4.6516081806e+01    0.4104128    0.2541121  24.82  0.001868678    2.459    0.593
        97  -8.5425     92.0870    215.0383   9.9299721842e+01   1.6391195471e+01     0.197931    0.1870849  56.15  0.001184626    1.038    0.036
        98 -10.8777    187.6610     45.4075   3.9943058498e+01   3.2792167507e+01     0.524431    0.3350149 -51.82  0.002833052    1.485    0.326
        99  -7.7519    112.4410     29.4490   4.8371559719e+01   5.2350923741e+01    0.1320353    0.1170674  54.71 0.0001387674    1.011    0.011
       100  -8.1505    184.7657     28.0163   3.6138701368e+01   3.5667370469e+01    0.1745686    0.1517719 -69.46 0.0004021336    1.103    0.094
       101  -9.0860    207.7379     25.3487   3.3122994095e+01   3.0917880448e+01    0.2094133    0.1955631 -57.83 0.0008422637    1.300    0.231
       102  -8.2164    160.4852     25.9799   3.8727126489e+01   4.1510100760e+01    0.1943802    0.1568289  77.82 0.0004247508    1.080    0.074
       103  -8.4818    139.6795     23.1647   4.1110108954e+01   4.6714430432e+01    0.3255471    0.1685456 -16.91  0.001468802    2.797    0.642
       104  -8.6733    163.1860    207.0820   8.1304138746e+01   6.6382632712e+00    0.1984754    0.1884614   7.25 0.0003744926    1.071    0.067
       105  -9.5394    183.0963    243.0694   8.3066690259e+01  -2.9439237636e+00    0.3031718    0.2490092  60.55  0.001818031    1.861    0.463
       106  -7.7893    162.6949     13.9701   3.5290147296e+01   4.2278451588e+01    0.1608806    0.1414614 -69.88 0.0003636366    1.144    0.126
       107 -10.3084    203.8952    237.3768   7.8010526577e+01  -4.8700935675e+00    0.2155934    0.1820241  -1.24  0.000259202    1.070    0.065
       108  -9.1560    171.1112    237.1484   8.4613176154e+01  -2.2933718162e-01    0.2410782    0.1975912  38.18 0.0003754852    1.294    0.227
       109 -12.5170    250.2496     55.5210   3.5288891048e+01   1.8459835843e+01    0.4261013    0.2493071 -37.00 0.0006910876    1.701    0.412
       110  -7.7500    148.8104    203.9298   8.4011511490e+01   9.6789384939e+00    0.1889521    0.1100387 -47.76 0.0008462418    1.771    0.435
