#   1 NUMBER                 Running object number                                     
#   2 MAG_AUTO               Kron-like elliptical aperture magnitude                    [mag]
#   3 X_IMAGE                Object position along x                                    [pixel]
#   4 Y_IMAGE                Object position along y                                    [pixel]
#   5 X_WORLD                Barycenter position along world x axis                     [deg]
#   6 Y_WORLD                Barycenter position along world y axis                     [deg]
#   7 A_WORLD                Profile RMS along major axis (world units)                 [deg]
#   8 B_WORLD                Profile RMS along minor axis (world units)                 [deg]
#   9 THETA_WORLD            Position angle (CCW/world-x)                               [deg]
#  10 FWHM_WORLD             FWHM assuming a gaussian core                              [deg]
#  11 ELONGATION             A_IMAGE/B_IMAGE                                           
#  12 ELLIPTICITY            1 - B_IMAGE/A_IMAGE                                       
         1 -14.1648     69.1678    144.3593   7.3059727684e+01   3.7299121471e+01     3.237701     1.614012  78.58  0.008935597    4.507    0.778
         2 -13.1251    209.9066     51.0421   1.6796576582e+01   2.6019210672e+01     1.002679    0.9120958  30.72  0.004291697    1.273    0.215
         3 -13.2644    222.1421     42.1229   1.3284758127e+01   2.4475041934e+01    0.8128422    0.7038765  31.46  0.002292276    1.417    0.294
         4 -11.7072      2.5709     24.4507   7.7298792361e+01   7.2613607489e+01    0.5908483    0.1548235 -61.36  0.002402444    2.898    0.655
         5 -12.1770    248.2961     19.3874   6.0357086211e+00   2.1694769840e+01    0.7786428    0.3791302 -30.17  0.004296806    1.823    0.451
         6 -11.5747      2.6883      8.8975   7.1389348906e+01   7.5827103663e+01    0.8118384    0.1755703 -61.99  0.002744773    4.811    0.792
         7  -8.6996    158.3003      8.6870   1.1133438115e+01   4.3372584822e+01    0.1433641   0.09327466 -63.44 0.0003685643    1.608    0.378
         8  -9.3527     32.6857      4.6803   4.6216411569e+01   7.3304474410e+01     0.132655   0.08774081   2.03 0.0004303687    1.653    0.395
         9  -9.8623     59.9633      2.0000   3.0369431227e+01   6.8586290447e+01    0.2213533   0.06856163  54.23 0.0008036164    2.951    0.661
        10 -10.9414    143.4657    228.4675   6.6315356900e+01   9.7021220031e+00    0.3419052    0.2405243 -85.87  0.001693604    3.012    0.668
        11 -10.4120     71.0202    241.4800   8.2903017670e+01   1.7088868476e+01    0.2366111    0.1876439  38.33 0.0006386445    1.079    0.073
        12 -10.6893     74.8815    248.4709   8.2617652796e+01   1.5485294691e+01    0.2829868    0.2538235 -12.71  0.002060603    1.501    0.334
        13 -11.2914     74.6131    244.1154   8.2352646208e+01   1.6226707747e+01    0.4230216    0.3020693   5.14  0.002080403    1.889    0.471
        14 -15.4363      9.6713    148.8090   9.1320492016e+01   4.2405463916e+01     7.775778     1.607377 -83.87  0.007692282    5.513    0.819
        15 -13.6102      1.9554    247.9978   9.6917861737e+01   2.2968791058e+01    0.2951819     0.147507  81.71 0.0009145406    1.937    0.484
        16 -11.8657     98.3162    227.3126   7.5839244516e+01   1.6082687988e+01    0.5469021     0.253672  37.45  0.002842566    1.654    0.395
        17 -14.5570     43.1904    176.5463   8.4216203978e+01   3.3003802017e+01     5.172867    0.6157648  41.22  0.006198632    4.497    0.778
        18  -9.5840    167.3745    224.2181   6.0869236249e+01   6.9725352759e+00     0.139759    0.1176492 -47.31 0.0009423767    1.643    0.391
        19  -9.6338    142.0866    215.3058   6.4869966351e+01   1.1952143829e+01    0.2677592    0.1607051 -51.64  0.001271681    2.116    0.527
        20  -9.2987     91.9948    213.5197   7.5828151967e+01   1.9376854214e+01    0.1751533    0.1623363  58.91 0.0005303855    1.170    0.145
        21  -8.9586    168.2864    207.4147   5.8208914838e+01   9.3102884726e+00    0.1938789       0.1127 -42.84  0.001046852    2.017    0.504
        22  -9.7399    130.6718    206.6259   6.6180589120e+01   1.5089600155e+01    0.2300415    0.1883657  38.69 0.0005217252    1.135    0.119
        23 -11.2477    128.2922    197.6609   6.5456106874e+01   1.7034038933e+01    0.3376274    0.2528293 -73.44 0.0008181733    1.900    0.474
        24 -11.0888    116.5296    196.0391   6.7969365574e+01   1.9128710779e+01    0.3490587    0.1478793  47.14   0.00143702    2.457    0.593
        25 -10.3791    104.9988    196.1485   7.0729544660e+01   2.0828723836e+01    0.2086418    0.1977009 -67.14  0.000618407    1.240    0.193
        26 -10.5278    134.1924    195.7469   6.3821671124e+01   1.6463934201e+01    0.2354296     0.208088  27.72  0.001111699    1.061    0.058
        27  -9.8792    191.0630    191.2835   5.1007581973e+01   8.2901123712e+00    0.2937194    0.1773583 -62.79  0.001096434    5.186    0.807
        28 -11.2354     82.1423    194.3858   7.6077353297e+01   2.4410742178e+01    0.4993566    0.3971675  83.42  0.001961958    1.418    0.295
        29 -10.5491     77.0766    184.0755   7.6165124414e+01   2.7233078210e+01     0.480047    0.2646544  71.64   0.00209546    2.622    0.619
        30 -10.6593     99.0200    180.9373   7.0152594982e+01   2.4756318266e+01    0.2963099    0.2601591  35.43 0.0007472214    1.026    0.025
        31  -8.8878    128.3372    181.3243   6.2958648501e+01   2.0064461093e+01    0.1412061    0.1025676  -0.68 0.0007051182    1.719    0.418
        32  -9.6626    115.1874    180.7754   6.6075122693e+01   2.2287249257e+01    0.2370708    0.1385383  65.10 0.0009611663    2.857    0.650
        33  -9.7118    172.5103    177.6254   5.2345555781e+01   1.3384154221e+01    0.2359596    0.2046425   7.82 0.0009675792    1.039    0.038
        34  -9.5117     92.1357    176.8959   7.1358354472e+01   2.6629313308e+01    0.2161996    0.1688619  59.81 0.0007566179    1.322    0.243
        35  -9.6592    125.7639    176.2803   6.2762755073e+01   2.1462564052e+01    0.2096193    0.1055838 -39.88 0.0008922706    2.378    0.579
        36 -10.5058    180.2987    173.4581   4.9964666380e+01   1.2771195371e+01    0.3600391    0.2106122  23.19  0.001758151    1.761    0.432
        37 -10.5464    179.6837    168.0750   4.9077779713e+01   1.3756534459e+01    0.3814188    0.2775361 -73.76  0.001772052    2.844    0.648
        38  -9.7937    199.2389    172.4191   4.6039314425e+01   9.8291555199e+00    0.3368425    0.1633894 -50.13  0.001399603    3.272    0.694
        39 -12.4650     73.6461    165.7227   7.4797387367e+01   3.1718724427e+01     1.647955    0.8741314  25.63   0.00744276    1.945    0.486
        40 -12.5733     74.6411    153.0494   7.2746119076e+01   3.4486546664e+01    0.8817464    0.6729364  68.27 0.0004559163    1.408    0.290
        41 -12.0087     60.3568    164.2238   7.8298731900e+01   3.3800129743e+01     0.614957     0.379499  -9.66  0.002641495    2.857    0.650
        42 -12.0741     65.2497    160.0778   7.6410772431e+01   3.4131066084e+01    0.6523914    0.5056633 -36.07  0.001851421    1.568    0.362
        43 -12.9323     62.2323    147.7428   7.5640589071e+01   3.7420141981e+01    0.7285222     0.659822  13.54  0.002085531    1.212    0.175
        44 -10.5900     61.5834    246.0386   8.5159943651e+01   1.7416087280e+01     0.247941    0.1977644  82.64  0.001343653    1.422    0.297
        45 -10.8505    247.1284    163.9839   3.6326756855e+01   3.7772547535e+00    0.4703622    0.1755845 -37.33  0.002225608    2.554    0.609
        46  -8.6276    110.4463    166.5444   6.5019436237e+01   2.5963516176e+01    0.1423789    0.1272498  40.42 0.0001147109    1.039    0.038
        47 -10.5243     53.7170    160.3597   7.9719078497e+01   3.5501165326e+01    0.3527139    0.2204316  81.59 0.0005523485    1.830    0.453
        48  -9.5745     48.9815    155.9201   8.0574001472e+01   3.7091375755e+01    0.2039488    0.1828781  72.28  0.001252722    1.044    0.042
        49 -11.8868     82.5930    147.3024   6.9530937431e+01   3.4660826092e+01    0.7099472    0.5292973 -29.55  0.001580545    1.666    0.400
        50 -10.2990     82.3166    140.6466   6.8488290029e+01   3.6261194368e+01    0.2615651    0.2115501  62.85 0.0009940566    1.300    0.231
        51 -10.9940     45.5669    148.5873   8.0744197254e+01   3.9217675840e+01    0.3834742    0.2484587 -28.64  0.001335231    2.158    0.537
        52 -10.2865    134.2241    147.0205   5.5292043195e+01   2.5851047496e+01    0.5911725    0.2084292 -51.67  0.001982308    3.352    0.702
        53  -9.5502    133.0000    140.4910   5.4251568177e+01   2.7421257700e+01    0.5405844    0.1529895 -51.08  0.001571568    4.265    0.766
        54 -10.1162     29.7028    142.5378   8.4894879124e+01   4.2280626850e+01    0.3961523    0.1298601  37.20  0.001604946    2.610    0.617
        55  -9.6193     44.8647    141.8334   8.0156696225e+01   4.0925281638e+01    0.1950909    0.1459271  63.32 0.0004634029    1.322    0.244
        56  -8.7950     70.2536    173.3995   7.6686581418e+01   3.0458417086e+01    0.1994847    0.1064535  41.42 0.0009440506    1.639    0.390
        57 -10.5253     98.6810    134.8695   6.2539647804e+01   3.4934499804e+01      0.53592     0.336931   0.37  0.002013109    2.897    0.655
        58 -11.5860     85.2124    133.7543   6.6366171927e+01   3.7433354086e+01    0.2883512    0.2742232 -14.77 0.0004512709    1.135    0.119
        59 -11.0063     44.0099    129.4791   7.8835254383e+01   4.4050737688e+01    0.4547467    0.2088944 -83.13  0.001769129    2.727    0.633
        60  -9.7552    105.8212    130.2967   5.9513941271e+01   3.4712014341e+01    0.3107431     0.290515  66.86  0.001290602    1.126    0.112
        61  -9.4186    109.0464    126.9857   5.7865889064e+01   3.4864606263e+01    0.2904559    0.2361015  -1.94 0.0008910432    1.477    0.323
        62  -8.3824    148.7657    129.0116   4.7795595202e+01   2.6635854676e+01    0.1841159    0.1245605 -41.78 0.0003669798    1.534    0.348
        63 -10.8847     95.5596    122.8277   6.0983425626e+01   3.8259612113e+01    0.3215899    0.2768759   3.22 0.0006598624    1.308    0.236
        64  -8.8208    115.3132    123.3180   5.5248356751e+01   3.4491087190e+01    0.1542332    0.1193838  -4.48  0.000703657    1.647    0.393
        65 -10.2195     32.5093    118.0940   8.1198758933e+01   4.8051287201e+01     0.250191    0.2315017  66.88 0.0007258491    1.059    0.056
        66  -8.9693    105.9553    116.7730   5.6461443644e+01   3.7743353556e+01     0.204365    0.1860061  39.81 0.0002370088    1.057    0.054
        67  -8.4792    183.4814    116.5207   3.7288038435e+01   2.1811701757e+01    0.1428497    0.1320805   0.17 0.0001640605    1.028    0.027
        68 -15.9667     30.0295    183.6531   8.8147917596e+01   3.2784389844e+01     7.644759     2.619244  60.36   0.02304422    3.340    0.701
        69  -9.7911    205.1819    110.2484   3.1878705994e+01   1.8470925215e+01    0.2755753    0.2142183  48.27 0.0009520733    1.376    0.274
        70  -8.8442     75.8968    111.1678   6.4817280772e+01   4.4323962618e+01    0.2206878    0.1891604  64.35 0.0004023405    1.250    0.200
        71  -8.9508     34.0217    107.4716   7.9150690472e+01   5.0574113601e+01    0.1971643    0.1347762  22.11 0.0004477033    1.558    0.358
        72 -10.6494    103.0986    170.7965   6.7611513688e+01   2.6247981854e+01    0.3172372    0.1666007  44.13  0.001385705    1.765    0.434
        73 -10.0579     24.0149    104.9811   8.2523303134e+01   5.2074031557e+01    0.2039999    0.1901645 -83.24 0.0007375536    1.016    0.016
        74  -9.5637    127.8711    102.7741   4.6666651739e+01   3.6318584495e+01    0.2060377    0.1837354 -86.86 0.0005809756    1.320    0.243
        75 -11.6893     20.3292     92.2004   8.2164488382e+01   5.5558242016e+01    0.4175362    0.3656064  59.90  0.002573605    1.201    0.167
        76 -10.2219     45.9451     91.0087   7.1551494131e+01   5.3428446373e+01    0.2192743    0.2070545  66.72  0.001288574    1.110    0.099
        77  -8.6448     81.4945     85.4766   5.6447857421e+01   4.9436007034e+01    0.1491046    0.1446441  59.34 0.0008089571    1.079    0.074
        78  -9.4660     19.5255     65.5055   7.7821774699e+01   6.2196906873e+01     0.131277    0.1182057 -51.37 7.428437e-05    1.011    0.011
        79 -12.2088    199.1602     58.3779   2.0031555994e+01   2.7451708260e+01    0.6438935     0.476887  37.10  0.001885364    1.586    0.370
        80 -10.3971    119.0967    242.0079   7.2939731841e+01   1.0958343883e+01    0.2781339    0.1737059 -56.10   0.00112169    2.122    0.529
        81  -8.7013     83.4393     61.5040   4.8158645622e+01   5.4235685716e+01    0.1491793    0.1404737   7.25 5.222307e-05    1.034    0.033
        82  -9.9232     63.3384     57.9135   5.4951863897e+01   5.8680436999e+01    0.3883349    0.2387875  58.76  0.001355589    2.429    0.588
        83 -13.6335      3.3100    177.1764   9.4447192059e+01   3.6453734571e+01     1.138099    0.5099087  82.20  0.003893872    2.107    0.525
        84 -10.3315    111.7434    240.7377   7.4332554020e+01   1.2119545743e+01    0.1983671    0.1900912  33.36 0.0004694487    1.257    0.205
        85 -14.9817      7.9359    207.1599   9.4526937406e+01   2.9889815082e+01     1.467949    0.8710852   8.38  0.006683531    2.339    0.572
        86 -10.1066     20.7162     36.4310   6.9314314084e+01   6.8803436034e+01    0.2269036    0.1167669  25.21 0.0009906932    1.994    0.499
        87  -9.0095     90.1793    237.7858   7.8580361971e+01   1.5369138477e+01    0.1462317    0.1277599   7.76 0.0009242624    1.342    0.255
        88 -16.9488      7.7943    233.0677   9.5405692224e+01   2.5047387075e+01     4.021046     2.120179 -89.78   0.02632201    1.920    0.479
        89 -11.8072    125.9199    229.0202   7.0070070305e+01   1.2057283566e+01    0.3675932    0.3090093 -39.99  0.002538322    1.476    0.323
        90  -9.6008     60.2490     21.0118   4.0656254841e+01   6.6042586414e+01    0.2324658    0.1825903  36.01  0.000474677    1.183    0.155
        91  -8.7593    189.4961     15.4373   9.7233663686e+00   3.4898789964e+01    0.1321392    0.1160663 -74.62 0.0001459132    1.018    0.018
        92 -12.3118    133.5461    227.9840   6.8330993158e+01   1.1161693045e+01    0.6612695    0.4045124  47.16  0.003787282    1.669    0.401
        93 -10.8980    154.8825    229.9839   6.4169475457e+01   7.8880817549e+00    0.2701009    0.1982691 -44.19  0.001374575    1.732    0.423
        94 -11.8519    114.1082    229.2292   7.2618592113e+01   1.3642874375e+01    0.5475591    0.1947656  44.85  0.002367119    2.631    0.620
