#   1 NUMBER                 Running object number                                     
#   2 MAG_AUTO               Kron-like elliptical aperture magnitude                    [mag]
#   3 X_IMAGE                Object position along x                                    [pixel]
#   4 Y_IMAGE                Object position along y                                    [pixel]
#   5 X_WORLD                Barycenter position along world x axis                     [deg]
#   6 Y_WORLD                Barycenter position along world y axis                     [deg]
#   7 A_WORLD                Profile RMS along major axis (world units)                 [deg]
#   8 B_WORLD                Profile RMS along minor axis (world units)                 [deg]
#   9 THETA_WORLD            Position angle (CCW/world-x)                               [deg]
#  10 FWHM_WORLD             FWHM assuming a gaussian core                              [deg]
#  11 ELONGATION             A_IMAGE/B_IMAGE                                           
#  12 ELLIPTICITY            1 - B_IMAGE/A_IMAGE                                       
         1 -14.1065     54.5717    147.4808   1.0315780174e+02   3.8536152519e+01     5.751111     4.412718  80.19   0.03055874    1.386    0.278
         2 -14.0204    200.0519     43.0290   4.1592190852e+01   3.0356962146e+01     1.089129     1.027945 -51.30  0.003315877    1.208    0.172
         3 -14.5979    210.1132     33.3228   3.8169858119e+01   2.9374119677e+01     1.410117     1.147452  -2.00  0.001545091    1.874    0.466
         4 -13.0204      2.8506      9.9879   8.8819455495e+01   7.3060925280e+01     1.390436    0.2256246 -46.33  0.005341864    4.500    0.778
         5 -13.3421    236.6473      9.8385   3.0883004436e+01   2.6531724907e+01    0.6993505    0.5741123  59.21  0.004978258    1.573    0.364
         6 -12.9819    233.0256      4.2720   3.0044830787e+01   2.7871452575e+01    0.6210716    0.3722706  55.38  0.003740705    2.097    0.523
         7 -10.8061     60.3515      7.7695   5.9581437757e+01   6.5757374153e+01    0.1652959     0.133979  34.10  0.000430949    1.110    0.099
         8 -10.7945     49.7991      2.3904   6.1044516615e+01   6.8127327268e+01    0.1774604   0.08724906  36.99 0.0009589324    1.727    0.421
         9 -12.2067    193.9902    196.9713   7.7225952262e+01   3.9097971288e+00     1.412349    0.6698693 -54.67  0.005516174    3.091    0.676
        10 -15.2754     40.9964    194.5695   1.1263270111e+02   2.8535912726e+01     5.434137      2.09223  68.62   0.01364874    4.672    0.786
        11 -15.5023      9.9779    206.8030   1.2056010574e+02   2.8911660841e+01     1.068036     0.923031  -7.23  0.004486113    1.722    0.419
        12 -16.1509      2.5114    196.0589   1.2149130438e+02   3.1969170932e+01     11.10923          nan -72.41   0.02653642    8.663    0.885
        13  -9.8299     59.9902    192.4617   1.0782843893e+02   2.6721271106e+01    0.1977181    0.1663153 -87.69 0.0003597076    1.104    0.094
        14 -13.5761     55.0094    185.2380   1.0821096412e+02   2.9085880243e+01    0.7901353      0.72111 -61.98   0.00283139    1.199    0.166
        15  -9.8537     82.4656    194.8639   1.0261205495e+02   2.3036212666e+01    0.2687673    0.1921361  12.14  0.001319078    1.898    0.473
        16  -9.6171     21.2052    195.4326   1.1730300110e+02   3.0424896598e+01    0.2413489    0.1177999  46.75  0.001241069    1.868    0.465
        17  -8.7164    224.2576    206.6695   7.3157483366e+01  -2.4410545995e+00    0.1108506    0.1003209 -56.40 0.0002073508    1.563    0.360
        18  -9.0484     66.7797    193.8250   1.0632906320e+02   2.5498624755e+01    0.1883189    0.1400447  67.58 0.0003734422    1.311    0.237
        19 -10.3026    150.5131    192.5319   8.5835190543e+01   1.2270350173e+01    0.2605491    0.2483079  43.11 0.0008798674    1.076    0.071
        20 -11.5120    147.1418    187.4531   8.5695317057e+01   1.3943003094e+01    0.6280463    0.3588341 -69.45  0.002384535    2.919    0.657
        21 -10.6079    127.9654    191.9990   9.1045157302e+01   1.6336183894e+01    0.1725069    0.1695969  52.76 0.0004722695    1.037    0.036
        22 -11.6009    118.2713    190.3550   9.3117555592e+01   1.8366440516e+01    0.4083349    0.2362414 -73.50   0.00165689    2.451    0.592
        23 -10.2744     85.0790    186.0027   1.0071763124e+02   2.4739212379e+01    0.3511051    0.2544512  69.45 0.0009855983    1.491    0.330
        24  -9.6312     82.5296    182.4402   1.0084621269e+02   2.5976254303e+01    0.2478031    0.2160318  37.99 0.0001514102    1.176    0.149
        25  -9.9607     79.4781    181.9948   1.0156433103e+02   2.6536177043e+01    0.4324168     0.224207 -81.95  0.001663919    2.705    0.630
        26 -11.8412    122.4152    199.0283   9.3531270836e+01   1.5738208650e+01     0.369721      0.28014 -80.43  0.001310886    1.613    0.380
        27  -9.1544     76.2199    184.4597   1.0274740665e+02   2.6415588685e+01    0.1838161    0.1226947  49.48 0.0003419538    1.448    0.310
        28 -11.1547     99.4155    180.8763   9.6275651624e+01   2.3712346846e+01    0.3035624    0.2656013  27.50 0.0006858562    1.214    0.176
        29 -11.9440     41.4938    177.6027   1.1074331928e+02   3.2547045810e+01    0.7657633    0.4424945 -25.76  0.003124803    3.270    0.694
        30 -10.1677     47.5269    177.4884   1.0919100547e+02   3.1880998201e+01    0.2497555    0.1994323 -75.02 0.0008569706    1.154    0.134
        31  -9.3056     88.5167    178.5350   9.8710169665e+01   2.6007039918e+01    0.1979221    0.1437397  22.31 0.0001483618    1.601    0.375
        32  -9.9728     91.3690    176.3012   9.7614128986e+01   2.6101024170e+01    0.2351007    0.2089365 -59.90 0.0007412409    1.143    0.125
        33 -11.2892    186.5777    174.5013   7.4414324120e+01   9.4493842943e+00     0.399927    0.3552897 -68.60  0.001377231    1.374    0.272
        34 -13.4276    203.0810    200.2319   7.6010571613e+01   1.8554450219e+00     1.350044    0.5375188  22.18  0.003627053    6.494    0.846
        35 -15.3313     68.8893    144.3825   9.8434915853e+01   3.7428028465e+01     4.992694     2.295679  64.21   0.01048214    5.364    0.814
        36 -12.2202     68.8259    171.5497   1.0283464727e+02   3.0616110618e+01     0.426433    0.3090947 -28.92  0.001459949    1.856    0.461
        37 -12.3420     72.9609    166.8699   1.0102113950e+02   3.1196057922e+01    0.4621337    0.3556657 -63.85 0.0007315665    1.249    0.199
        38  -9.2075     84.2719    173.6715   9.9057700543e+01   2.7843348156e+01    0.1481535    0.1066004  74.21 0.0001993688    1.584    0.369
        39  -9.9455     34.7707    171.7336   1.1181693361e+02   3.4713346029e+01    0.2372561    0.1746462  70.96 0.0007256841    1.300    0.231
        40 -12.4132    240.8036    169.8947   6.3328175441e+01   1.1372812088e+00    0.2928751    0.2566387 -41.78  0.001257034    1.237    0.192
        41 -10.0760    192.9511    169.6782   7.2120574120e+01   9.2372284418e+00    0.1999391    0.1812058  26.44 0.0006782805    1.123    0.109
        42 -10.9197    230.6982    168.3832   6.4744674180e+01   2.9843416354e+00    0.4209329    0.1439545 -51.58  0.001192111    5.647    0.823
        43  -9.8562    110.8577    168.0113   9.1081763034e+01   2.4853687132e+01    0.2371267    0.1974825  79.54 0.0006026115    1.339    0.253
        44  -9.8697     80.4979    167.4900   9.9079730015e+01   2.9937066661e+01    0.1443701    0.1365518  88.50 0.0008105582    1.016    0.015
        45  -9.1390    120.4929    165.5060   8.8106353924e+01   2.3730911029e+01    0.1502633    0.1458656  67.97 2.831029e-05    1.021    0.020
        46 -14.2431     20.7010    220.9115   1.1922791593e+02   2.4791271670e+01    0.8072746    0.4755349  67.36  0.002374238    1.465    0.318
        47 -12.7632     81.6202    158.5030   9.7271430551e+01   3.2003536341e+01    0.9104195    0.6069697  71.65 0.0001340619    1.886    0.470
        48 -12.3433     88.8953    151.6353   9.3991893711e+01   3.2574231363e+01    0.7112108    0.4713529 -26.52  0.003036065    2.132    0.531
        49 -11.3455    134.3142    147.3296   8.0793431990e+01   2.5370851500e+01    0.8720933    0.2757041 -53.67  0.002532061    3.621    0.724
        50 -10.9145    133.0000    140.0278   7.9502716896e+01   2.7321566793e+01    0.4307785    0.2180031 -51.58  0.001441397    2.005    0.501
        51  -9.5935    111.5076    149.6746   8.7322646005e+01   2.9157206981e+01    0.3550068    0.2141964  67.68  0.001308996    2.625    0.619
        52 -10.2287    174.7838    148.9051   7.1545899707e+01   1.6903071590e+01    0.2749361    0.2096328 -63.50 0.0007736507    1.544    0.352
        53 -10.6588     38.1766    145.8802   1.0769401853e+02   4.0807422585e+01    0.3262366    0.2391021  56.89  0.001557727    1.440    0.305
        54 -11.0568    102.4762    138.2736   8.7426672295e+01   3.3563293732e+01    0.6312476    0.3901877 -19.10  0.002277002    2.925    0.658
        55 -11.0112    105.9675    131.1508   8.4846012425e+01   3.4655323005e+01    0.4377998    0.3216873 -56.10  0.001477478    1.356    0.262
        56 -12.4010     89.9681    137.5282   9.0888832120e+01   3.5907952467e+01    0.2948298    0.2575351 -38.34  0.000391318    1.189    0.159
        57 -12.5941     44.0810    129.8379   1.0344975300e+02   4.4220838479e+01    0.7111234     0.339671 -75.57  0.002867801    2.372    0.578
        58 -10.9898     39.8156    127.6091   1.0441913208e+02   4.5236834286e+01    0.2885609    0.1979116 -65.29 0.0007306051    1.296    0.229
        59 -11.7584     39.6321    124.3067   1.0392252027e+02   4.6082283492e+01    0.3312676    0.2351981  24.33  0.001070508    1.589    0.371
        60 -11.9570     28.9680    130.2909   1.0822704913e+02   4.5620823321e+01    0.4568706     0.339003 -48.44  0.002560199    1.306    0.234
        61 -11.2681    135.2975    128.5837   7.6235632245e+01   2.9476369531e+01    0.4966109     0.327315 -49.55   0.00194034    1.512    0.339
        62 -10.4677    111.8266    129.0160   8.2686522806e+01   3.4064617508e+01    0.3448683    0.2666827  11.01  0.001121923    1.632    0.387
        63 -10.0848    160.9902    128.2423   6.9890318088e+01   2.4130070386e+01    0.2988787    0.2029008 -59.68  0.001305371    1.682    0.405
        64 -11.0887     98.9844    124.8320   8.5422259213e+01   3.7451420948e+01    0.3247387    0.2682419  -4.94  0.001001758    1.468    0.319
        65 -11.2630    118.3280    123.1136   7.9455642084e+01   3.4183340963e+01    0.5128424    0.3553172   3.59  0.002050289    2.308    0.567
        66  -9.4832    163.4251    121.2503   6.7650213502e+01   2.5083713412e+01    0.2163059    0.1426607 -54.33 0.0008374092    1.603    0.376
        67 -10.0696    134.7341    120.4364   7.4388876371e+01   3.1426915936e+01    0.2956077    0.1346359 -45.84   0.00106765    2.175    0.540
        68 -10.1614     87.0733    120.0021   8.7902622397e+01   4.0692136538e+01    0.5262703    0.2997081 -73.66  0.001942696    2.675    0.626
        69 -12.2876     34.0413    118.9726   1.0482658191e+02   4.7967360699e+01    0.4023898    0.3303235 -38.11  0.001977768    1.242    0.195
        70 -12.9420     35.3188    109.8467   1.0276812025e+02   5.0089672910e+01    0.5684754    0.4557502  29.45  0.003315579    1.393    0.282
        71 -11.1910     45.0270    118.0003   1.0103508140e+02   4.7073235440e+01    0.2130138    0.1895094 -63.36 0.0003744221    1.030    0.029
        72 -10.6902    231.3185    113.7104   5.3300725648e+01   1.2480794255e+01     0.254615    0.2256885 -53.84 0.0007571036    1.065    0.061
        73 -10.1579    205.6664    110.2429   5.6653750795e+01   1.8192103549e+01    0.2443984    0.2310404  51.36 0.0005736841    1.153    0.133
        74 -11.2307    116.0278    108.8481   7.6493493610e+01   3.7899738402e+01    0.4610866    0.3727898  37.95  0.002270431    1.257    0.205
        75  -9.7488    134.6184    106.2032   7.0764524128e+01   3.4560892655e+01    0.3978393    0.1877952 -31.66  0.001304774    3.008    0.668
        76  -9.1467    137.5115    104.4672   6.9564929340e+01   3.4297302148e+01     0.152557    0.1505724 -84.98 0.0001225028    1.013    0.013
        77 -12.1561     42.1870    104.1012   9.9243467539e+01   5.0780928153e+01    0.4598488    0.3000733  45.94  0.001471331    1.789    0.441
        78  -9.6470     66.2114    104.4053   9.0975521875e+01   4.7692511774e+01     0.208868    0.1301996  43.83  0.000958532    1.767    0.434
        79 -10.9361     33.9612    100.1817   1.0135788270e+02   5.2554519412e+01    0.2311531    0.2012058  56.46  0.000721209    1.339    0.253
        80 -10.0653    107.9349    118.1486   8.1187900871e+01   3.7371593865e+01    0.2212249    0.2142056 -13.00 0.0003091094    1.059    0.056
        81  -9.4513    125.0477     92.7069   6.9604067480e+01   3.9463641125e+01    0.2083994    0.1990012  45.93 0.0004998264    1.042    0.040
        82 -13.7155     70.0120    153.2854   9.9651075675e+01   3.5021676256e+01    0.7131929    0.4639464 -54.98  0.001298172    1.470    0.320
        83 -17.8550     11.8892    242.4641   1.2218307119e+02   2.1235762261e+01     7.518676     2.987106  24.93   0.01845335    3.449    0.710
        84  -9.4012    154.4965     86.4893   6.0676229396e+01   3.4034388892e+01    0.1499257    0.1437737 -85.73 1.299059e-05    1.027    0.026
        85 -10.7304     65.1404    179.3683   1.0489286615e+02   2.9195655394e+01    0.3940804    0.3070483  80.83  0.001341724    1.274    0.215
        86  -9.1573     75.1902     85.3651   8.2851526141e+01   5.0643759795e+01    0.1890475     0.131404  44.91 0.0003305498    1.568    0.362
        87 -10.0072    158.7153     83.0528   5.8830933941e+01   3.3689146379e+01    0.2102318    0.1936574 -47.82 0.0005808404    1.090    0.083
        88  -9.5784    150.9781     82.9566   6.0488062439e+01   3.5506019418e+01    0.2304861    0.1773547 -79.79 0.0004879614    1.600    0.375
        89 -10.1850    112.7019     82.3691   7.0038503450e+01   4.4186737656e+01    0.3452081    0.2525025  81.77  0.001406125    2.047    0.512
        90  -8.9118    184.3659     77.2988   5.2391878118e+01   2.8740332615e+01    0.1435497    0.1127101  24.10 0.0007032787    1.727    0.421
        91 -10.8693     13.4999     59.9438   1.0032285385e+02   6.3245879975e+01    0.2357585    0.1860511 -46.09 0.0004191291    1.087    0.080
        92 -13.5642    189.1707     50.9939   4.4998343870e+01   3.1746223313e+01    0.9491145    0.7716704  41.73  0.000793063    1.483    0.326
        93 -15.4781     54.2434    236.8701   1.1349450587e+02   1.7616033633e+01     1.766725    0.7539372  27.21  0.005412343    2.836    0.647
        94 -10.3623    158.2521    235.2420   9.1108265272e+01   2.7771280690e+00    0.2139931    0.1618807 -39.40 0.0008556096    1.469    0.319
        95  -9.3432    168.6162    233.7810   8.8727579562e+01   1.4358666700e+00    0.1545172     0.125893 -57.20 0.0003680155    1.564    0.361
        96  -9.8628    198.0790     23.5270   3.7209753751e+01   3.3271051934e+01    0.2064829    0.1795455 -12.79 0.0006886206    1.556    0.357
        97  -9.7938    189.6804     14.9789   3.6081882085e+01   3.6152708509e+01    0.1736434    0.1484653 -64.55  0.000715306    1.134    0.118
        98 -10.5180     59.0145    196.6471   1.0854602609e+02   2.5860006947e+01    0.2318136    0.1821433 -81.03 0.0005186306    1.207    0.171
        99 -12.2840    184.8681    211.4690   8.1703268027e+01   2.7828488435e+00    0.4176664     0.280821   1.42  0.002098799    1.818    0.450
       100 -10.0766     88.8791    209.9827   1.0305410088e+02   1.8643586149e+01    0.2072256    0.1835263  68.09  0.000513869    1.051    0.048
