#   1 NUMBER                 Running object number                                     
#   2 MAG_AUTO               Kron-like elliptical aperture magnitude                    [mag]
#   3 X_IMAGE                Object position along x                                    [pixel]
#   4 Y_IMAGE                Object position along y                                    [pixel]
#   5 X_WORLD                Barycenter position along world x axis                     [deg]
#   6 Y_WORLD                Barycenter position along world y axis                     [deg]
#   7 A_WORLD                Profile RMS along major axis (world units)                 [deg]
#   8 B_WORLD                Profile RMS along minor axis (world units)                 [deg]
#   9 THETA_WORLD            Position angle (CCW/world-x)                               [deg]
#  10 FWHM_WORLD             FWHM assuming a gaussian core                              [deg]
#  11 ELONGATION             A_IMAGE/B_IMAGE                                           
#  12 ELLIPTICITY            1 - B_IMAGE/A_IMAGE                                       
         1 -11.4462     80.3557     23.4421   7.8113427530e+01   6.0967227547e+01    0.5976562    0.2945492  32.71 0.0006833825    2.395    0.583
         2 -10.0168     77.2782     13.1508   7.4376088119e+01   6.3016659695e+01     0.732762    0.2771458  44.56  0.002720184    2.608    0.616
         3  -9.7560     64.3259     14.0785   7.9556228283e+01   6.5211851383e+01    0.4508954    0.2886963  -3.94  0.002142142    1.828    0.453
         4  -9.2630     71.7942      8.7166   7.4100122289e+01   6.4626630707e+01    0.2553729    0.1822029  11.00 0.0007079708    1.424    0.298
         5  -9.8826    133.8522     13.6399   5.9583990138e+01   5.0187257526e+01    0.3210538    0.2376265  39.40 0.0003861693    1.306    0.234
         6  -8.5410     87.9546     13.2249   7.0926369488e+01   6.0894787940e+01    0.2934557    0.2038271  20.45 0.0009846789    1.503    0.335
         7  -9.1810     96.2154     12.2059   6.7996099778e+01   5.9275000379e+01    0.4936118    0.2326778  53.09  0.002161093    2.075    0.518
         8  -9.3041     31.9504     10.7586   9.2257849770e+01   7.0309766549e+01    0.4454415     0.265001   1.20  0.001249264    2.193    0.544
         9  -9.2212     32.0618      6.0554   8.9815240407e+01   7.1060211810e+01    0.2280137    0.1743641 -21.68 0.0003489698    1.052    0.049
        10  -8.7158    125.0852     10.3513   6.0066287526e+01   5.2738298660e+01    0.2490778    0.1863759  13.23 0.0004102515    1.416    0.294
        11  -8.9910    108.8632     11.1397   6.4139615701e+01   5.6554367787e+01    0.2072984    0.1943162 -48.54 0.0004988738    1.235    0.190
        12  -9.4850    119.2623      6.9659   5.9901108435e+01   5.4519435589e+01    0.2713294    0.2137708  26.28 0.0002243533    1.235    0.190
        13  -9.3770     46.6914      6.2062   8.2879946462e+01   6.9116628307e+01    0.2550727    0.2002185  -1.71 0.0003581125    1.148    0.129
        14  -9.1344     41.2406      5.9133   8.5238081485e+01   6.9922191954e+01    0.3719884     0.240012  -7.97  0.001069063    1.651    0.394
        15  -9.8903      7.6289      5.5882   1.0300742044e+02   7.3434422517e+01    0.4573273    0.2136108   0.57  0.002329596    3.124    0.680
        16  -8.0240    100.7469      6.6485   6.4192947216e+01   5.8904350419e+01    0.2227803    0.1729828  62.51 0.0007125012    1.408    0.290
        17  -8.5282    156.0798      7.0706   5.3185701854e+01   4.5066098541e+01    0.2250375    0.1612831 -60.34 0.0005558683    1.604    0.377
        18  -8.5230    131.3851      5.7421   5.6916656447e+01   5.1620344106e+01     0.198112    0.1329771  -0.76 0.0009493004    1.653    0.395
        19  -9.3043     92.6747      5.1007   6.5660607959e+01   6.0853686099e+01    0.3992871    0.2326303  43.74  0.001985849    1.601    0.376
        20  -9.6459     84.8508      5.4513   6.8135209382e+01   6.2467479317e+01    0.2730205     0.219243  -8.82  0.001610025    1.159    0.138
        21  -8.8484     77.4124      6.8050   7.1195070483e+01   6.3799383108e+01     0.258684    0.1877671  47.54  0.001467499    1.433    0.302
        22  -8.5904     76.2886      3.0866   6.9672317283e+01   6.4454941912e+01    0.3296019    0.1898507   8.23   0.00123916    2.144    0.533
        23  -9.1053    110.9859      3.7060   6.0338309376e+01   5.6834817338e+01    0.3794583     0.258089 -51.08  0.001879851    1.859    0.462
        24  -8.3067    125.6287      3.6807   5.7194801073e+01   5.3265303453e+01    0.2428521    0.1874058  29.44 0.0004371497    1.265    0.210
        25  -8.6648    152.3141      3.5300   5.2478365294e+01   4.6391434329e+01    0.3699346    0.1225536  64.63  0.001308361    2.639    0.621
        26  -7.6207    134.4405      3.0306   5.5261642844e+01   5.1094449610e+01    0.1982861    0.1387983 -15.15 2.062572e-05    1.498    0.333
        27  -8.3874     57.8379      3.1969   7.6492061929e+01   6.7790078026e+01     0.220437    0.1653004  16.20 0.0009533585    1.261    0.207
        28  -8.2603    143.0623      1.9917   5.3370292958e+01   4.8958424794e+01    0.2067804     0.196776  60.10 0.0003250376    1.045    0.043
        29  -8.2845    105.2542      1.8615   6.0855146249e+01   5.8358909554e+01    0.2802551    0.1400576  36.39  0.001219801    2.026    0.506
        30  -7.1382    159.6651      1.2406   5.0579674656e+01   4.4644171560e+01    0.1416306    0.1036749 -70.92 0.0002182143    1.545    0.353
        31  -7.5944      2.7453      1.3893   1.0401166073e+02   7.4507357104e+01     0.138049   0.08958324 -10.91 0.0004288847    1.597    0.374
        32  -7.5415     85.6516    121.6841   1.0606349854e+02   4.0140691783e+01    0.1329321    0.1062946 -22.37 0.0007047618    1.726    0.421
        33  -9.2510    227.1851    250.2678   9.8216091596e+01  -3.9876899372e+00    0.2563014   0.07031647  42.57  0.001209773    2.837    0.648
        34 -10.4478    211.7427    249.7713   1.0056275852e+02  -1.7405292012e+00    0.6780493    0.1406973  37.29  0.002620713    4.056    0.753
        35  -9.7660    197.8677    249.6484   1.0275304105e+02   2.9285928963e-01    0.2744066    0.1380725  24.58  0.001323675    2.177    0.541
        36  -9.1024    186.5086    250.4926   1.0468281660e+02   1.8777716280e+00    0.1675202    0.1094934  22.23 0.0008174239    1.534    0.348
        37  -9.5790    173.9220    249.6792   1.0663001625e+02   3.8310759963e+00    0.2774077   0.09944262  45.91  0.001434421    2.183    0.542
        38  -7.3208     23.6394    116.6821   1.2187640832e+02   4.8623643041e+01     0.118004   0.07804702 -46.30 5.542479e-05    1.763    0.433
        39  -7.5982     27.6954    112.6159   1.2029839859e+02   4.9181526815e+01    0.1242726   0.07593413 -48.44 0.0007020563    1.791    0.442
        40  -7.7309    143.1329    111.6054   8.9305858163e+01   3.1597040251e+01    0.2174951    0.1360996  36.26 0.0008269578    1.730    0.422
        41  -8.2710    133.8485    107.1080   9.0425208058e+01   3.4460354543e+01    0.5214118    0.2047731 -40.56  0.001708897    2.719    0.632
        42  -8.1397      1.4907    109.9731   1.2706869365e+02   5.1709035390e+01    0.1642402   0.05807982 -57.52 0.0008089104    2.502    0.600
        43  -8.7657    249.6176    107.8351   6.8150774015e+01   8.7758183537e+00    0.2042941    0.1110941 -37.01 0.0009581635    1.769    0.435
        44  -7.7987    123.9365    107.1002   9.2898785801e+01   3.6492541509e+01    0.2314962    0.1833228   1.64  0.001120099    1.720    0.419
        45  -7.4369    108.7850    106.8161   9.6765404842e+01   3.9475222093e+01    0.2371128    0.1609342  -7.83 0.0009490032    2.818    0.645
        46  -9.3189     14.5651    105.2443   1.2304134524e+02   5.1879282281e+01    0.2646529      0.16231 -40.88  0.001390096    2.013    0.503
        47  -7.5861     67.5111    104.4997   1.0773532551e+02   4.6618853041e+01    0.2674777      0.13146  14.66 0.0008104231    5.952    0.832
        48  -7.7794     93.8245    103.3824   1.0002840289e+02   4.2870317198e+01    0.1927371    0.1350088  27.77 0.0009453272    1.729    0.422
        49  -7.3850    165.4397    102.0399   8.1792565756e+01   2.8459370211e+01    0.1914271    0.1326849  -4.21 2.001295e-05    2.082    0.520
        50  -7.5833    129.3626     97.3198   8.9019825144e+01   3.7388300976e+01     0.154768    0.1191866   5.42 0.0007041539    1.774    0.436
        51  -8.3071    241.9894     96.6696   6.6594684945e+01   1.1868383873e+01    0.2075852    0.1204629  85.30 0.0007048332    4.300    0.767
        52  -9.1229    221.4028     95.8443   6.9567473556e+01   1.6499761692e+01    0.2450426    0.2266416  18.09 0.0002248235    1.062    0.058
        53  -9.9822     14.1864     93.6504   1.2174293212e+02   5.4494069500e+01    0.5381565    0.3002703   9.45  0.002653541    2.652    0.623
        54  -7.4164     82.9572     94.0000   1.0093569895e+02   4.6717659266e+01    0.2142222   0.07941225  38.41 0.0007955794    2.895    0.655
        55  -8.4839     43.5581     92.4513   1.1257638277e+02   5.2226768059e+01    0.2839729    0.1597468 -34.94  0.001109974    2.411    0.585
        56  -8.4101     96.0579     90.8384   9.6328797035e+01   4.5224930800e+01    0.3909634    0.2560745 -17.83  0.001635107    2.566    0.610
        57  -7.9910    110.2192     90.5920   9.2273385122e+01   4.2657384208e+01    0.2058452     0.139127  31.75 0.0008024044    1.710    0.415
        58 -10.1788     37.3610     81.2859   1.1241466016e+02   5.5377339686e+01    0.6873207    0.3587817 -30.46   0.00310532    2.952    0.661
        59  -7.6278    126.4272     83.7788   8.6011574834e+01   4.0735129278e+01    0.3249627    0.1056675  38.19 0.0008772901    4.475    0.777
        60  -8.7379     88.6407     78.7140   9.5255686696e+01   4.9117954924e+01     0.468041    0.2818199  18.46   0.00192323    2.714    0.632
        61  -9.6054      7.7932     77.8480   1.2159926142e+02   5.8429135313e+01    0.5079436    0.2021156 -42.22   0.00223275    2.860    0.650
        62  -8.8595    248.0148     78.4965   6.1279721386e+01   1.3034522602e+01    0.1943669    0.1370215  56.32 0.0004860895    1.547    0.354
        63  -7.7548    184.1695     77.8680   7.1268183185e+01   2.8168107118e+01    0.2049772     0.176321   7.12 0.0004098711    1.259    0.205
        64  -8.8547     48.7433     77.2298   1.0775222212e+02   5.5100499870e+01    0.4156182    0.2349592  -1.80  0.001692725    3.779    0.735
        65  -7.9237    105.6322     76.6866   8.9618447086e+01   4.6435220669e+01    0.1510383    0.1152545  -0.59 0.0003702739    1.771    0.435
        66  -8.8381     23.7061     73.9397   1.1559715784e+02   5.8217219612e+01     0.352816    0.1493097 -54.00  0.001622173    1.906    0.475
        67  -9.6356     24.0549     69.9078   1.1469891317e+02   5.9089278393e+01    0.5657264    0.2930391  15.10  0.002942225    2.631    0.620
        68  -7.1323    166.3229     75.7012   7.4206846099e+01   3.2938677961e+01    0.1555309    0.1217692 -73.92  0.000398627    1.626    0.385
        69  -8.4073     74.7491     74.4366   9.8428269966e+01   5.2278875408e+01    0.2747766    0.2028479 -13.26 0.0006974115    1.823    0.452
        70  -7.9848     65.9203     84.4459   1.0384843427e+02   5.1349609847e+01    0.2203721    0.1704825 -40.47  0.001038798    1.315    0.240
        71  -7.5913    116.3579     68.2962   8.3988819222e+01   4.5918122227e+01    0.1532609    0.1163946   9.05 0.0007033319    1.701    0.412
        72  -8.3859    106.2099     67.3729   8.6569180346e+01   4.8190423895e+01    0.2899432    0.2318937  -3.82  0.001459615    1.513    0.339
        73  -8.7574     83.4796     64.3719   9.2604499345e+01   5.2998741899e+01     0.400039    0.2868744  -2.10  0.001926851    1.980    0.495
        74  -9.0762     15.6018     64.1549   1.1661325862e+02   6.0976378883e+01    0.2501698    0.1812946   3.13  0.001636201    1.797    0.444
        75  -9.7518     61.8524     61.3277   9.9005291572e+01   5.6942847800e+01    0.7810292    0.3365187  22.61  0.002691996    4.147    0.759
        76  -9.6698    122.6089     60.2241   7.9635510804e+01   4.6061762930e+01    0.2628133    0.2455726  16.90 0.0002626816    1.081    0.075
        77  -8.7196     97.2754     58.3788   8.6267010049e+01   5.1693738711e+01    0.5175601    0.2730389 -17.72  0.001589702    4.420    0.774
        78  -9.3179     37.4408     58.7405   1.0722954624e+02   6.0367388308e+01    0.3795462    0.2144372 -14.79  0.001742777    2.979    0.664
        79  -8.1405    111.1952     58.8350   8.2304553244e+01   4.8797296052e+01    0.2835197    0.1865184  20.77  0.001215325    2.082    0.520
        80  -8.8448     11.9612     60.5320   1.1726226551e+02   6.2006542840e+01    0.1494465    0.1179908  13.45  0.001035961    1.606    0.377
        81 -10.1089     74.7785     50.2266   9.0809411287e+01   5.7270613174e+01    0.4910267    0.3306935 -33.05 0.0004035784    1.439    0.305
        82  -7.8728     88.5306     53.9841   8.7506326360e+01   5.4175053986e+01    0.2008872      0.11662 -21.57 0.0008082624    2.433    0.589
        83  -8.5898    118.4231     51.0523   7.7574596416e+01   4.8616918316e+01    0.2820581    0.2102071  43.86 0.0005617283    1.353    0.261
        84  -9.1670     45.4047     48.7830   1.0127135639e+02   6.1630576938e+01    0.3433117    0.2002261 -30.97  0.001288288    1.904    0.475
        85  -8.0971    106.8998     48.5984   7.9917764852e+01   5.1548867170e+01    0.3148268    0.2031574  16.83  0.001330225    2.225    0.551
        86  -8.4936    218.6627     47.5394   5.7024455427e+01   2.3968891606e+01    0.2794939    0.1898999 -25.55  0.001352113    1.441    0.306
        87  -9.0942     10.5321     47.0664   1.1499523017e+02   6.5009399967e+01    0.3695309    0.2611822  13.85  0.002151777    1.773    0.436
        88  -9.3606     56.2596     43.5381   9.5251758968e+01   6.1335643078e+01    0.7028836    0.3137491 -27.26   0.00235909    4.334    0.769
        89 -10.9562     83.1189     40.1440   8.4173693722e+01   5.7711627513e+01    0.4122773    0.2716455 -20.31            0    1.694    0.410
        90  -8.9555     87.6038     38.1623   8.1894921740e+01   5.7224349542e+01    0.3012782    0.2241572 -26.31 0.0006361977    1.286    0.222
        91  -8.7265     13.8010     45.6236   1.1329258914e+02   6.5113413453e+01     0.213948    0.1905678  89.76 0.0007670858    1.297    0.229
        92  -7.1301    142.3244     44.3206   6.9262640991e+01   4.4031053213e+01     0.160098    0.1138189  22.08 0.0003440318    1.678    0.404
        93  -7.9559    113.5077     42.0098   7.5589722892e+01   5.1226720866e+01    0.2984892     0.161822  21.75  0.001018379    3.316    0.698
        94  -7.6958    124.0097     39.9083   7.2023270946e+01   4.9151153464e+01    0.2334031    0.1693467  18.80 0.0004715676    1.615    0.381
        95  -9.3673     69.4397     36.8009   8.7692264475e+01   6.0653253559e+01    0.4897203      0.33157 -10.68  0.002475081    1.828    0.453
        96  -9.3005     73.9679     34.3190   8.5035904909e+01   6.0341494466e+01    0.7637292    0.2470488  40.75   0.00280402    3.349    0.701
        97  -8.6331     35.5258     38.0390   1.0179639576e+02   6.4887197432e+01    0.3426578    0.1607891 -54.91  0.001265547    1.867    0.464
        98  -8.5100     38.5290     35.4954   9.9613137603e+01   6.5075565729e+01    0.2090935    0.1729974 -19.39 0.0005487835    1.190    0.160
        99  -8.1914    105.4952     36.8877   7.5867171325e+01   5.3805090179e+01    0.3062652    0.1756798  33.08  0.001316747    2.006    0.501
       100  -8.2414     92.3139     37.7388   8.0203111104e+01   5.6386178901e+01    0.3120316    0.1585581 -45.13 0.0007394531    2.079    0.519
       101  -9.6308     22.2516     33.8037   1.0624847938e+02   6.6955232002e+01     0.460587    0.3049672 -65.35  0.001678685    1.521    0.343
       102  -8.8301     55.8386     35.8046   9.2530854494e+01   6.2876761050e+01    0.1921401    0.1540133 -19.99 0.0003260321    1.193    0.162
       103  -7.4645      3.4089     25.4745   1.1259356991e+02   6.9891643304e+01    0.1793677   0.09613561 -44.06 0.0001569767    1.474    0.321
       104  -7.8544      1.6399     28.7036   1.1436983111e+02   6.9327154208e+01    0.1906076   0.08618087 -59.58  0.000721718    1.618    0.382
       105  -8.9966      6.4249     33.8523   1.1351210672e+02   6.8021937185e+01    0.2905239    0.1574649 -29.76  0.001415286    1.956    0.489
       106  -7.8012      2.8062     31.6447   1.1460365088e+02   6.8667322388e+01    0.1808756    0.1318695  57.19 0.0007303933    1.896    0.472
       107  -7.5411      2.6185    249.1482   1.3379520815e+02   2.5588855600e+01    0.1075931   0.06715959 -82.39  0.000409653    1.653    0.395
       108  -9.8342     69.5265     25.9389   8.3101822770e+01   6.2505019617e+01     0.387099    0.3298252 -25.34  0.002375212    1.075    0.070
       109  -8.7150     42.4555     28.0188   9.5037149385e+01   6.6053644719e+01    0.2158394    0.1595763  -6.57 0.0006202579    1.471    0.320
       110  -7.8218    110.3849     26.7489   7.0405035888e+01   5.4236431816e+01    0.2047786    0.1325762 -13.51 0.0006340435    1.704    0.413
       111  -8.9247     61.8724     26.9308   8.6471983213e+01   6.3577964254e+01    0.2298151    0.1570629 -25.09 0.0004980922    1.382    0.276
       112  -9.0026     28.0423     21.9717   9.9213412148e+01   6.8739997098e+01    0.3731364    0.1769998 -21.13  0.001434028    3.421    0.708
       113  -7.9881    102.0674     25.4819   7.2186071470e+01   5.6262472713e+01      0.20505    0.1349533  48.24  0.000430924    1.513    0.339
       114  -8.8128    144.6458     23.3299   6.1150349629e+01   4.6310644479e+01    0.2591995    0.2303759  27.76 0.0002619297    1.116    0.104
       115  -9.2744     92.3436     20.5660   7.2934298394e+01   5.9014941830e+01    0.3025707    0.2370664   6.87  0.000825185    1.291    0.225
       116  -8.6641     46.2195     20.8694   9.0312123380e+01   6.6855899865e+01    0.3013002      0.17499 -41.22   0.00112326    1.506    0.336
       117  -8.0975    140.1979     20.0959   6.0815135250e+01   4.7839911522e+01    0.2183931     0.183869  30.74 0.0007930267    1.178    0.151
       118  -8.5204      9.6283     19.8633   1.0762707699e+02   7.0636235256e+01    0.2628962    0.1516273  -1.96  0.001352107    2.155    0.536
       119  -7.0766    146.6559     19.2368   5.9245214542e+01   4.6271794146e+01    0.1437109    0.1113926 -75.48 0.0002386284    1.557    0.358
       120  -7.7318    111.9146     19.1707   6.6836104977e+01   5.4890266126e+01    0.1923582    0.1525788  21.52 0.0003263301    1.261    0.207
       121  -7.7202      5.3623     18.7554   1.0945810539e+02   7.1114447305e+01    0.1598631   0.07563675 -50.62 0.0002715584    1.534    0.348
       122  -8.1412    127.6872     16.8812   6.2164842216e+01   5.1371728495e+01    0.2374096    0.1797431  45.17 0.0002799808    1.248    0.198
       123  -8.8359    180.4814    246.9775   1.0524118510e+02   3.1552175219e+00    0.1247972   0.09393101 -87.72  0.000810248    2.558    0.609
       124  -8.4712    156.6503    247.3190   1.0920363125e+02   6.6749573538e+00    0.1097203   0.06963793  59.53 0.0007048178    1.737    0.424
       125  -8.4882    150.7528    246.7444   1.1011909426e+02   7.6208744134e+00     0.138944   0.09061731 -69.74 0.0009044528    2.440    0.590
       126  -7.5445     14.2863     16.3512   1.0387846135e+02   7.0979115255e+01    0.1239576   0.06625589 -33.95 0.0003075162    1.662    0.398
       127  -9.2760    244.6136    245.5187   9.4895112957e+01  -5.9948451116e+00    0.1963612    0.1503754  36.25  0.001550947    1.416    0.294
       128  -8.6995    122.4549     14.7515   6.2455968493e+01   5.2904501449e+01    0.3375914    0.1388493  47.30   0.00130586    2.261    0.558
       129  -9.4643    191.6545    249.7534   1.0376375185e+02   1.1963518246e+00    0.1510359    0.1467083  41.43  0.001303062    1.441    0.306
       130  -9.3013    176.3072    244.5404   1.0563534719e+02   4.0560443625e+00    0.2323692   0.09726888 -35.32  0.001228601    3.553    0.719
       131  -9.1391    168.2245    244.4013   1.0695648626e+02   5.2902305651e+00    0.1611376   0.07904538  47.41 0.0008220341    1.646    0.393
       132  -7.2093    102.7418    238.6576   1.1740206189e+02   1.5647760916e+01   0.08966807   0.08032619  20.86 0.0006962222    1.588    0.370
       133 -10.0745    184.5076    235.5295   1.0315133732e+02   3.8409784631e+00    0.2471705    0.2092845  47.88  0.001890142    1.279    0.218
       134  -9.8865    188.2317    234.1595   1.0234906928e+02   3.4231138721e+00    0.2077769    0.1818873 -41.34  0.001338545    1.557    0.358
       135 -10.0668    138.3252    231.7971   1.1060815550e+02   1.1445324871e+01    0.1975101    0.1673587  50.32 0.0003231818    1.117    0.105
       136  -7.4863    140.4727    217.4313   1.0856046821e+02   1.3163694499e+01    0.1186185   0.09322863  45.87  0.000131224    1.019    0.019
       137  -7.9030    177.6119    205.1935   1.0013407023e+02   8.7943793379e+00    0.1417854    0.1144555 -17.43 0.0003745219    1.489    0.329
       138  -8.4691    247.6703    203.0198   8.7832961653e+01  -2.4523902497e+00    0.1853171    0.1305894  29.09  0.001247142    1.165    0.141
       139  -8.7129    245.5266    185.1043   8.5018529747e+01  -1.8403801106e-01    0.1920257    0.1854977  27.60  0.001338657    1.488    0.328
       140  -8.5877    233.4267    180.0232   8.6062220401e+01   2.4310418816e+00    0.2010084    0.1581331  34.18 0.0003832954    1.198    0.165
       141  -7.8771    234.5287    170.1015   8.3997318205e+01   3.4589081086e+00    0.1879083     0.143911  28.99 0.0003463261    1.143    0.125
       142  -7.4883    155.4493    170.4426   9.8790502025e+01   1.8102816900e+01     0.133319    0.1177008  40.06 0.0001318055    1.032    0.031
       143  -8.8173    202.8845    167.3861   8.9014302255e+01   9.6160186901e+00    0.2246001    0.2083213  -5.12 0.0003080135    1.149    0.129
       144  -7.0198     88.4683    155.5347   1.1094540033e+02   3.2437841468e+01    0.1268615     0.113825  75.08 0.0001065754    1.046    0.044
       145  -8.8264    222.3556    150.4009   8.2100662832e+01   8.3125623946e+00    0.2247399    0.2070979  15.76 0.0002506107    1.115    0.103
       146  -8.5011    208.3027    148.9866   8.4308948213e+01   1.1270334779e+01    0.1898298    0.1672004  -7.62 0.0004297119    1.115    0.103
       147  -8.0039    133.5030    147.4889   9.9324533889e+01   2.6423616377e+01    0.2278701      0.13027 -38.40 0.0007903294    2.132    0.531
       148  -9.0478     67.3933    144.7275   1.1436631438e+02   3.7693672038e+01    0.3723156    0.2243934  59.58   0.00201342    1.662    0.398
       149  -7.5967    249.4800    137.5765   7.4888742780e+01   4.8860061009e+00      0.13299    0.1107784   6.35 -0.0001381277    1.046    0.044
       150  -9.7439    240.0066    137.0151   7.6264670055e+01   6.7471223682e+00    0.1907908    0.1661573   4.58  0.001167721    1.013    0.013
       151  -7.2004    144.5147    126.4332   9.2469906357e+01   2.8384141413e+01    0.1441615    0.1374127  39.46 1.949379e-05    1.038    0.037
       152  -7.5897    153.3431    124.2996   8.9981070117e+01   2.6954151665e+01     0.149581    0.1149582  11.97 0.0007036368    1.673    0.402
       153  -7.8146     12.1601    121.8029   1.2537698404e+02   4.8406503000e+01    0.1555455    0.1133988 -62.73 0.0005875967    1.346    0.257
