#   1 NUMBER                 Running object number                                     
#   2 MAG_AUTO               Kron-like elliptical aperture magnitude                    [mag]
#   3 X_IMAGE                Object position along x                                    [pixel]
#   4 Y_IMAGE                Object position along y                                    [pixel]
#   5 X_WORLD                Barycenter position along world x axis                     [deg]
#   6 Y_WORLD                Barycenter position along world y axis                     [deg]
#   7 A_WORLD                Profile RMS along major axis (world units)                 [deg]
#   8 B_WORLD                Profile RMS along minor axis (world units)                 [deg]
#   9 THETA_WORLD            Position angle (CCW/world-x)                               [deg]
#  10 FWHM_WORLD             FWHM assuming a gaussian core                              [deg]
#  11 ELONGATION             A_IMAGE/B_IMAGE                                           
#  12 ELLIPTICITY            1 - B_IMAGE/A_IMAGE                                       
         1 -14.0655    199.1832      6.3556   5.2549261279e+01   3.3741528546e+01     1.939593     1.662936 -39.95   0.01145746    1.172    0.147
         2 -11.9414    211.3761      1.7240   5.0110522156e+01   3.1102665209e+01     0.710113    0.1619449  70.54  0.002345346    3.819    0.738
         3 -13.9140    173.6755     44.6873   6.7903054408e+01   3.6087721105e+01     1.561966     1.067995  26.28  0.004452636    1.695    0.410
         4 -13.8986    186.3818     32.4590   6.1963620519e+01   3.4331580664e+01    0.9449508    0.8227072   8.57  0.003781253    1.231    0.188
         5 -14.1048    191.7612     24.8271   5.8876235879e+01   3.3806189887e+01     1.094356    0.9170107  13.93  0.001369373    1.323    0.244
         6 -11.3909    216.8413     18.4037   5.4120549828e+01   2.8183903627e+01    0.2342131    0.1708718 -39.95 0.0006335603    1.308    0.235
         7 -19.4051     20.0489    134.3809   1.3316534337e+02   4.4655889492e+01     17.81556     4.550262 -77.79   0.06648634    3.726    0.732
         8 -12.9604    121.0794    200.0179   1.1667163258e+02   1.8755644018e+01    0.4845847    0.3534375 -15.33  0.001955953    2.062    0.515
         9 -12.7946    107.4964    209.2976   1.2062924852e+02   1.9168988819e+01     0.505385    0.4511899  47.32  0.002779637    1.094    0.086
        10 -13.5256    105.4169    200.2914   1.2002218453e+02   2.1042904375e+01    0.6719238    0.4592489 -73.70  0.004017552    1.779    0.438
        11 -13.8095    113.6780    197.8656   1.1796779032e+02   2.0255589048e+01    0.6498823    0.4683588 -58.61  0.003981777    1.620    0.383
        12 -10.3517     50.4031    213.3631   1.3242735920e+02   2.5694376186e+01    0.1971498   0.09576806  43.32 0.0006274038    1.629    0.386
        13 -10.5020     51.9653    208.6836   1.3180070347e+02   2.6361439857e+01     0.160132    0.1161738  62.49 0.0003063683    1.123    0.110
        14  -9.7588    164.7144    206.1423   1.0853844207e+02   1.0831425320e+01    0.1681859      0.16253 -83.90  0.001167706    1.395    0.283
        15  -9.9373     94.7092    204.6284   1.2275923710e+02   2.1782580479e+01    0.3900695    0.2370036 -24.98  0.001770889    3.762    0.734
        16  -9.5144    176.6707    235.2480   1.1035841734e+02   5.0102815028e+00    0.1352253    0.1017343 -17.19 0.0004794655    1.582    0.368
        17  -9.8566    211.1847    202.8185   9.9055220567e+01   3.7695815361e+00    0.1719104    0.1478972  22.51 0.0006089041    1.244    0.196
        18 -12.1924    193.4113    193.8146   1.0086910681e+02   7.8717081009e+00    0.6951806    0.4868272 -53.06  0.003825766    2.218    0.549
        19 -10.6917     81.7521    194.9525   1.2447570969e+02   2.5304094909e+01    0.3521537    0.2267805  30.46  0.002072737    1.585    0.369
        20 -11.0596     76.5214    183.2876   1.2438079440e+02   2.8241304159e+01    0.3109448    0.2106231  57.27   0.00071725    1.358    0.264
        21  -9.6875     57.8201    196.2677   1.2966464929e+02   2.8004787568e+01    0.1696837    0.1225227  63.06 0.0006794336    1.186    0.157
        22  -9.7471    180.3090    192.6410   1.0325259408e+02   1.0252774891e+01    0.1814676    0.1473506  60.42   0.00072449    1.684    0.406
        23 -10.4829     59.7166    188.9270   1.2863217708e+02   2.9199392795e+01    0.2323883    0.1758875 -64.41 0.0007653413    1.450    0.311
        24 -13.2397    115.0548    185.4081   1.1601117832e+02   2.2311786405e+01    0.4485384    0.4240752 -60.22  0.003004512    1.207    0.172
        25 -10.7044    207.4221    183.2030   9.6270259016e+01   6.9813915481e+00    0.2876199    0.2106031 -47.33  0.001280496    1.948    0.487
        26 -10.8853    210.9088    179.4889   9.4913392443e+01   6.8981566767e+00    0.4710812    0.2738665 -12.08  0.002320726    2.037    0.509
        27 -11.3479    128.1801    183.6332   1.1283460956e+02   2.0546185539e+01    0.2274411    0.1032545 -55.32  0.001003302    2.637    0.621
        28 -12.0519     99.4399    180.2565   1.1883037883e+02   2.5661883026e+01    0.2973232    0.2859349 -50.85   0.00124654    1.206    0.171
        29 -10.3744    193.8712    165.5194   9.5509567986e+01   1.1978490767e+01    0.3238107    0.2361107 -55.54  0.001657575    2.062    0.515
        30 -10.5393    198.0636    176.4030   9.6798392857e+01   9.5775184663e+00    0.3216163    0.2232229  52.94  0.001220919    1.836    0.455
        31 -11.2238    196.2731    171.2719   9.6164495574e+01   1.0661508460e+01    0.3443402    0.2990688  16.15  0.001051793    1.069    0.065
        32 -15.9002     53.4084    232.4427   1.3308558768e+02   2.2110843385e+01      6.65592     1.802311  37.26   0.02207322    2.729    0.634
        33  -8.2021     41.7230    220.3326   1.3450034502e+02   2.5399946512e+01    0.2986735     0.132823  39.35  0.001373449    1.807    0.447
        34 -10.5919     48.3124    217.3319   1.3308606706e+02   2.5222574668e+01    0.1725949    0.1354633   7.38 0.0009980084    1.977    0.494
        35 -13.4948     71.3813    193.0697   1.2651048223e+02   2.6991118347e+01    0.8000476    0.6250983   8.18  0.005078534    1.809    0.447
        36 -11.2919    145.7607    168.3437   1.0636722138e+02   2.0337285907e+01    0.2451617    0.2260366   7.93 0.0003865411    1.106    0.096
        37 -11.6782     43.9972    215.0695   1.3376097134e+02   2.6080147735e+01    0.4195001    0.1259777  48.57  0.002103416    2.509    0.601
        38 -10.8780    141.3787    158.1732   1.0550646481e+02   2.3028626410e+01    0.2447555    0.2132847  53.74  0.000387845    1.201    0.167
        39 -13.0393     98.3519    155.9400   1.1557274875e+02   3.0774301460e+01     0.663111     0.475361 -29.54  0.003051875    1.861    0.463
        40  -9.3631    127.6725    155.3384   1.0824029248e+02   2.6043011256e+01    0.1434247    0.1075894  71.56 0.0007051725    1.730    0.422
        41 -11.0432    165.1228    153.8629   9.9228373394e+01   1.9362114540e+01    0.2152259    0.1919316  56.44  0.000824115    1.297    0.229
        42 -12.5650    133.7825    144.7762   1.0471438363e+02   2.7054257046e+01     1.062712    0.3233605 -54.29  0.003067194    4.777    0.791
        43 -10.2685    129.0158    140.4798   1.0502592468e+02   2.8810962744e+01    0.2879733    0.1364096  35.42  0.001142225    2.118    0.528
        44 -10.4081    174.8538    149.1221   9.6096315836e+01   1.8302946211e+01    0.2127264    0.1995259  57.44 0.0007676478    1.282    0.220
        45 -11.0580    183.5485    215.8416   1.0632871770e+02   6.4572236128e+00     0.244984    0.1793846  58.31  0.001447566    1.982    0.495
        46 -12.3178    144.9749    146.1128   1.0227567565e+02   2.4679842587e+01    0.5233836    0.3485681  59.47  0.002398886    1.895    0.472
        47 -12.4195    108.7518    140.6958   1.1026822360e+02   3.2354198918e+01     0.529039    0.3349547 -34.17   0.00244352    1.978    0.494
        48 -12.4230     97.2023    141.1933   1.1339671847e+02   3.4128188083e+01    0.2723311    0.2543981  17.96 0.0004268259    1.152    0.132
        49 -12.4901    116.6572    130.5848   1.0616106943e+02   3.3148746415e+01    0.5860838    0.4017246  21.19  0.001745691    1.742    0.426
        50 -12.2428    120.1804    124.7982   1.0396407210e+02   3.3741956467e+01    0.5302252    0.3024196 -22.42  0.001891861    3.180    0.686
        51 -11.4283    105.9995    130.8040   1.0906886970e+02   3.4968239762e+01    0.3564642    0.3201113 -72.64  0.001291187    1.175    0.149
        52 -11.4410    103.5487    127.3239   1.0903052925e+02   3.6149718645e+01    0.2965244    0.2503395 -30.11 0.0008271549    1.304    0.233
        53 -10.9745    160.7768    128.4520   9.4627342579e+01   2.4905789445e+01    0.3710348    0.3164187 -45.49  0.001951145    1.290    0.225
        54 -11.2144    136.0000    128.9770   1.0078143764e+02   2.9836040880e+01    0.3191232    0.1960302 -48.39   0.00142678    1.729    0.422
        55 -12.8620    136.8633    123.6630   9.9336845581e+01   3.0749922792e+01    0.6624312    0.4938326 -58.35  0.002710487    1.572    0.364
        56 -11.7644    125.8516    127.3450   1.0303045890e+02   3.2135135011e+01    0.3696845    0.2693658  74.02  0.001230418    1.968    0.492
        57 -11.2264    111.3264    119.5542   1.0520174035e+02   3.6500877159e+01    0.3314881    0.2529312  11.67 0.0006769806    1.603    0.376
        58 -11.7716     67.9341    115.8916   1.1708926859e+02   4.4102059327e+01    0.3215651    0.1856913 -57.44 0.0008942244    1.609    0.379
        59 -10.3997    167.9073    112.7818   8.9119880078e+01   2.6291543909e+01    0.3708971    0.2711664 -76.82  0.001335855    2.343    0.573
        60 -12.8449    118.8375    110.3029   1.0091976710e+02   3.7103408460e+01    0.6564617    0.3788185  52.43  0.002731261    1.984    0.496
        61 -10.2509    205.5312    110.1941   8.0660801276e+01   1.8434009095e+01    0.2605169    0.2009206  40.49 0.0006484546    1.286    0.223
        62 -12.5848     63.8957    106.5809   1.1657579656e+02   4.6795379648e+01     0.836387    0.5060107 -31.21  0.003864425    2.168    0.539
        63 -11.2093    134.5720    104.3338   9.5101376532e+01   3.5173091425e+01    0.5871627    0.1492691 -43.29  0.001636582    3.993    0.750
        64 -10.6456    127.9863     94.9497   9.4318967747e+01   3.8477000639e+01    0.2344564    0.1933803 -83.85 0.0005291556    1.639    0.390
        65 -10.0689    115.4950     94.4799   9.7727419595e+01   4.1134342740e+01    0.1513365    0.1446797  -3.26 2.430934e-06    1.016    0.015
        66 -10.6574    163.8233    215.3941   1.1006759642e+02   9.6240795563e+00    0.2034163    0.1730032 -28.45  0.001022256    1.411    0.291
        67 -12.3967    171.7094     70.9374   7.6504175202e+01   3.2696893882e+01    0.5216901    0.3673385 -81.25   0.00214492    2.280    0.561
        68 -10.2231     61.9188     71.3338   1.0900303905e+02   5.5204055780e+01    0.1886399    0.1724611  -7.33 0.0005566322    1.126    0.112
        69 -13.3234    116.0092    211.3385   1.1912237247e+02   1.7590375181e+01    0.6783453    0.4496355  63.50  0.003505927    1.722    0.419
        70 -14.1859    126.6080    205.5612   1.1623259781e+02   1.6966266322e+01    0.6583877      0.61514  64.74  0.004653762    1.187    0.158
        71 -10.0978    106.8130     62.0946   9.0309724863e+01   4.9467828014e+01    0.2099126    0.2025802 -50.74 0.0003111224    1.175    0.149
        72  -9.1827    217.3221    244.6597   1.0444642802e+02  -1.8824884386e+00   0.09861932   0.07951228  43.29 0.0007050566    1.721    0.419
        73 -10.4846    172.3502    242.0875   1.1202961051e+02   4.8015334252e+00    0.3340626    0.2291303 -78.19  0.001737443    4.033    0.752
        74  -9.2739    164.2816    241.3614   1.1340816285e+02   6.0638021877e+00    0.1121638   0.07617527  11.24 0.0007015887    1.675    0.403
        75 -11.5579     85.1812    236.1349   1.2754584158e+02   1.7763601432e+01    0.2789869    0.1638772 -78.59 0.0003201501    2.117    0.528
        76 -11.6100     92.9799    236.3274   1.2611865133e+02   1.6739785084e+01    0.2056001    0.1749694  65.47 0.0003873872    1.186    0.157
