#   1 NUMBER                 Running object number                                     
#   2 MAG_AUTO               Kron-like elliptical aperture magnitude                    [mag]
#   3 X_IMAGE                Object position along x                                    [pixel]
#   4 Y_IMAGE                Object position along y                                    [pixel]
#   5 X_WORLD                Barycenter position along world x axis                     [deg]
#   6 Y_WORLD                Barycenter position along world y axis                     [deg]
#   7 A_WORLD                Profile RMS along major axis (world units)                 [deg]
#   8 B_WORLD                Profile RMS along minor axis (world units)                 [deg]
#   9 THETA_WORLD            Position angle (CCW/world-x)                               [deg]
#  10 FWHM_WORLD             FWHM assuming a gaussian core                              [deg]
#  11 ELONGATION             A_IMAGE/B_IMAGE                                           
#  12 ELLIPTICITY            1 - B_IMAGE/A_IMAGE                                       
         1 -12.7065      3.3034     50.0927   1.0206766546e+02   6.5600593177e+01     0.679498    0.1861898 -48.24  0.003032804    2.407    0.585
         2 -14.4871    243.0253      9.8143   3.0266491036e+01   2.5361642330e+01     1.766706    0.9537714 -58.56   0.01074154    1.574    0.365
         3 -11.8830      1.7845     23.9326   9.4339350308e+01   7.0593401966e+01    0.4418649    0.1221986 -51.31  0.001961709    2.987    0.665
         4 -12.9843     12.1511     22.7588   8.8187377310e+01   7.0012304293e+01    0.6516278     0.267386 -25.97  0.003057564    2.619    0.618
         5 -11.4909     13.6641     11.6565   8.2355736026e+01   7.1567340348e+01    0.2560562    0.1510106 -15.68  0.001165639    1.487    0.327
         6 -12.3899     24.7006      3.2156   7.2139854723e+01   7.1410477340e+01    0.5141954    0.2284627  27.76  0.002772762    2.083    0.520
         7 -12.1831     15.8025      5.6688   7.8176852653e+01   7.2161945725e+01    0.4697906    0.2446355   1.99  0.002561565    2.165    0.538
         8 -13.0729      6.0490     10.3441   8.6080023363e+01   7.2454137650e+01    0.8291053    0.4075655 -23.07  0.004768922    1.835    0.455
         9 -11.8839     19.9310     13.1145   7.9649009373e+01   7.0710646604e+01    0.3171378    0.1712869 -16.92  0.001794642    1.808    0.447
        10 -10.2632     40.7034      2.1482   6.4047822449e+01   6.9250928974e+01     0.234561    0.1094751  33.24  0.001256135    1.861    0.463
        11 -10.2726    167.4758      1.5167   3.4924759903e+01   4.2465537235e+01    0.1227834    0.1048512  78.59 4.819296e-05    1.025    0.024
        12 -11.6038      3.4502    241.7547   1.2426711184e+02   2.2213070129e+01    0.3796996    0.2010152  63.72  0.002073056    1.528    0.346
        13 -11.1144    233.5971    250.0373   7.9867474852e+01  -9.1458352212e+00    0.3528329    0.1615289  25.86  0.001913262    1.965    0.491
        14 -12.7965    237.1915    225.8132   7.5162297402e+01  -6.3084366032e+00     0.622786    0.3669427   2.22  0.003440942    1.799    0.444
        15 -12.4521    234.9094    242.6082   7.8421809577e+01  -8.3321232605e+00    0.8857787    0.4225464  -1.79  0.003717013    3.544    0.718
        16 -12.6684    248.2972    211.8735   7.0743538302e+01  -5.7403189544e+00    0.6032938    0.4598297 -11.75  0.004017597    1.024    0.023
        17 -12.0316    249.0396    247.6340   7.6777188525e+01  -1.0660293941e+01    0.6542311    0.3603285 -23.80  0.003362375    1.587    0.370
        18 -12.6448    248.0996    222.4239   7.2660258724e+01  -7.2147142177e+00    0.6613622    0.4247399 -17.06   0.00411462    1.314    0.239
        19 -12.5229    245.5871    241.2222   7.6314419218e+01  -9.4411699521e+00     1.230824    0.4889906 -16.04  0.004266815    5.276    0.810
        20 -12.9220    248.6937    231.8812   7.4200062332e+01  -8.5802020836e+00    0.8929981    0.4528041  17.95  0.004430457    2.010    0.503
        21 -12.0771    225.5924    246.9345   8.0808228349e+01  -7.7492170607e+00    0.4172533    0.2408904  22.91  0.002496282    1.506    0.336
        22 -11.0891    104.5346    250.4850   1.0535724537e+02   8.6751732140e+00    0.2665619    0.1042589  35.51  0.001213292    2.175    0.540
        23 -11.6310     74.9336    249.4508   1.1122856609e+02   1.2838747112e+01    0.4838296    0.1762129  48.18  0.002201134    2.438    0.590
        24 -11.2542     51.2494    249.3469   1.1586108106e+02   1.5770714664e+01    0.4561737    0.1470176  41.04  0.002159095    2.402    0.584
        25 -11.3344     37.1391    247.5556   1.1842071516e+02   1.7714520992e+01     0.448908    0.2046427  61.24  0.002398051    2.086    0.521
        26 -11.6758     20.6364    248.0806   1.2150476077e+02   1.9351940921e+01    0.3637089    0.1793334  58.48  0.002034381    1.687    0.407
        27 -11.0471    135.5097    243.5253   9.8107342560e+01   5.4609349830e+00     0.276577     0.108905  35.51  0.001212033    2.176    0.540
        28 -11.4751    116.3751    242.8656   1.0202309053e+02   8.3780884154e+00    0.2626564    0.1441377  51.60  0.001315004    1.908    0.476
        29 -10.8303     98.5253    243.4919   1.0582077689e+02   1.0797851372e+01    0.2432648   0.08752224  43.78   0.00104161    2.399    0.583
        30 -11.5912     84.8628    242.8734   1.0858104914e+02   1.2782557591e+01    0.3101771    0.1384822  45.91  0.001512638    1.949    0.487
        31 -12.2956    226.7786    239.1727   7.9318480993e+01  -6.8423472016e+00    0.3566007    0.2024337 -10.78  0.001944411    1.884    0.469
        32 -11.4207     30.0369    239.2742   1.1922161846e+02   2.0093755251e+01    0.3900449    0.1863951  63.80  0.002120331    1.984    0.496
        33 -11.4717     15.8866    238.8744   1.2186211674e+02   2.1606780042e+01    0.5019978    0.1866583  47.46  0.002683925    2.134    0.531
        34 -11.6574    108.1203    239.8117   1.0338784795e+02   1.0133820842e+01    0.3597049    0.1330436  43.47  0.001532531    2.387    0.581
        35 -11.3170     72.7338    239.1034   1.1070540289e+02   1.5110681794e+01    0.3004032    0.1478844  56.35    0.0014822    2.079    0.519
        36 -10.1985     38.3849    238.8825   1.1758312349e+02   1.9271168828e+01    0.2423989    0.1114868  54.25  0.001289288    1.915    0.478
        37 -10.3951     45.7931    236.0081   1.1590638929e+02   1.9013527019e+01     0.187821    0.1030416  55.52  0.001056743    1.615    0.381
        38 -11.0141      6.5247    234.6641   1.2336506774e+02   2.3321915580e+01    0.2922482    0.1597896  65.61  0.001495247    1.520    0.342
        39 -12.5007    238.9985    216.8766   7.3261862093e+01  -5.2556514776e+00    0.6349899    0.3069231 -14.01  0.002759176    2.899    0.655
        40 -10.6010     95.1744    234.3909   1.0549906638e+02   1.3014189075e+01    0.1943184   0.09795601  44.68 0.0008223209    1.759    0.431
        41 -11.2451     57.6003    240.7345   1.1392751178e+02   1.6681601271e+01    0.4078234    0.1650357  55.18  0.001881613    2.497    0.599
        42 -10.5752     14.6272    230.6418   1.2162977365e+02   2.3373361647e+01    0.2822028    0.1580889  67.85  0.001726266    1.546    0.353
        43 -11.5239    216.3573    237.9881   8.1048217407e+01  -5.3091112790e+00    0.4917915    0.1904683  26.85  0.002186222    2.611    0.617
        44 -10.7828     39.8319    229.9911   1.1663711849e+02   2.0909527922e+01    0.2100641    0.1091934  71.25  0.001092567    2.022    0.506
        45 -11.3498     26.6848    227.8951   1.1911475449e+02   2.2743326849e+01     0.450234    0.1659529  86.98  0.001810418    3.691    0.729
        46 -11.3000      4.9748    226.7941   1.2324549303e+02   2.5044524487e+01    0.3384728    0.1765542  62.02  0.002055027    1.620    0.383
        47 -10.5607    217.2653    224.5088   7.8586225734e+01  -3.4426927137e+00    0.2103042    0.1516454 -27.63 0.0004030553    1.314    0.239
        48 -10.3657     11.3915    224.3910   1.2188724118e+02   2.4956489159e+01    0.2629448    0.1373146  63.71  0.001539525    1.677    0.404
        49 -10.5492     19.0096    220.4897   1.2014731428e+02   2.5051463304e+01    0.2407368    0.1336957  78.42  0.001383547    1.669    0.401
        50 -11.4148      2.1838    219.4880   1.2338959353e+02   2.6792071339e+01    0.3285528    0.1594826  86.26  0.001864504    1.824    0.452
        51 -11.1389     12.7582    215.5987   1.2108572756e+02   2.6675054725e+01    0.3764139    0.1772626  64.05  0.002006949    1.997    0.499
        52 -11.2703      2.4909    211.1409   1.2287038221e+02   2.8524999648e+01    0.3051491    0.1524644  74.49   0.00170978    1.816    0.449
        53  -9.7736    154.4667    209.8642   8.8927664753e+01   8.7313795841e+00    0.1868483     0.135777 -45.77 0.0005286584    1.470    0.320
        54 -11.3706    240.1257    205.6622   7.1022980271e+01  -3.7363286540e+00    0.2560753    0.1586311 -24.41  0.001195156    1.405    0.288
        55  -9.6170    123.9039    205.9203   9.5209597529e+01   1.4503418115e+01    0.1727038    0.1510715  58.70 0.0009838176    1.206    0.171
        56 -12.9194    248.9871    186.9568   6.5979637001e+01  -2.0829236429e+00    0.9640019    0.3415952 -27.59  0.003199771    3.500    0.714
        57 -11.4288    247.0515    203.6637   6.9454653505e+01  -4.3692293734e+00    0.3437515    0.2134379 -27.27  0.001812647    1.360    0.265
        58 -13.1080    248.0915    196.9498   6.8026758993e+01  -3.4972924221e+00    0.7555459    0.6172168  27.78  0.004756105    1.414    0.293
        59 -10.2649      1.4097    204.7549   1.2271967276e+02   2.9988785933e+01    0.1629206   0.08796386 -70.64 0.0009538321    1.647    0.393
        60 -11.9566     12.6515    202.9794   1.2027736951e+02   2.9422985705e+01    0.3662142    0.2041556  55.02  0.002126592    1.634    0.388
        61 -11.8104      3.8197    195.3795   1.2164076272e+02   3.1857767874e+01    0.3709459    0.1848084  80.89  0.001982185    1.875    0.467
        62 -11.7343      4.3304    187.2535   1.2098484954e+02   3.3649060723e+01    0.3478228    0.1677337  62.06  0.001812206    2.039    0.510
        63 -10.4832     12.3165    182.9707   1.1886958982e+02   3.3989207678e+01    0.2105368    0.0754342  81.04 0.0007048283    4.335    0.769
        64 -14.5209    247.0199    162.1799   6.1427311851e+01   2.1752051689e+00     1.947596    0.5973125 -34.15  0.007151896    3.083    0.676
        65 -10.2453     11.3309    165.6644   1.1763492525e+02   3.8150191919e+01    0.1336655   0.07907517  67.31 0.0007052143    1.732    0.423
        66 -11.0648      1.6749    163.4857   1.1981723872e+02   3.9371718521e+01    0.2282626   0.09343917 -76.28  0.001084458    1.990    0.497
        67 -10.6682      9.9999    154.4942   1.1692167277e+02   4.0938663969e+01    0.1774176   0.07848818  50.83  0.000810118    2.505    0.601
        68 -11.3964      2.3339    176.9263   1.2069710297e+02   3.6174007764e+01      0.31006    0.1674779  81.87  0.001685299    1.718    0.418
        69 -11.1218      6.5050    170.4916   1.1922292204e+02   3.7370244992e+01      0.23097   0.09891638 -89.58  0.001039517    2.334    0.571
        70  -9.4154     92.6395     90.8811   7.8954309310e+01   4.6380385652e+01    0.1874592     0.136794 -53.35 0.0001824691    1.467    0.318
        71 -12.2648    212.3361    246.0777   8.3120651569e+01  -5.9223647900e+00    0.5565065    0.2987615  -0.07  0.002694689    2.488    0.598
        72 -11.9942      2.5253     39.4336   9.9323462712e+01   6.7735946146e+01    0.3897703    0.1498906 -50.19  0.001995473    1.943    0.485
        73 -12.2302    168.5165    248.6450   9.2056746074e+01  -2.2223509754e-01    0.4943422    0.2124336  28.36   0.00226231    2.202    0.546
        74 -11.4927     65.8926    247.9228   1.1288831154e+02   1.4271604992e+01    0.3668143    0.1945907  56.88  0.002010243    1.784    0.439
        75 -11.1675      4.0266    249.5798   1.2452424656e+02   2.0670722228e+01    0.2881306    0.2145396  36.11  0.002183643    1.500    0.333
        76 -10.6693     19.3055     29.2650   8.7120175373e+01   6.8299499269e+01    0.2517344     0.112348 -32.23    0.0012713    2.003    0.501
        77 -10.9927     12.5309    247.7244   1.2294252015e+02   2.0219346116e+01    0.3535648    0.1498058  55.12  0.001818447    1.904    0.475
        78 -12.0941    127.4035    246.6601   1.0019931184e+02   6.0976800560e+00    0.4006232     0.121553  38.79  0.001594807    2.716    0.632
        79 -12.6137    144.1217    245.4163   9.6575322190e+01   3.8652675906e+00    0.4287055     0.202501  33.07  0.002074664    1.843    0.457
        80 -12.0796    194.0448    243.3697   8.6192232629e+01  -3.0423789677e+00    0.3988443    0.1870777  18.27    0.0017504    2.650    0.623
        81 -10.5507     26.6086     15.1761   7.7182541774e+01   6.9659943228e+01    0.1716281   0.09057106 -24.32  0.000951307    1.754    0.430
        82 -11.5027     87.1192    250.3813   1.0887617565e+02   1.1069396872e+01    0.4490511    0.1253839  33.86  0.001746848    3.209    0.688
        83 -10.8641     45.3507    243.4419   1.1655967031e+02   1.7591122925e+01    0.2812664    0.1659175  54.06   0.00171019    1.434    0.302
