#   1 NUMBER                 Running object number                                     
#   2 MAG_AUTO               Kron-like elliptical aperture magnitude                    [mag]
#   3 X_IMAGE                Object position along x                                    [pixel]
#   4 Y_IMAGE                Object position along y                                    [pixel]
#   5 X_WORLD                Barycenter position along world x axis                     [deg]
#   6 Y_WORLD                Barycenter position along world y axis                     [deg]
#   7 A_WORLD                Profile RMS along major axis (world units)                 [deg]
#   8 B_WORLD                Profile RMS along minor axis (world units)                 [deg]
#   9 THETA_WORLD            Position angle (CCW/world-x)                               [deg]
#  10 FWHM_WORLD             FWHM assuming a gaussian core                              [deg]
#  11 ELONGATION             A_IMAGE/B_IMAGE                                           
#  12 ELLIPTICITY            1 - B_IMAGE/A_IMAGE                                       
         1 -10.9295     19.5037     16.9942   3.8196340592e+01   7.4898931573e+01    0.3348908    0.2134919 -30.86  0.001187499    1.600    0.375
         2 -10.2439     23.7624     16.7763   3.4885254410e+01   7.4325520512e+01    0.3434509    0.2136471 -57.53  0.001405927    2.190    0.543
         3 -11.7310     13.2880     12.8175   4.0617832067e+01   7.6453947262e+01    0.5147099    0.2928403 -21.11  0.002523949    2.195    0.544
         4 -10.8609     49.4634     14.2679   1.8320368340e+01   7.0025579859e+01    0.3047345    0.2421524  37.29 0.0008508437    1.176    0.150
         5 -10.4818     45.3774     12.1028   1.8910859570e+01   7.1150936846e+01    0.2690883    0.2058625  45.90 0.0005563159    1.208    0.172
         6 -10.0550     35.1313     13.8024   2.5505072638e+01   7.2901083870e+01    0.2418776    0.1889603 -39.88 0.0006508821    1.391    0.281
         7 -10.5465     32.4857     10.0892   2.4622095349e+01   7.3914936599e+01    0.2636825    0.2051188 -22.04  0.001136729    1.319    0.242
         8 -10.3092     27.8992     12.7328   2.9369978959e+01   7.4326338542e+01     0.366753     0.173041 -43.68  0.001710304    2.294    0.564
         9  -8.9954    142.2192     10.0166   3.5499986739e+02   4.7974394195e+01    0.1570567    0.1046625 -30.46 0.0008410322    1.567    0.362
        10  -9.5183     69.4934      9.5243   8.0805834896e+00   6.6102497404e+01    0.2048946    0.1313126  -5.30 0.0007090131    2.004    0.501
        11 -10.0214     54.9199      9.1351   1.2898440132e+01   6.9479282696e+01    0.2720487    0.1709909 -31.67   0.00143251    1.701    0.412
        12  -9.9412    115.3456      8.7366   3.5794659790e+02   5.4824252897e+01    0.2217279    0.1761218 -68.23 0.0003096206    1.209    0.173
        13  -9.1057    219.0072      8.7212   3.4896872909e+02   3.0940956826e+01    0.1319372   0.08977549 -85.26 0.0003849377    1.403    0.287
        14 -10.9557    124.0425      6.7619   3.5600801802e+02   5.2817367184e+01    0.3598008    0.2128834 -81.37  0.001730598    1.709    0.415
        15 -10.3752     97.2036      5.7582   3.5969141560e+02   5.9675443810e+01    0.4424152    0.1951191 -42.56  0.001934028    2.344    0.573
        16 -11.2344     85.4841      7.1913   2.7162913429e+00   6.2464509160e+01    0.2737256    0.2381291 -46.86  0.000866417    1.229    0.187
        17  -8.7562     40.2922      8.3299   1.9009192180e+01   7.2657859547e+01    0.1324219   0.09200726  18.72 0.0003491438    1.627    0.386
        18  -9.4573     78.4921      7.5320   4.5462835046e+00   6.4145938741e+01    0.1335757    0.1201431  62.93 7.394954e-05    1.011    0.011
        19 -11.0063     16.5769      2.8571   3.0598189405e+01   7.7615704142e+01     0.328368    0.2321351 -19.29  0.001426555    1.446    0.309
        20 -11.2411    174.4955      3.2310   3.5019546108e+02   4.0951797961e+01    0.3206162    0.1757201 -70.34  0.001318982    1.643    0.391
        21 -11.1997    113.7112      2.1040   3.5559302710e+02   5.5832339829e+01    0.2893658     0.252419  87.97 0.0009645873    1.009    0.009
        22  -9.7213     30.9775      3.9767   2.1168194979e+01   7.5003172809e+01    0.2119532    0.1390209  18.38  0.001136546    1.748    0.428
        23  -9.1338    101.6109      3.7102   3.5804215867e+02   5.8747481193e+01    0.1434558   0.08652887  45.61 0.0007009382    1.764    0.433
        24  -9.0501    229.5335      1.9897   3.4702528536e+02   2.9607016739e+01    0.1287381   0.09472312   2.75 0.0006598032    2.336    0.572
        25  -9.8513    178.9599      1.4669   3.4943054570e+02   4.0108019318e+01    0.1767913    0.1077645  84.34 0.0003628173    1.527    0.345
        26  -9.7271     91.6622    116.0944   4.0375754880e+01   4.0552678010e+01    0.2195204    0.1975305 -54.75 0.0006365102    1.098    0.090
        27  -9.7043     20.7867    116.2169   6.6306223252e+01   5.0433424718e+01    0.2064335    0.1595833 -45.80  0.001070201    1.361    0.265
        28 -10.1778     79.5167    110.5166   4.3028634258e+01   4.4152978365e+01    0.2296243    0.1851555 -25.95 0.0007234863    1.489    0.328
        29  -9.9233     96.0347    111.7280   3.7937502477e+01   4.0806315566e+01    0.2654887    0.2160479 -52.67 0.0005742822    1.207    0.171
        30  -9.6698    103.0071    105.9892   3.4338494946e+01   4.0815578212e+01    0.2592481    0.1909734  77.99  0.001133627    1.755    0.430
        31 -10.1512      1.8464    104.7240   7.2747100505e+01   5.4916785334e+01    0.2441571    0.1660366 -63.13 0.0009770858    1.339    0.253
        32  -9.5531     76.9482    103.4755   4.2174692536e+01   4.6396223695e+01    0.2271391    0.1544598  35.91 0.0005346705    1.518    0.341
        33  -9.5733     48.3233    102.2889   5.2784166694e+01   5.1225554371e+01    0.1535829    0.1136798 -29.20 0.0003481987    1.607    0.378
        34 -11.0419    246.9908    100.9957   6.4294190380e+00   1.4175546965e+01    0.1818247    0.1320128 -10.58  0.001149805    1.741    0.426
        35 -11.5533     27.7789     99.9030   6.0954425515e+01   5.4289314755e+01    0.4697443    0.2638752 -30.03  0.001928013    2.311    0.567
        36  -9.7305     69.7651     98.5726   4.3518219696e+01   4.8895971307e+01    0.2884603    0.1552368  31.06  0.001128913    2.032    0.508
        37 -10.9279    102.9250     95.5747   3.1520168669e+01   4.3251414218e+01    0.3387028    0.2318731 -43.14  0.001514818    1.481    0.325
        38 -11.2668     64.5593     96.1492   4.4863834883e+01   5.0391897952e+01    0.3533959     0.305274  52.39 0.0006189141    1.183    0.155
        39  -9.4696      4.9789     95.5202   7.0421173635e+01   5.7260436748e+01     0.315017   0.09392699 -46.18  0.001043743    3.451    0.710
        40 -10.1828     90.2636     94.2572   3.5129543078e+01   4.6142673413e+01    0.2853561    0.2398064  62.10  0.000590088    1.245    0.197
        41 -11.6751     17.4164     94.6174   6.4667982928e+01   5.6661469422e+01    0.5272764    0.2572761  26.00  0.002271374    2.105    0.525
        42  -9.2541    108.6670     90.3395   2.8328108542e+01   4.3205759549e+01    0.1631465    0.1212786 -87.52 -0.0001249073    1.747    0.428
        43  -9.0656    132.6352     91.2844   2.2351079183e+01   3.7745327910e+01    0.1564627    0.1168902 -85.93 0.0007019139    1.689    0.408
        44 -10.0813      2.8303     87.3860   7.0439893898e+01   5.9581083903e+01    0.2654928    0.1689214 -42.41 0.0006544479    1.578    0.366
        45 -10.9107     12.0846     85.6989   6.5745645659e+01   5.9477874362e+01    0.2586749    0.1848688 -63.54 0.0003994953    1.255    0.203
        46  -9.3201    160.1504     81.1624   1.3823979940e+01   3.3559165505e+01    0.2028149    0.1557948 -64.01 0.0004455445    1.317    0.241
        47 -11.4273     54.4917     78.3775   4.4037904962e+01   5.6503702598e+01    0.3892798    0.3053418  62.19 0.0007080545    1.449    0.310
        48  -9.6760    143.8885     77.1586   1.5836655130e+01   3.7940056558e+01    0.2273026    0.1906694 -74.39 0.0006794677    1.213    0.176
        49 -10.3066    235.2372     74.9722   2.2878207001e+00   1.9723666609e+01    0.1706547   0.08052542 -37.48 0.0008881699    1.645    0.392
        50 -10.5998      3.2393     74.4402   6.8451589816e+01   6.3013749736e+01    0.3561566     0.207428 -72.87   0.00174365    1.533    0.348
        51 -10.7630     70.0962     72.0996   3.5542456313e+01   5.5250236918e+01    0.3507337    0.2680718 -27.59   0.00149004    1.539    0.350
        52 -11.9791     64.1137     69.5664   3.7104174032e+01   5.6946130911e+01    0.2627307    0.2507374 -52.18 0.0002548604    1.036    0.035
        53 -10.1479      7.9240     68.9488   6.4972310008e+01   6.4185660556e+01    0.2061073    0.1879002 -59.67 0.0005170821    1.009    0.009
        54  -9.8611    192.1215     65.7959   4.9447553151e+00   2.9197217125e+01    0.1960485    0.1529656 -59.66  0.000334457    1.151    0.131
        55  -9.2332    204.4590     65.5051   3.3960976201e+00   2.6737559074e+01    0.1334569    0.1057247 -53.43 0.0001689942    1.056    0.053
        56 -10.2543     78.7892     63.4790   2.9216164418e+01   5.5386521241e+01     0.389111    0.2049717 -61.99  0.001214363    2.754    0.637
        57 -10.4660      4.4886     63.6435   6.5908257408e+01   6.5755578600e+01    0.2762366    0.1962708 -57.25 0.0008981865    1.241    0.194
        58 -10.7066      3.1633     59.4019   6.5865335615e+01   6.6907393468e+01    0.3416457    0.2600495 -14.11  0.001391006    1.387    0.279
        59 -10.6296     99.8139     62.7405   2.2044871603e+01   5.0896914561e+01    0.4192592    0.2305117 -55.05  0.001670106    2.080    0.519
        60 -10.6630    231.4908     60.3300   3.5950392100e+02   2.2380183345e+01    0.1990591    0.1757492 -67.20 0.0009388251    1.194    0.162
        61  -9.6545    114.4505     60.9811   1.7447033258e+01   4.7796788987e+01    0.2224938    0.1955636  63.65 0.0004300001    1.125    0.111
        62 -11.5236     21.9293     58.9956   5.4598821024e+01   6.5574876788e+01      0.43646    0.2757132 -63.43 0.0008200408    1.518    0.341
        63 -10.4101    124.9284     59.8172   1.4565312656e+01   4.5497953126e+01     0.230637    0.2071944 -47.68 0.0003606146    1.114    0.102
        64 -10.1251     14.4939     60.8756   5.9446590792e+01   6.5781387872e+01    0.3982447   0.08348601  19.95  0.001178825    4.783    0.791
        65 -10.9370     66.5665     58.1617   3.1958740695e+01   5.8977133049e+01    0.3445358    0.2589967 -73.29  0.001642742    1.685    0.407
        66 -10.2250     29.1897     56.9777   4.9812126119e+01   6.5261840597e+01    0.3341522    0.1713723 -26.23  0.001253297    2.940    0.660
        67 -10.6571      8.4895     56.0463   6.1867033391e+01   6.7431960245e+01    0.3192356    0.2131601 -87.46  0.001631786    1.684    0.406
        68  -9.1660     45.4868     56.5007   4.0932191970e+01   6.3096070204e+01    0.1412058    0.1374342 -24.27 0.0001218732    1.009    0.009
        69  -9.3795     99.4622     55.4616   1.9529515841e+01   5.2334987779e+01    0.1473883    0.1419703  84.10  0.000106589    1.013    0.013
        70 -10.4697     75.0746     64.5207   3.0973114285e+01   5.5934815792e+01    0.2581366    0.2001586  80.21 0.0009488263    1.636    0.389
        71  -9.7757    104.1352     54.2269   1.7771063838e+01   5.1453187424e+01    0.2232815    0.2003286  34.96 0.0008546975    1.238    0.192
        72  -9.8859     88.5614     52.8553   2.1862767392e+01   5.5327401942e+01    0.2372746    0.1953667  43.80 0.0004381313    1.234    0.190
        73 -10.5001    247.9922     52.7585   3.5658361610e+02   2.0522942264e+01    0.1309809    0.0940094  80.25 0.0009001536    1.665    0.400
        74  -9.6292     64.3732     50.2843   2.9734021555e+01   6.1010356361e+01    0.2289002     0.174475   0.72 0.0006879735    1.764    0.433
        75 -11.7859     93.9953     48.5325   1.8508002774e+01   5.4839651142e+01    0.2864437     0.236481 -48.27 3.790402e-05    1.229    0.186
        76 -10.6755      5.8810     46.5991   6.1123241140e+01   6.9914136650e+01    0.4366802    0.2190541 -34.10  0.002013132    2.035    0.509
        77 -11.3642     39.6026     43.3936   3.8743529469e+01   6.6854089007e+01     0.440035    0.3123097  25.52  0.001307599    1.462    0.316
        78 -10.2044     97.7371     43.9220   1.5634058127e+01   5.4722520315e+01    0.2348679    0.1971922  59.82 0.0003226019    1.149    0.129
        79  -9.9451    111.8897     50.9322   1.4577920654e+01   5.0156589412e+01    0.2228014    0.1947698  29.90 0.0006020123    1.345    0.256
        80  -9.1992     31.6682     43.6908   4.3425583580e+01   6.7963190967e+01    0.1436067    0.1011458 -17.94 0.0005223572    1.669    0.401
        81 -10.8209    185.8516     41.5004   3.5946786260e+02   3.3998953909e+01    0.2312621    0.1928258 -52.23 0.0002624201    1.069    0.064
        82  -9.6365    118.9821     40.9551   9.3783432285e+00   4.9986080875e+01    0.2328007    0.1753509  26.00  0.001134784    1.795    0.443
        83  -9.0350    212.4687     40.4972   3.5669349344e+02   2.8565481399e+01    0.1284446   0.09669749 -55.32 8.235675e-05    1.057    0.054
        84 -10.4078    158.8803     39.2552   2.0800214540e+00   4.0470889347e+01    0.2243947    0.1917212 -67.05  0.000333986    1.025    0.025
        85  -9.4315      1.3014     39.7452   6.2454581473e+01   7.1816591868e+01    0.1784981   0.09883478 -58.52 0.0004192709    1.561    0.360
        86 -11.1867     80.3772     36.5051   1.7787464349e+01   5.9996697048e+01    0.5217488    0.3368624  74.24  0.002353626    1.949    0.487
        87  -9.3776     80.6458     31.6896   1.5551175331e+01   6.0670252592e+01    0.1950305    0.1497073  -9.31 0.0009169136    1.621    0.383
        88  -9.2447     57.3022     39.3071   2.8004701565e+01   6.4493229600e+01      0.14088    0.1093916   5.24 0.0002877084    1.600    0.375
        89  -9.5599     96.0307     37.9856   1.3731476579e+01   5.6065121219e+01    0.2132469    0.1976657  65.63 0.0003910212    1.037    0.036
        90  -9.8006     64.4529     38.4900   2.4551480343e+01   6.3182637970e+01    0.2652439     0.134047  59.32  0.001040483    2.449    0.592
        91 -10.0839     47.1744     35.8577   3.1227961763e+01   6.7046706116e+01    0.2556138     0.189035 -40.65 0.0003389472    1.372    0.271
        92 -10.0606     51.6762     33.2697   2.7722666398e+01   6.6666924142e+01    0.1987706    0.1789219 -24.38 0.0004900408    1.130    0.115
        93 -10.1576     48.6165     32.1762   2.8673385023e+01   6.7441810112e+01    0.2278362    0.2010174  24.05 0.0004181521    1.104    0.094
        94 -10.9107     39.9357     35.4056   3.4882389400e+01   6.8393586533e+01     0.404293    0.2280651  49.27  0.001848199    2.025    0.506
        95 -10.4228    119.1565     35.0237   7.1963073291e+00   5.0791367807e+01    0.2280351     0.193325  72.47 0.0003215547    1.119    0.106
        96  -9.8413    227.7601     31.9688   3.5360887526e+02   2.6664607696e+01    0.1569789    0.0813987 -35.75 0.0004038325    1.592    0.372
        97 -10.3444     92.4194     31.1720   1.1873491266e+01   5.7937010308e+01    0.2476459    0.2105276  84.66 0.0003016163    1.196    0.164
        98 -10.1476     17.8301     31.2802   4.7080786333e+01   7.2334879687e+01     0.202983    0.1733939 -59.91 0.0004702568    1.280    0.219
        99 -10.3751      4.5706     31.5246   5.7297067169e+01   7.3499811813e+01    0.3484926    0.1627873  37.93  0.001310946    2.455    0.593
       100  -9.0756    154.0009     31.7999   4.8433154563e-01   4.2619459716e+01    0.1742299    0.1019065  72.68 0.0003665545    1.673    0.402
       101 -10.8134    128.1646     29.8193   3.6766325571e+00   4.9233396471e+01    0.3577901    0.2543232  35.78  0.001009522    1.810    0.447
       102 -10.8553     59.2759     28.4026   2.1826894902e+01   6.5935500273e+01    0.4733925    0.2867481 -15.57  0.002067205    2.402    0.584
       103 -10.1986     65.1765     28.6706   1.9563790499e+01   6.4627683338e+01    0.3116433     0.210608  31.88  0.001185065    1.661    0.398
       104  -9.8751    104.0040     28.2778   7.8158996570e+00   5.5478990088e+01    0.1972248    0.1695503  74.49 0.0002323197    1.088    0.081
       105 -11.2957     47.1544     26.5895   2.6489210587e+01   6.8666929632e+01    0.3120487     0.250251   4.56 0.0001232279    1.400    0.286
       106 -11.0796     39.2440     24.2627   2.9439141131e+01   7.0515511523e+01    0.4374393     0.384215 -73.63  0.002602091    1.481    0.325
       107  -9.9815    160.3974     27.1064   3.5828721261e+02   4.1670475812e+01     0.216119    0.1693307  69.50 0.0004971021    1.306    0.234
       108 -10.6681     88.3629     25.2953   1.0405466244e+01   5.9719439754e+01    0.3541847    0.1872375 -51.82  0.001508847    2.254    0.556
       109 -10.0967    111.0828     24.9525   5.0022768996e+00   5.4131022616e+01    0.2706636    0.1823076  68.57 0.0007812334    1.388    0.279
       110  -9.4070     83.1897     24.8804   1.1665364609e+01   6.1021503007e+01    0.1912123    0.1551655  36.28  0.000414943    1.308    0.236
       111 -10.0642    239.3083     23.8686   3.5117116053e+02   2.5487350061e+01    0.2439048   0.05984185 -38.06  0.001098811    2.568    0.611
       112  -9.1536    128.9897     24.0505   1.5149700040e+00   4.9740414558e+01    0.1641069    0.1453701 -84.68 0.0003377192    1.012    0.012
       113 -10.5471     98.3845     22.7143   6.7900960434e+00   5.7580968419e+01      0.24162    0.2189269  53.51 0.0004331699    1.118    0.105
       114 -10.5139      2.1408     22.0886   5.5552079486e+01   7.5725050709e+01    0.3185902    0.1703488 -79.11  0.001452061    2.765    0.638
       115  -9.7482    196.2189     22.4363   3.5364105971e+02   3.4111444891e+01    0.1697586    0.1018352 -79.26  0.000568372    1.619    0.382
       116  -9.1412     56.3584     22.1809   1.9795285787e+01   6.7486654309e+01    0.1776927    0.1234283 -44.00 0.0004269287    1.575    0.365
       117  -9.5996    138.6617     21.7330   3.5931083418e+02   4.7599236351e+01    0.1331447   0.09834732  45.70 0.0002882514    1.595    0.373
       118  -9.8808     66.5163     20.8989   1.5109226365e+01   6.5437794511e+01    0.1976427    0.1718791  51.92 0.0003631117    1.073    0.068
       119  -9.4329    159.2401     20.4335   3.5642945190e+02   4.2729126799e+01    0.1748971    0.1138476 -85.09 0.0003732271    1.474    0.321
       120  -9.3253    104.0246     20.3075   4.5637638707e+00   5.6459183210e+01    0.1932773    0.1650357  72.76 0.0004934461    1.078    0.073
       121 -10.1253     81.4751     19.4690   9.6179323285e+00   6.2119877045e+01    0.4590214    0.1443083  68.58  0.001340106    4.495    0.778
       122  -9.7666    109.1535     18.8443   2.9636370380e+00   5.5337456333e+01      0.21855    0.1766889 -75.98 0.0008996613    1.223    0.182
       123  -9.5568     48.4420     19.3498   2.1803096451e+01   6.9533031165e+01    0.1668795     0.127087 -43.50 0.0009254552    1.445    0.308
       124 -10.6944      9.1783    183.4760   7.5564559549e+01   3.3545010938e+01    0.3699411    0.1985044  54.81  0.001671004    1.605    0.377
       125 -10.0799      1.4875    182.0535   7.7598155362e+01   3.4490933721e+01    0.3483688    0.1090658  86.89  0.001221641    3.237    0.691
       126 -10.0435     85.7786     15.9345   6.7970578511e+00   6.1488269200e+01    0.3060374    0.1684149  62.65  0.001440182    1.649    0.393
       127  -9.9128     66.7331     16.3657   1.2646766083e+01   6.5967844418e+01    0.1992721    0.1115977  50.04 0.0007261642    1.630    0.387
       128 -10.2839     20.1846    174.5698   7.1952617262e+01   3.4818608938e+01    0.2948707    0.1407399  46.81  0.001343223    1.834    0.455
       129 -10.3687    183.3864     14.9186   3.5269490287e+02   3.7753456830e+01    0.2129352    0.1461644 -76.26 0.0005471361    1.297    0.229
       130 -10.0443    224.3817    173.2086   2.3168973390e+01   6.6525749082e+00    0.1665691   0.09401775 -42.47 0.0007437054    1.681    0.405
       131 -10.4304     21.4909    170.1669   7.1261809624e+01   3.5820528087e+01    0.2435358    0.2132279  36.81 0.0005168125    1.169    0.145
       132  -9.6744    111.9044     13.8422   4.8750996472e-01   5.5185357411e+01    0.4023682    0.1590043  68.49  0.001633158    2.272    0.560
       133 -10.1570      3.0719    156.0905   7.5939340013e+01   4.0952896025e+01    0.2060793    0.1758248  75.56 0.0004192893    1.015    0.015
       134  -8.9388     42.3048    154.7034   6.3407576451e+01   3.7741253604e+01     0.153832   0.09799761  60.11 0.0002620766    1.584    0.369
       135  -9.9823     39.9548    147.6958   6.3332294524e+01   3.9879857186e+01    0.2060645    0.1770448  51.30 0.0004961218    1.113    0.102
       136  -9.3006    162.3408     11.7023   3.5354207827e+02   4.2936975103e+01    0.1421282    0.0791331 -62.84 0.0007033659    1.664    0.399
       137  -9.6896     24.8488    146.1559   6.8177287217e+01   4.1844691193e+01    0.2225966    0.1774485  60.12 0.0006922217    1.170    0.146
       138 -10.7493     21.5238    141.5044   6.8845683684e+01   4.3408288598e+01    0.2939431     0.236774  87.64 0.0005953104    1.136    0.120
       139 -10.4027     18.6328    141.2949   6.9812848245e+01   4.3715579628e+01    0.2907593    0.1902994  58.04 0.0007534517    1.465    0.317
       140  -9.6198      6.7859    142.9845   7.3951383749e+01   4.4173233890e+01    0.1904492    0.1016035 -81.74 0.0008693747    1.697    0.411
       141  -9.9776     28.5312    138.1900   6.6081389283e+01   4.3660621353e+01    0.2365228    0.1999927  27.75 0.0003482331    1.256    0.204
       142  -8.9680     91.6938    137.7169   4.5110459837e+01   3.5127339980e+01    0.1500023    0.1202009 -18.08 0.0001767009    1.561    0.359
       143 -10.2517     11.9039    137.4950   7.1796533954e+01   4.5287402513e+01    0.3282968     0.156925  28.85  0.001442512    2.042    0.510
       144  -9.7161     11.3342    134.0076   7.1704599282e+01   4.6280510031e+01    0.2004755    0.1640456 -88.81 0.0005656504    1.096    0.088
       145  -9.5488    109.0000    132.5038   3.8976628387e+01   3.3336792508e+01    0.3529406   0.08584218 -52.64 5.293388e-05    4.064    0.754
       146 -10.3506     18.0266    132.3853   6.9171914994e+01   4.6201282419e+01     0.354561    0.1624562  43.42  0.001479835    2.089    0.521
       147  -8.9636     46.4929    131.4411   5.8854462562e+01   4.3526792091e+01    0.1477819    0.1408394 -82.54 0.0008071869    1.049    0.047
       148  -9.2622      5.4892    125.4881   7.3112572765e+01   4.9012564412e+01    0.1402402    0.1240935  89.41 0.0001852271    1.018    0.017
       149 -10.6389    135.0253    124.2951   3.0286079117e+01   3.0241292265e+01    0.2074626    0.2000722  49.78 0.0005495577    1.077    0.072
       150  -9.9312     13.1265    117.5008   6.9465746231e+01   5.0687774205e+01    0.2175345     0.178366 -53.13 0.0003713317    1.243    0.195
       151 -10.2743      2.0569    117.9603   7.3804531707e+01   5.1280240867e+01    0.2102945    0.1811019  78.07 0.0003682986    1.062    0.058
       152  -9.9116     55.7061    117.2813   5.3029162069e+01   4.6163210439e+01    0.2506387     0.189892  44.51 0.0006015815    1.325    0.246
