#   1 NUMBER                 Running object number                                     
#   2 MAG_AUTO               Kron-like elliptical aperture magnitude                    [mag]
#   3 X_IMAGE                Object position along x                                    [pixel]
#   4 Y_IMAGE                Object position along y                                    [pixel]
#   5 X_WORLD                Barycenter position along world x axis                     [deg]
#   6 Y_WORLD                Barycenter position along world y axis                     [deg]
#   7 A_WORLD                Profile RMS along major axis (world units)                 [deg]
#   8 B_WORLD                Profile RMS along minor axis (world units)                 [deg]
#   9 THETA_WORLD            Position angle (CCW/world-x)                               [deg]
#  10 FWHM_WORLD             FWHM assuming a gaussian core                              [deg]
#  11 ELONGATION             A_IMAGE/B_IMAGE                                           
#  12 ELLIPTICITY            1 - B_IMAGE/A_IMAGE                                       
         1 -11.1977     46.4585     26.7990   3.7289504804e+01   6.7313129163e+01    0.5173659    0.2302812 -42.11  0.002300174    2.586    0.613
         2 -10.4115    116.8948     15.5905   1.3485079354e+01   5.2699851785e+01    0.2864099     0.184595 -24.33  0.001602189    1.950    0.487
         3 -11.7574    135.5374     11.8654   9.9427422544e+00   4.8798499302e+01    0.2188573    0.1769893 -84.81 0.0002820268    1.004    0.004
         4 -10.2158     91.8880      7.9591   1.5045561015e+01   5.9325790327e+01    0.2620825    0.1872328 -33.75  0.001132657    1.618    0.382
         5  -9.6972     83.9756      8.7201   1.6939120381e+01   6.1118653396e+01    0.2370853    0.1075168 -62.34 0.0009143177    3.593    0.722
         6  -9.2514     49.0371      8.2713   2.6940087213e+01   6.9114294967e+01    0.1842186    0.1422261  52.54 0.0006172858    1.076    0.070
         7 -10.3225     44.9341      7.6938   2.8301140337e+01   7.0050313328e+01    0.1876194    0.1848516 -41.21 0.0003488609    1.224    0.183
         8  -9.2252     68.1497      6.8201   1.9968322883e+01   6.4984940324e+01    0.1770562    0.1280786  47.32 0.0005339059    1.300    0.231
         9  -8.8135     88.6717      3.7080   1.4026799279e+01   6.0465755224e+01    0.1277389   0.08104419  47.55 0.0005791825    1.623    0.384
        10  -9.2244      7.5201      1.9800   4.7925415637e+01   7.7551210955e+01    0.1505591    0.1148983 -30.53 -8.613277e-06    1.448    0.309
        11  -8.9391    129.0265      1.2393   7.5846922334e+00   5.1265884206e+01    0.1551796   0.08475923  77.69 0.0003329218    1.534    0.348
        12  -8.7567     25.2929      1.6784   3.4621391593e+01   7.4634632620e+01    0.1106392   0.09465817  80.67 0.0006767815    1.611    0.379
        13 -10.7404     56.6079    229.8567   7.7390493808e+01   1.7730069906e+01     0.251805    0.1694096  22.87 0.0005118074    1.291    0.225
        14  -9.4296    237.6080    249.2509   4.1933742566e+01  -3.1285220173e+00    0.1809167   0.07616575 -40.92  0.001138086    2.073    0.518
        15 -10.2671    139.4841    248.5637   5.9552624923e+01   5.4103618514e+00    0.3107558    0.1854402 -41.10  0.001827894    1.692    0.409
        16  -9.5841    124.8313    249.6686   6.2875996053e+01   6.6953244275e+00    0.2037958    0.1435648 -29.02  0.000780872    1.411    0.291
        17  -9.5739     84.8985    250.5940   7.2214104483e+01   1.0601193988e+01    0.1944966    0.1035365  22.82 0.0003326347    1.547    0.353
        18 -11.3136     50.1218    246.0119   8.0335419294e+01   1.4938227863e+01     0.487222    0.3938662 -54.48  0.003080799    1.444    0.308
        19 -10.8237     54.4655    249.2726   7.9502233206e+01   1.3863154341e+01    0.5457641    0.2755868   8.19  0.002116085    2.145    0.534
        20 -11.5003     73.0997    230.9632   7.3215357860e+01   1.5780844750e+01     0.462707    0.2912514 -71.56  0.001124072    1.936    0.484
        21  -9.7978     69.4677    233.4118   7.4385517810e+01   1.5644353710e+01    0.2557394    0.1627562  25.20 0.0005443349    1.335    0.251
        22 -12.2545     70.0178    244.5751   7.5277031079e+01   1.3285042738e+01    0.6726474    0.4218926 -43.62  0.001615333    1.812    0.448
        23 -14.6083      8.8684    186.1821   8.7646368401e+01   3.2577653638e+01     2.732779     1.985771  69.90   0.01421576    1.351    0.260
        24 -13.5452     34.4487    227.5119   8.3048115218e+01   2.0383015289e+01     1.862395    0.8788644  83.78  0.007950454    2.836    0.647
        25 -14.8136     19.2531    211.1730   8.6123223032e+01   2.5515913684e+01     4.103127     1.431399 -89.96   0.01448441    3.726    0.732
        26 -12.5190      9.2791    215.8016   8.9116002459e+01   2.5200566024e+01    0.6937232    0.3766579  27.25  0.001602275    1.592    0.372
        27 -14.0506      2.5275    223.5454   9.1242819027e+01   2.3897498358e+01     1.755279    0.3784972 -81.92  0.005675192    4.967    0.799
        28 -12.4214     19.8646    233.5626   8.7213235483e+01   2.0298351471e+01    0.4015107    0.3732529  69.44 0.0008812136    1.152    0.132
        29 -14.4519     15.0560    226.8202   8.8116180291e+01   2.2198521833e+01     1.570483    0.9637153  67.11  0.008418499    1.661    0.398
        30 -14.3339      2.8254    248.3278   9.2045747666e+01   1.8471622924e+01     1.132747    0.6168774  26.28  0.002856073    1.502    0.334
        31 -14.2856     10.7734    239.1934   8.9773186871e+01   1.9798575735e+01    0.8824127    0.6826119  18.67  0.003136771    1.224    0.183
        32 -13.4632      7.3687    234.1385   9.0418943970e+01   2.1161118310e+01    0.5334817     0.392285  35.14  0.003273225    1.135    0.119
        33 -11.8053     49.3124    237.6822   7.9917219270e+01   1.6758511570e+01    0.5729046    0.3293278  45.79  0.002968307    1.640    0.390
        34  -9.1912    149.5946    239.1920   5.6207789437e+01   5.9730166454e+00    0.1686464   0.09680949 -33.99 0.0009008838    1.663    0.399
        35  -9.5438    217.4964    237.9089   4.3486277874e+01  -1.1161638923e-01    0.1535094    0.1120283  -7.94 0.0006175752    1.102    0.092
        36 -10.0491    102.9973    238.2244   6.6571889832e+01   1.1088159517e+01    0.2061796    0.1544842  -8.03   0.00121216    1.309    0.236
        37  -9.4411    211.0997    236.3984   4.4315029000e+01   6.2974006881e-01    0.1950467    0.1332445 -49.04  0.001325607    1.936    0.483
        38  -9.2322     88.4810    236.9780   6.9963028687e+01   1.2894819129e+01    0.1695242     0.108308  70.49  0.000809665    2.486    0.598
        39 -11.5596     63.9073    245.7740   7.6893425056e+01   1.3652886225e+01    0.4564638    0.2674244 -23.26  0.001302339    2.219    0.549
        40  -9.0556    120.3481    235.3165   6.2142583108e+01   9.7605826823e+00    0.1366653   0.08588623 -13.55 0.0007047888    1.727    0.421
        41  -9.3848     58.3094    234.5824   7.7357034570e+01   1.6537185549e+01     0.180061    0.1153102  11.71 0.0009341757    1.502    0.334
        42 -10.1917    220.4618    232.2264   4.2217830969e+01   4.3256315332e-01    0.2619831    0.1607219  34.99   0.00155318    2.257    0.557
        43  -9.7548    182.4631    231.9977   4.8709025125e+01   3.8743351980e+00    0.1994606    0.1520812  32.93  0.001350239    1.654    0.396
        44 -11.8781    195.0119    229.0372   4.6012044281e+01   3.1399801659e+00    0.2092704    0.1656874 -21.03  0.001532921    1.130    0.115
        45  -9.4196    178.0743    228.4962   4.9032405375e+01   4.8610221191e+00    0.1649949    0.1022317  18.10  0.000379625    1.515    0.340
        46 -11.5552     49.0755    227.3763   7.9163732052e+01   1.9028115217e+01    0.5344223    0.2295209  23.86  0.002137541    1.980    0.495
        47 -11.1521     45.9937    211.0260   7.8610466593e+01   2.3100648343e+01    0.3386386    0.3178508 -63.09  0.002065971    1.173    0.148
        48 -11.6305     40.1111    212.1132   8.0352476251e+01   2.3420844367e+01    0.7293607    0.2212632  47.50  0.002439406    3.490    0.713
        49 -10.2434     43.1663    226.7833   8.0683739781e+01   1.9733649380e+01    0.2444101    0.1946373 -57.30 0.0008728073    1.414    0.293
        50 -11.5295     33.9586    206.4254   8.1635152382e+01   2.5375004993e+01    0.5241344    0.2477002  51.73  0.002059974    2.174    0.540
        51 -10.2509     36.3213    203.0512   8.0680438797e+01   2.5978744151e+01    0.2608691    0.2251996  55.60 0.0006030599    1.129    0.114
        52 -10.2042     41.4139    222.2796   8.0805490513e+01   2.0922006298e+01    0.3011199    0.1731823  63.96 0.0008939882    2.008    0.502
        53 -11.2097     49.6830    220.7555   7.8444919346e+01   2.0461752926e+01    0.3542518    0.2854759  23.53   0.00102742    1.107    0.097
        54 -11.6508     46.3375    218.0902   7.9127698812e+01   2.1408123947e+01     0.764079    0.3981493 -19.75  0.003039613    2.964    0.663
        55  -9.1742    138.6303    227.2806   5.6953435321e+01   9.2394405026e+00    0.1219033   0.09218803  45.10  0.000501297    1.692    0.409
        56 -10.2349     80.8393    225.1866   7.0617563098e+01   1.6174143518e+01    0.3352904    0.2048776 -36.37  0.001608783    1.850    0.459
        57 -11.1192     77.4820    220.0389   7.0927289686e+01   1.7664650803e+01    0.5166686     0.256459  51.98  0.001493479    2.555    0.609
        58 -10.4278    116.6784    225.3705   6.1728508330e+01   1.2077542078e+01    0.2034075    0.1640966 -68.12 0.0005907599    1.610    0.379
        59 -10.0513    105.8180    226.1845   6.4449326276e+01   1.3154388120e+01    0.1944252    0.1427611 -10.32  0.001083908    1.383    0.277
        60 -10.4133    159.6465    222.9759   5.1867812437e+01   7.7016965451e+00    0.2965174    0.2728334  -7.43   0.00207846    1.240    0.194
        61  -9.8610     91.9133    224.7009   6.7729556693e+01   1.5038182897e+01    0.2467626    0.1731285 -35.00  0.000847291    1.525    0.344
        62  -9.9311     94.9869    222.6537   6.6708005262e+01   1.5117757199e+01    0.2858953    0.1235123  37.45 0.0009917312    2.168    0.539
        63 -11.3513     57.9333    221.1581   7.6254075321e+01   1.9528002353e+01    0.3848823    0.2959218 -48.23  0.001038503    1.436    0.304
        64 -10.9378     62.4344    216.8471   7.4619186895e+01   2.0031731544e+01    0.4048093    0.2893634  42.46 0.0008926638    1.331    0.249
        65 -10.1211     66.9878    216.1710   7.3314667588e+01   1.9691967941e+01    0.3750008    0.2700424  84.45   0.00185552    1.753    0.430
        66 -11.1219    124.1681    221.8929   5.9499681688e+01   1.1896298844e+01    0.3973668    0.2126043  31.16  0.001951097    1.729    0.422
        67 -10.8273    173.8183    219.5329   4.8537801096e+01   6.7712575241e+00     0.286224    0.2062806 -46.95 0.0009166828    1.532    0.347
        68  -9.3190    189.9813    220.0000   4.5587394879e+01   5.0314548507e+00    0.1661278    0.0604577  26.92            0    2.794    0.642
        69 -11.7206    147.7090    216.2593   5.3398483827e+01   1.0239652798e+01    0.4634274    0.2498257  26.30  0.002401737    1.751    0.429
        70 -11.1663    140.8591    210.8294   5.4097443219e+01   1.2066842162e+01    0.5035887    0.2526515 -62.40  0.001919595    3.017    0.669
        71  -9.5176    225.8560    216.4061   3.9100030349e+01   2.2025479406e+00    0.1675737    0.1190017 -35.24 0.0005000082    1.279    0.218
        72 -10.2929    129.3224    216.9628   5.7615693514e+01   1.2254499016e+01    0.2432607    0.1226607 -10.96 0.0009118851    3.358    0.702
        73 -10.3251    120.3047    214.0190   5.9324059080e+01   1.3915392251e+01    0.2770818    0.1674346  36.63  0.001140834    1.661    0.398
        74  -9.1126     94.5581    217.4949   6.6184653974e+01   1.6260438244e+01    0.1363992    0.1209565  10.14 6.487943e-05    1.009    0.009
        75 -11.3505     84.0200    214.6740   6.8584417508e+01   1.8103716132e+01    0.8552051    0.2154834  30.94  0.002913235    3.094    0.677
        76  -9.0774    196.1399    214.8206   4.3717566995e+01   5.2348855534e+00    0.1570587    0.1067191 -18.29 0.0003705478    1.252    0.201
        77 -10.3065    107.9908    214.8239   6.2443923954e+01   1.5231999729e+01    0.2294746    0.1980924 -42.66 0.0009854723    1.233    0.189
        78 -10.0217    155.5364    212.5933   5.1183493331e+01   1.0007931651e+01    0.2957411    0.2470182 -55.37  0.001870832    1.500    0.333
        79  -9.6435    121.6630    217.2730   5.9454349489e+01   1.3099819861e+01    0.1990277    0.1777465  30.02 0.0005179297    1.215    0.177
        80  -9.7471     73.3041    212.1080   7.1158419923e+01   1.9912417165e+01    0.2812278    0.1783203   5.38 0.0008811328    1.710    0.415
        81 -11.3810    228.6921    208.1553   3.7448980414e+01   3.1320708296e+00    0.4204061    0.3059148 -61.26 0.0009894192    2.502    0.600
        82  -9.3104    209.5254    211.4516   4.0940154171e+01   4.4381683706e+00    0.1129443   0.08653019 -20.10 0.0001048517    1.019    0.019
        83  -9.8481     97.2457    210.9559   6.4657004950e+01   1.7351607494e+01    0.2355793    0.1959371 -78.71 0.0008732485    1.500    0.333
        84 -11.1015     59.7118    210.4426   7.4718261188e+01   2.1807296141e+01    0.3453977    0.2288154 -76.66  0.001331565    1.752    0.429
        85 -10.8613     52.0563    209.5214   7.6768492344e+01   2.2838170326e+01    0.2961513     0.235613  39.47 0.0007033373    1.159    0.137
        86 -11.5535     54.2169    205.3906   7.5751096392e+01   2.3597505218e+01    0.5599124    0.2623557  43.09  0.001876334    2.040    0.510
        87 -10.2538    160.3390    206.5542   4.9257649230e+01   1.0546229224e+01    0.3182977     0.238289  42.41 0.0009444341    1.682    0.406
        88  -9.9584     90.7354    210.0697   6.6242354670e+01   1.8330688843e+01     0.224228    0.1746503  44.35 0.0003734785    1.344    0.256
        89 -10.9798    105.4865    205.2694   6.1763600883e+01   1.7572081968e+01    0.3575558    0.2346088   6.75  0.000564931    1.618    0.382
        90 -10.2153    180.5029    207.6181   4.5449958524e+01   8.0583298230e+00     0.211483    0.1904771 -12.44 0.0007799543    1.205    0.170
        91  -9.2208     72.2681    207.8474   7.0954963980e+01   2.1010953390e+01    0.2477196    0.1209865  54.85  0.000948585    2.769    0.639
        92  -9.8768    116.2654    204.2247   5.8901843333e+01   1.6437573094e+01    0.2456419    0.1902491 -64.07 0.0006372453    1.548    0.354
        93 -10.5179     90.8783    189.1131   6.3340142439e+01   2.3105870206e+01    0.4051822    0.2753877 -82.93  0.001615407    2.015    0.504
        94 -11.0870     90.8450    199.5856   6.4828489720e+01   2.0678970278e+01    0.8308243    0.3518403 -36.76  0.002970057    3.163    0.684
        95  -9.7391     92.7523    193.7445   6.3493714513e+01   2.1780270880e+01      0.27687    0.2699247 -59.59  0.001251266    1.136    0.119
        96 -11.1464    145.2940    200.6790   5.1551235420e+01   1.3482037978e+01    0.4624379    0.3826812 -78.34  0.002679846    1.776    0.437
        97  -8.9034    167.3013    202.6802   4.7234703152e+01   1.0425377136e+01    0.1097387    0.1015622  75.19 0.0007025002    1.625    0.384
        98  -9.9244    170.2148    209.8610   4.7778265059e+01   8.8194396697e+00    0.1955635    0.1816472  72.50 0.0007137598    1.667    0.400
        99 -10.1910    212.3026    199.7828   3.8696626559e+01   5.9533247060e+00    0.2679369    0.1850712 -59.10  0.001289512    2.244    0.554
       100 -10.3737     44.0157    200.9172   7.8254828959e+01   2.5748339087e+01    0.2093553    0.1962355  21.29 0.0004067298    1.049    0.046
       101 -10.7095     83.8681    197.9713   6.6520260079e+01   2.1924525974e+01    0.5133271    0.3050716  59.12  0.001970877    2.300    0.565
       102  -9.4203     49.5314    198.4618   7.6403759704e+01   2.5783955523e+01    0.4100268    0.1386697 -41.71  0.001148906    4.349    0.770
       103  -9.8728    230.1292    204.1460   3.6633770790e+01   3.5792983676e+00    0.1990576    0.1179356 -30.36 0.0002881594    1.285    0.222
       104 -11.9734    172.9594    195.5063   4.4965359461e+01   1.1035640874e+01    0.2985559    0.2497355  27.82  0.001952313    1.341    0.254
       105 -10.4907     37.9770    196.7320   7.9646900088e+01   2.7389488792e+01    0.3784228    0.2003197 -48.06  0.001656406    2.084    0.520
       106 -12.0575     35.8780    191.6481   7.9816615675e+01   2.8878870526e+01    0.8167856    0.3736607 -32.31  0.002903264    3.280    0.695
       107 -10.3755     41.0154    191.7747   7.8274426126e+01   2.8339484759e+01    0.2609237    0.2566104 -72.86  0.001552247    1.086    0.079
       108 -10.5637    138.2985    197.0853   5.2555507037e+01   1.5082589749e+01    0.2271714    0.1693461   4.63 0.0005254088    1.335    0.251
       109  -9.1774     60.9042    200.0592   7.3270806374e+01   2.4152322846e+01     0.179835    0.1558891 -16.30 0.0009950718    1.225    0.184
       110 -10.5336    192.5972    194.7423   4.1203610969e+01   8.8756955990e+00    0.2846409    0.1965571 -26.44 0.0009318718    1.235    0.190
       111 -10.0913    100.8420    195.3464   6.1549255158e+01   2.0361777379e+01    0.4391647    0.2239867  37.42  0.001440827    1.891    0.471
       112 -11.6771    121.9055    197.0543   5.6433559718e+01   1.7225596221e+01    0.4877073    0.3806597 -39.20  0.002739093    1.266    0.210
       113 -10.0536    160.7872    192.9099   4.6980692196e+01   1.3012564681e+01    0.2004169    0.1806585  11.96 0.0004180669    1.168    0.144
       114 -10.9817    133.7959    190.7696   5.2580867584e+01   1.6961107142e+01    0.3453411    0.2705482   3.41  0.001177009    1.265    0.210
       115 -11.3963    110.6323    188.4098   5.7924393354e+01   2.0612862784e+01    0.4942573    0.2360976 -61.46  0.001843814    2.482    0.597
       116 -10.7978     50.8597    190.0961   7.5128306679e+01   2.7732474552e+01    0.3317169    0.2335639  42.24 0.0005124549    1.350    0.260
       117  -9.1383    234.4915    190.5271   3.3923457113e+01   5.1464948579e+00    0.1095139   0.08009256 -26.97 5.722064e-05    1.011    0.011
       118 -10.0735     70.7320    187.3751   6.8866016122e+01   2.6101609679e+01     0.469156    0.1992975  42.05  0.001777307    2.340    0.573
       119  -9.9659    156.4959    186.0042   4.6723797611e+01   1.4880160880e+01    0.2818721      0.15715 -26.81 0.0008313108    2.042    0.510
       120  -8.8861     97.3832    188.4516   6.1453570178e+01   2.2396321897e+01    0.1409753    0.1317644  -4.22 0.0001036275    1.030    0.029
       121 -12.5233    248.8494    185.4263   3.1205451277e+01   4.5212549757e+00    0.2148027    0.1535521 -31.01 0.0003795956    1.037    0.036
       122 -10.2245    132.2215    185.8013   5.2132479483e+01   1.8209012368e+01    0.2349849    0.2063657 -35.11 0.0005878735    1.115    0.103
       123 -10.3956    134.0658    182.0105   5.1056241430e+01   1.8747452085e+01    0.2185438    0.1883348  13.34 0.0003102289    1.122    0.108
       124 -11.1151    126.7932    186.0250   5.3474429008e+01   1.8911161742e+01    0.3995279    0.2002994  29.85  0.001768321    1.946    0.486
       125  -9.2796    163.9616    185.0002   4.5006889366e+01   1.4090335775e+01     0.177672    0.1603453  79.50 0.0004894952    1.593    0.372
       126 -11.3266    100.3054    179.8537   5.9315735793e+01   2.3998668255e+01    0.3153014    0.2668801   4.96  0.001282752    1.178    0.151
       127 -11.8521     93.4526    181.2178   6.1431902844e+01   2.4627818470e+01    0.6189649    0.5126061  24.23  0.003076505    1.148    0.129
       128 -11.2336     76.4424    185.5742   6.6947999379e+01   2.5829192383e+01    0.6843098    0.3660589 -68.69  0.002872839    2.154    0.536
       129  -9.2512     55.2607    183.5715   7.3041163061e+01   2.8899932775e+01    0.4061877     0.168201 -37.65  0.001329493    3.468    0.712
       130 -13.1908     36.2443    248.7493   8.3952721958e+01   1.5649854211e+01     1.294863    0.5645627  30.04  0.002488662    1.769    0.435
       131  -8.8851     49.6901    182.7027   7.4658739709e+01   2.9748102290e+01    0.1491581     0.107701 -27.31 0.0002495389    1.596    0.373
       132 -11.0903     22.0128    175.9517   8.2774580721e+01   3.4235799375e+01    0.3612443    0.2512032 -37.97  0.001769719    1.612    0.380
       133  -9.9051     21.7784    180.5812   8.3231853640e+01   3.3030358990e+01    0.2459549    0.1657153  32.27 0.0005730601    1.374    0.272
       134 -10.3080     24.4723    178.4785   8.2199312644e+01   3.3353946568e+01    0.3195951    0.1786666  13.07 0.0007009549    1.856    0.461
       135 -10.3596    224.1569    178.6920   3.3527580338e+01   7.9675288721e+00    0.2990326    0.1300319 -28.08  0.001469888    2.557    0.609
       136  -9.6223    191.8693    178.9793   3.8719751024e+01   1.1632646378e+01    0.2852796     0.160306 -62.36  0.001265441    3.290    0.696
       137 -11.8427    116.6371    178.8214   5.4807955025e+01   2.1914717914e+01    0.4610785    0.2940132  39.08  0.002219019    1.596    0.373
       138  -9.1563    231.3553    179.2048   3.2583423263e+01   7.1320839504e+00    0.1518397   0.08252881 -45.71 0.0005159924    1.645    0.392
       139 -11.1573     36.9995    178.0472   7.8150363330e+01   3.2296093967e+01    0.3584255    0.2745044   4.98  0.001819428    1.385    0.278
       140 -10.5922     31.6044    176.0071   7.9679409695e+01   3.3360235255e+01    0.3112039    0.2056158  29.06 0.0006799134    1.413    0.292
       141 -11.1418    125.6890    177.3192   5.2272588229e+01   2.0942263448e+01    0.3039427    0.2397521 -42.39  0.001150501    1.239    0.193
       142 -11.7111    127.1541    174.0008   5.1332941384e+01   2.1449999413e+01    0.5660478    0.3686106 -81.79  0.002345917    2.833    0.647
       143 -10.1599    137.3931    177.0851   4.9424795103e+01   1.9306945903e+01    0.2252582    0.1803363   7.91 0.0004131148    1.271    0.213
       144  -9.9537     63.2466    176.9082   6.9729441480e+01   2.9658023836e+01    0.3403979    0.2081719  13.93 0.0006656483    1.743    0.426
       145 -11.2573    106.5833    175.7020   5.6926400620e+01   2.4071527511e+01    0.3272765    0.2490862  38.30 0.0005658643    1.320    0.243
       146 -10.0168    248.3783    174.8420   2.9633977132e+01   6.0590369010e+00    0.1653632   0.07121129 -34.17  0.000959062    1.835    0.455
       147 -10.9329    146.9156    174.3430   4.6774205654e+01   1.8506847321e+01    0.4852123     0.245088  55.60  0.001702573    4.166    0.760
       148  -9.1859    160.9471    173.6825   4.3656348536e+01   1.6654158711e+01    0.1732325    0.1580518  -1.62 0.0002890876    1.088    0.081
       149 -11.0141     79.4011    173.4338   6.4301578824e+01   2.8446085952e+01    0.3340277    0.2679273   4.02  0.001086269    1.316    0.240
       150 -10.6930     83.8972    171.9669   6.2733237849e+01   2.8193873829e+01     0.335126    0.2494943  83.78  0.001297901    1.747    0.428
       151 -12.4063     91.7457    171.2654   6.0325061843e+01   2.7259658780e+01    0.5750457    0.4086068  27.67  0.002301199    1.356    0.263
       152 -10.8286     45.8625    171.9966   7.4618863921e+01   3.2967127837e+01    0.5805176    0.2276894  15.16  0.001952429    2.955    0.662
       153 -11.0677    153.0331    170.0856   4.4674460279e+01   1.8482876741e+01    0.2565301    0.2256443 -49.99 0.0006463169    1.204    0.169
       154 -10.9614    153.2871    165.9046   4.3857020612e+01   1.9280326441e+01    0.3870816    0.2766914  71.50  0.001853503    2.431    0.589
       155  -9.9643     61.2833    170.6899   6.9492162267e+01   3.1504854242e+01    0.3897082    0.1719983  25.70  0.001415138    2.144    0.534
       156  -9.2297    236.6772    170.7174   3.0497394303e+01   7.8407165625e+00    0.1071901   0.06897351 -18.39 0.0003028668    1.593    0.372
       157 -11.5564    119.7441    168.5981   5.2230150284e+01   2.3745285803e+01     0.654821    0.3073071  18.71  0.001597829    3.070    0.674
       158 -10.9983    127.1303    166.3392   4.9962749980e+01   2.3125331756e+01    0.2721683    0.2580811  29.61   0.00098507    1.111    0.100
       159  -9.8189    102.3067    170.3269   5.7181700974e+01   2.5951433074e+01    0.1535206    0.1093232 -20.49 0.0003011141    1.652    0.395
       160 -10.1182    160.0983    168.8259   4.2959479754e+01   1.7715180763e+01    0.1926878    0.1841972 -77.04  0.001223531    1.290    0.225
       161 -13.3054      3.1458    206.5294   9.0372397249e+01   2.7871781706e+01     1.834704     0.524663 -81.03  0.006554903    3.595    0.722
       162  -9.6324     40.7737    168.2014   7.5838702106e+01   3.4525259317e+01    0.2131859    0.1706481 -28.89  0.001072645    1.374    0.272
       163 -10.1243    198.0764    170.4879   3.6209608261e+01   1.2312474390e+01    0.2352122    0.2060315  12.24  0.001224583    1.254    0.203
       164  -9.5272     31.0407    167.4001   7.8996299054e+01   3.5717326686e+01    0.2075292    0.1752391  23.34 0.0005034031    1.159    0.137
       165 -11.2970    101.2431    165.8252   5.6696190963e+01   2.7176594918e+01    0.4769675    0.2617902  20.06  0.001071072    2.077    0.519
       166 -11.0295    111.4785    164.2798   5.3614597944e+01   2.5985667069e+01    0.3810218    0.2356623 -32.92 0.0008560456    1.841    0.457
       167  -9.7613     64.2237    164.7963   6.7703319481e+01   3.2666431332e+01    0.2067185    0.1720196 -19.46 0.0004532034    1.309    0.236
       168 -10.3515     58.1660    164.8606   6.9673871953e+01   3.3416441714e+01    0.2411703    0.1994964  52.13 0.0007589146    1.235    0.190
       169  -9.4637    205.4077    163.7826   3.3864242916e+01   1.2519914490e+01    0.1709754    0.0923469 -35.00 0.0007357333    1.600    0.375
       170  -9.4370    230.7635    163.3354   3.0089021958e+01   9.5886908840e+00    0.1409133    0.1306724 -43.38 0.0006440053    1.331    0.249
       171 -10.9527     90.7895    163.0932   5.9223682101e+01   2.9395829531e+01    0.2995712    0.1941884  -7.87   0.00123631    2.156    0.536
       172 -11.5277     14.1804    160.9299   8.4122722543e+01   3.8916240181e+01     0.582293    0.2936967  11.51  0.002003441    2.101    0.524
       173 -10.4662    169.9041    160.0118   3.9382880485e+01   1.7991015751e+01    0.2767375    0.2433843 -65.99  0.000926291    1.361    0.265
       174 -11.1771     46.1035    160.1422   7.3042002691e+01   3.6107064293e+01    0.3326029    0.2327671  40.13            0    1.382    0.276
       175 -10.4386     39.8581    161.2494   7.5312326764e+01   3.6493614019e+01    0.5002248    0.1345993  32.12  0.001594213    3.015    0.668
       176  -9.4121     25.4243    160.2263   8.0168413191e+01   3.8182999343e+01     0.201674    0.1383356  85.99 0.0005508456    1.560    0.359
       177 -10.6970    105.3286    158.7159   5.4271769285e+01   2.8237838719e+01    0.3133793    0.2383617  67.38  0.000891161    1.698    0.411
       178 -10.0555    133.2507    157.9847   4.6908271480e+01   2.3990803797e+01    0.2492049    0.1971308  60.49 0.0006062247    1.581    0.367
       179 -12.2860     83.4437    150.4637   5.9199365707e+01   3.3645264353e+01    0.5503876     0.374769  -8.50  0.001411101    1.984    0.496
       180 -10.5891     28.9472    156.2798   7.8514295298e+01   3.8940490446e+01    0.3447921    0.2851589  47.83  0.001381067    1.189    0.159
       181 -10.0361      1.8887    156.6625   8.8057134612e+01   4.0912065432e+01    0.3484774    0.1545672 -68.93 0.0009807162    2.102    0.524
       182 -11.5827    120.3888    156.8496   4.9886894094e+01   2.6286362736e+01     0.501257    0.2674834  25.53  0.001955011    2.131    0.531
       183  -9.1764    190.4293    155.2361   3.4787264038e+01   1.5948020488e+01    0.1674892    0.1052536 -50.71 0.0004379134    1.550    0.355
       184  -9.1393    141.4911    155.4707   4.4496654802e+01   2.3220359080e+01    0.1381756    0.1297664 -26.96 5.225817e-05    1.015    0.015
       185 -11.2253     76.6952    154.9358   6.2123861961e+01   3.3509717922e+01    0.3121408    0.2090538  39.61  0.000720203    1.462    0.316
       186 -11.3974     19.7543    149.7344   8.1103262078e+01   4.1553692593e+01    0.4181917    0.3307689 -25.63  0.001240676    1.379    0.275
       187  -9.4319    172.3441    153.8446   3.7763130005e+01   1.8792246803e+01     0.186968    0.1049475 -36.70  0.000395412    1.679    0.404
       188 -10.3003     32.3277    157.6914   7.7488918699e+01   3.8229947105e+01     0.239338    0.1898058 -62.84  0.000636131    1.266    0.210
       189 -10.3521     51.1366    152.8261   7.0287006677e+01   3.7486856369e+01    0.2158339    0.1760767 -32.71 0.0007037126    1.315    0.239
       190  -9.7130    128.2977    151.0270   4.6759345696e+01   2.6300992849e+01    0.1980692    0.1800327 -43.21 0.0003982318    1.073    0.068
       191 -11.2254     96.7424    149.4696   5.4978828602e+01   3.1812898982e+01    0.4739922     0.262368  55.02  0.001815154    2.422    0.587
       192 -10.5639     37.7238    150.1532   7.4642959347e+01   3.9742726070e+01    0.4084512    0.2132577  72.45  0.001472194    2.731    0.634
       193 -11.0104      3.8469    150.2517   8.6915458085e+01   4.2549476954e+01    0.4146678    0.2722229  -9.35  0.001978634    1.729    0.422
       194 -11.0045    109.1131    149.1074   5.1385798817e+01   2.9891558726e+01    0.3447554    0.3278744  68.35  0.001044175    1.140    0.123
       195 -10.8510     26.1737    149.7365   7.8766967145e+01   4.0996736668e+01     0.416848    0.2401425   5.25  0.001319106    1.971    0.493
       196 -11.8002      9.2526    146.5779   8.4651664558e+01   4.3214968180e+01    0.7488399    0.3244148  45.80  0.002909361    2.331    0.571
       197 -10.8560     14.6629    142.6837   8.2269374829e+01   4.3907493650e+01    0.3955846    0.2192754 -48.13  0.001518088    1.832    0.454
       198 -11.4551     10.4845    141.9222   8.3771628935e+01   4.4419906878e+01    0.3640248    0.3247853 -57.83  0.001356178    1.114    0.102
       199 -12.8894     14.1408    133.4040   8.1493091792e+01   4.6523510588e+01    0.7341899     0.568338 -52.94  0.003778927    1.271    0.213
       200 -11.1719     20.7661    130.9396   7.8567124035e+01   4.6681065161e+01    0.3977611    0.2837438 -28.54 0.0008088516    1.526    0.345
       201  -9.6760    133.5169    148.9843   4.5085874522e+01   2.5886872101e+01    0.2099752    0.1120658 -30.19 0.0008101409    2.530    0.605
       202 -10.3984     20.7255    154.5977   8.1248057983e+01   4.0132171416e+01      0.35881    0.2632364 -24.60  0.001132993    1.532    0.347
       203  -9.1373    147.1697    148.6237   4.1883392807e+01   2.3729225527e+01    0.1822474    0.1299918  23.38 0.0003920619    1.595    0.373
       204  -9.5086     32.7828    148.1843   7.6173860087e+01   4.0793086237e+01    0.2103283    0.1693259 -33.32 0.0006505325    1.328    0.247
       205 -10.5480     62.3467    146.0070   6.5328056069e+01   3.7861068020e+01    0.3062692     0.199339  52.98  0.001324622    1.707    0.414
       206 -11.9888     51.8761    142.9832   6.8499205814e+01   4.0048819416e+01    0.5394083    0.3520663  46.36  0.001080226    1.574    0.365
       207  -9.0413    228.8000    145.3871   2.7331714479e+01   1.2558872391e+01    0.1278125     0.103142  13.54 0.0003984714    1.554    0.356
       208  -9.3424    170.6145    145.2392   3.6441291697e+01   2.0669394061e+01    0.1866287    0.1108025 -37.77  0.000940965    1.570    0.363
       209  -9.4009    157.8633    144.9151   3.8879737509e+01   2.2746780420e+01    0.2021287    0.1703247 -21.97 0.0003928982    1.209    0.173
       210 -10.3581    103.3293    144.7028   5.2131423494e+01   3.1885205268e+01    0.3931171    0.2301026  39.49 0.0008908777    1.695    0.410
       211 -10.7646    101.1596    141.1912   5.2044492769e+01   3.3084231661e+01    0.3809834     0.329464  71.94  0.001153989    1.325    0.245
       212 -10.3863     85.6734    143.9005   5.7262619796e+01   3.4949229059e+01    0.2119884    0.1929693 -55.45 0.0005522363    1.117    0.105
       213  -8.8277    187.2726    143.6690   3.3172413339e+01   1.8436750621e+01    0.1206122     0.092612 -66.03 0.0003774882    1.591    0.371
       214  -9.4849    143.5304    143.5198   4.1666672919e+01   2.5379377786e+01    0.1394226    0.1292565 -29.87 3.497241e-05    1.030    0.029
       215  -9.7241    116.8248    143.1017   4.8093319120e+01   2.9987989753e+01    0.2020867    0.1671187 -24.33 0.0004150925    1.303    0.233
       216 -11.4403     94.7353    140.2057   5.3742479432e+01   3.4393865985e+01    0.4482867    0.3349291 -24.02  0.001050474    1.588    0.370
       217  -9.3348     60.3444    139.2969   6.4854716898e+01   3.9915271447e+01    0.1613691    0.1158219 -22.65 0.0003672266    1.670    0.401
       218  -9.9870     41.6670    139.6924   7.1713402434e+01   4.2173145664e+01    0.1587997    0.1496176  54.31 0.0003236729    1.066    0.062
       219 -10.5402     39.8465    136.8480   7.1962245439e+01   4.3158262152e+01    0.2150445    0.1708056  53.40 0.0003490517    1.308    0.236
       220 -11.0167    128.6352    137.7775   4.3971911309e+01   2.9139132687e+01    0.2391178    0.2350458 -82.67 0.0009470026    1.070    0.066
       221 -11.1783     46.5677    136.4511   6.9372976742e+01   4.2476682829e+01    0.2542296    0.2495993 -56.80 0.0001405717    1.030    0.029
       222 -10.1144    119.5156    134.9877   4.5685469548e+01   3.1351862515e+01    0.3421673    0.1449957 -56.53  0.001220705    2.664    0.625
       223  -9.2270    197.4340    135.1809   2.9931093382e+01   1.8414424132e+01    0.1738979    0.1001638 -50.93 0.0005281006    1.624    0.384
       224 -10.2201    123.1991    135.1772   4.4778471839e+01   3.0660509473e+01    0.2000403    0.1744126  83.35 0.0004597271    1.343    0.256
       225 -10.5946     86.8450    134.8124   5.5072088812e+01   3.7025210704e+01    0.2324957    0.2096396 -10.04 0.0006313549    1.187    0.158
       226 -10.6587     66.5595    135.3066   6.1933604698e+01   4.0079717104e+01    0.2710602    0.1933241  -2.33  0.001187842    1.750    0.429
       227 -11.6113     59.4739    134.1068   6.4222713647e+01   4.1412781418e+01     0.451341    0.2618559  43.59  0.001878456    1.750    0.428
       228 -11.4277    103.0920    133.7880   4.9935051548e+01   3.4510893247e+01    0.3844171    0.2435106  43.89  0.001718018    1.601    0.375
       229 -11.6139      6.7523    133.0893   8.4380315343e+01   4.7116264375e+01    0.3954069     0.226168 -68.34  0.001783308    1.643    0.391
       230 -11.5364     33.1622    134.1919   7.4126088213e+01   4.4611555631e+01    0.5320526     0.300047  87.14  0.001953835    2.268    0.559
       231 -10.1364    230.1559    130.5315   2.4591518584e+01   1.4652958497e+01    0.2023009    0.1376608 -43.13 0.0003287977    1.137    0.121
       232 -12.0685    130.3114    128.5050   4.1570442923e+01   3.0838468956e+01     0.274513    0.2604385 -43.78  0.000403995    1.019    0.019
       233 -11.2224    121.6301    128.4174   4.3709701528e+01   3.2429839632e+01    0.3450633    0.2496272 -72.96  0.001184946    1.741    0.426
       234 -11.6253     82.4732    128.3404   5.5118483998e+01   3.9357485554e+01    0.4830396    0.3547762  -6.51  0.002156071    1.791    0.442
       235 -10.3483     45.7468    129.5315   6.8513619830e+01   4.4453016705e+01    0.2261719    0.1327502  37.84 0.0009503775    1.658    0.397
       236 -11.5544     58.3968    125.9049   6.3049711524e+01   4.3731724308e+01    0.4197216    0.2650604  -8.15  0.001206598    2.286    0.562
       237 -11.3003     11.1077    111.0698   8.0069842363e+01   5.2908422523e+01    0.3533642    0.2386406 -71.92  0.001114928    1.445    0.308
       238 -11.4704      9.8459    125.5032   8.2357544268e+01   4.9019413430e+01    0.4408578    0.2365738 -45.36  0.001170429    1.871    0.465
       239 -11.4281     14.0715    119.2439   7.9841176553e+01   5.0450957380e+01    0.7896185    0.3827964 -23.21  0.002952416    2.641    0.621
       240 -11.4063     82.9290    114.6315   5.1882818160e+01   4.2641010114e+01    0.5061175    0.3581362 -62.40  0.002338667    1.515    0.340
       241 -11.3352     75.3347    124.5879   5.6709099114e+01   4.1473413699e+01    0.3958614     0.265208 -52.23  0.001023306    1.499    0.333
       242 -11.9761     77.4407    119.6924   5.4907813298e+01   4.2349242319e+01    0.5147718    0.3504308  31.63 0.0006764751    1.462    0.316
       243 -10.6985    186.5319    123.9913   2.9476525930e+01   2.2006577606e+01     0.223973    0.1906601 -44.80 0.0003398467    1.009    0.009
       244 -10.1111    169.7938    123.4315   3.2207263339e+01   2.4867230243e+01    0.3852432    0.1516189 -41.02  0.001583903    2.375    0.579
       245 -10.6120     26.3583    124.8844   7.5476066657e+01   4.7853101203e+01    0.2799609    0.2400026  47.09 0.0008315998    1.190    0.159
       246  -9.5336     40.1110    124.3436   6.9819240369e+01   4.6539023893e+01    0.2267509    0.1244479  35.88 0.0009295328    1.758    0.431
       247 -10.4937     20.9653    122.9647   7.7430422235e+01   4.8870695372e+01    0.2172877    0.2131514 -53.51            0    1.005    0.005
       248 -10.7395    193.4274    122.2232   2.8052880901e+01   2.1219089854e+01    0.1957318    0.1811642  55.20  0.001046836    1.276    0.216
       249 -11.8078    104.6058    121.1010   4.6675880080e+01   3.7190328816e+01    0.5873217    0.3187272  48.19  0.002412569    1.948    0.487
       250  -9.0920    224.4236    120.5043   2.3513736228e+01   1.6939937041e+01    0.1149426   0.08871584 -43.02 0.0001100872    1.015    0.015
       251  -9.9488    201.0764    120.4627   2.6585408308e+01   2.0330620629e+01    0.1598171      0.12154  48.71   0.00102726    1.584    0.369
       252 -11.8533      9.5385    117.0233   8.1512661986e+01   5.1382187250e+01    0.3834018    0.3518475 -42.90  0.001225795    1.068    0.064
       253 -11.0790    114.9651    114.2478   4.2199326560e+01   3.6772715203e+01    0.3633367    0.2810959  -3.96 0.0008867767    1.792    0.442
       254 -10.7130    104.5319    114.8149   4.5220577013e+01   3.8632597474e+01    0.2725497    0.2101822  39.38 0.0005750795    1.302    0.232
       255  -9.5470     34.7770    126.5764   7.2324646742e+01   4.6532561145e+01    0.2122778    0.1333508  34.95  0.000583628    1.550    0.355
       256 -10.7615     58.5868    114.0189   6.0506324012e+01   4.6798373150e+01    0.2849653    0.2184944  31.80 0.0003135055    1.272    0.214
       257 -10.6816     61.7131    108.6928   5.8099182002e+01   4.7671740191e+01    0.3243397    0.2282737 -78.99  0.001439538    1.761    0.432
       258 -10.2172    109.3417    112.2699   4.3251252040e+01   3.8283631217e+01    0.2842851    0.1810889 -35.28  0.001245422    1.819    0.450
       259  -9.6859    165.4746    112.5175   3.0672938669e+01   2.7620198654e+01    0.1323741    0.1191092 -51.57 -1.317159e-05    1.006    0.006
       260  -8.8149    198.4959    111.4672   2.5200192272e+01   2.2207182991e+01    0.1227958    0.1015885 -50.58 8.321617e-05    1.035    0.034
       261 -10.0123     52.5742    110.8558   6.2179034812e+01   4.8497016833e+01    0.2776988    0.2086479  30.60 0.0005434068    1.297    0.229
       262 -10.4381      5.5629    111.4562   8.2596689652e+01   5.3159757887e+01    0.2386899    0.1910294  -8.27 0.0008741813    1.296    0.228
       263  -9.9057    169.6392    109.2941   2.9243371049e+01   2.7456289192e+01     0.132745   0.09766058 -78.90 0.0007030718    1.703    0.413
       264 -10.4181    113.8261    109.1775   4.1279715582e+01   3.8088097489e+01    0.2887096    0.1952589  56.05  0.001082374    1.604    0.376
       265  -9.0115    210.2765    108.6311   2.3076036707e+01   2.0824374281e+01     0.121783   0.07726182 -61.08 0.0004980707    1.681    0.405
       266 -10.4680    160.3952    107.6395   3.0529127413e+01   2.9434671760e+01    0.2076471    0.1548164 -77.35 0.0006434686    1.624    0.384
       267  -9.8871    108.8084    107.8471   4.2317414083e+01   3.9354169475e+01    0.2139736    0.2015541  -8.05 0.0004733669    1.172    0.147
       268 -10.5006      2.3222    107.0686   8.3550999205e+01   5.4538006065e+01    0.2801272    0.2222093 -30.09 0.0007918955    1.259    0.206
       269  -9.4288    139.6897    107.3588   3.4606010684e+01   3.3411687084e+01    0.1461057    0.1074428 -80.28 0.0007042188    1.739    0.425
       270  -8.7354     93.3216    105.6837   4.6332661525e+01   4.2826187176e+01    0.1547998    0.1181672  77.62 0.0007041817    1.662    0.398
       271  -9.6500    109.7271    104.0029   4.1104252280e+01   4.0001906216e+01    0.2093381    0.1861407 -52.71 0.0004504577    1.123    0.109
       272 -10.7912     11.9616    103.4827   7.8615028012e+01   5.4908365869e+01    0.3889346    0.2083774  47.25  0.001638738    2.075    0.518
       273 -10.5712     78.8680    102.1307   5.0190567909e+01   4.6342913191e+01    0.2998974    0.2612081 -54.25 0.0007653161    1.177    0.150
       274 -10.0683      2.9147    103.1306   8.2809561609e+01   5.5573592056e+01    0.2179919     0.185548  55.37 0.0004753833    1.256    0.204
       275 -10.7791    153.7293    100.5826   3.0177455740e+01   3.1981104818e+01    0.3027002     0.220467 -51.75 0.0008960498    1.279    0.218
       276 -10.2344     55.7911    101.5062   5.8734183221e+01   5.0396276229e+01    0.2752931    0.2377185 -47.90   0.00055331    1.178    0.151
       277 -10.1119     57.9121     97.4866   5.6881223735e+01   5.1056647206e+01    0.3407902     0.263787  39.84  0.001024536    1.261    0.207
       278  -9.1260    184.6487    101.6626   2.5213248611e+01   2.6125807435e+01    0.1221267   0.09779174  -5.46 0.0007045108    1.792    0.442
       279  -9.4122    158.2792    101.6348   2.9569989150e+01   3.0921971003e+01    0.1390639   0.09763483 -70.74 0.0007012042    1.679    0.404
       280 -11.8370     96.1925     99.8785   4.3956211326e+01   4.3567120709e+01    0.6545964    0.3159011  53.05 0.0008540039    2.385    0.581
       281 -11.6514      5.4682     99.2407   8.1092894138e+01   5.6476244262e+01    0.5005059    0.3099519  61.57  0.002290756    1.899    0.473
       282 -10.9503    162.1890     98.9599   2.8262282869e+01   3.0660797196e+01    0.2127091    0.1663234 -66.26  0.001083394    1.291    0.225
       283 -10.2475    188.8454     98.1089   2.3862984800e+01   2.5984277084e+01    0.1876042    0.1485172 -62.91 0.0004011894    1.193    0.162
       284 -10.5712    178.4912     96.5993   2.5068295702e+01   2.8057659081e+01    0.2653353    0.1967292 -74.73 0.0009372086    1.504    0.335
       285 -10.5685    167.6270     96.8247   2.6851850488e+01   3.0012570999e+01    0.1997481    0.1804811  47.33 0.0006558079    1.278    0.217
       286  -9.9853     11.7485     98.3692   7.7937106570e+01   5.6296102485e+01    0.2552489    0.2089555  18.40 0.0005653305    1.231    0.188
       287 -11.3407     78.2731     92.5464   4.7855974321e+01   4.8655019174e+01    0.3649885    0.2917522  72.29  0.001794577    1.476    0.322
       288  -9.3691     41.4826     91.9550   6.2551633998e+01   5.4860724753e+01     0.227295    0.1909927  26.81 0.0004651561    1.155    0.135
       289 -10.8495     58.2024     89.8579   5.4766765956e+01   5.2844995807e+01    0.4228696    0.2982603  10.13  0.001916294    1.738    0.424
       290 -10.8483     54.6655     85.7477   5.5118629896e+01   5.4393720662e+01    0.5152354    0.4428049   7.40  0.002404171    1.230    0.187
       291 -11.4278      3.9500     88.5652   8.0314110644e+01   5.9395932077e+01    0.4595388     0.284468 -38.53  0.002215249    1.560    0.359
       292 -10.0153    125.7032     87.5533   3.2831811135e+01   4.0047399872e+01    0.3966478    0.2177202 -44.30  0.001779545    1.810    0.448
       293 -10.8955    149.4608     87.9477   2.7997483148e+01   3.5087344927e+01     0.231942    0.1720736  88.72  0.001233279    1.573    0.364
       294 -11.5383    151.1768     81.7850   2.6187966045e+01   3.5805272966e+01    0.4163369    0.3073626  -3.78  0.001198762    2.375    0.579
       295  -9.1700    163.3013     87.3376   2.5419234107e+01   3.2454724119e+01    0.1236222    0.1045926  -2.89  0.000703653    1.664    0.399
       296  -9.7905     11.7508     86.9138   7.6000022009e+01   5.9311364476e+01    0.2667378    0.2018602  21.16 0.0004625868    1.317    0.241
       297  -9.2720    100.5577     86.4836   3.9036954801e+01   4.5517932115e+01    0.1443543    0.1400183  70.68 5.792495e-05    1.025    0.024
       298  -9.9138    133.8334     84.2816   3.0188985604e+01   3.8950608698e+01    0.2925614     0.243878  51.26  0.001020642    1.254    0.202
       299 -10.4477    165.4080     84.2061   2.4354731622e+01   3.2567848700e+01    0.1947713    0.1070087 -51.52 0.0009564369    1.698    0.411
       300  -9.3671    110.7790     83.3878   3.5369306447e+01   4.3986719929e+01    0.2085626    0.1316472  40.35 0.0009500315    1.714    0.417
       301  -9.9068     66.5900     82.2310   4.9248933475e+01   5.3130736692e+01    0.2057249     0.138563 -39.59 0.0005191143    1.629    0.386
       302  -9.1831    224.8018     79.9827   1.6029965849e+01   2.2827450450e+01    0.1515884    0.1137149 -52.06 0.0002688068    1.020    0.020
       303  -9.0630      9.2890     92.6286   7.8233779525e+01   5.7992688295e+01    0.1503099     0.101952  58.38 0.0007022081    1.716    0.417
       304 -10.3309      4.6576     79.9436   7.8537640419e+01   6.1586392292e+01     0.277753     0.240353  54.00 0.0006505447    1.292    0.226
       305 -10.3135      8.2981     78.0203   7.6182576483e+01   6.1838887169e+01    0.3272783     0.273333 -57.64 0.0008438799    1.170    0.145
       306 -10.6329    111.8599     77.7072   3.3503265750e+01   4.4832230008e+01    0.4429178    0.3025267 -82.94  0.001128863    2.036    0.509
       307 -10.2573    116.6524     75.3669   3.1662355299e+01   4.4226217908e+01    0.3949429    0.1960692  57.90  0.001655783    2.076    0.518
       308  -9.8415     88.5084     78.9595   4.0522741588e+01   4.9535037116e+01    0.2719388    0.2054153  28.74 0.0009510525    1.512    0.338
       309 -10.5984    161.0874     77.4630   2.3471325761e+01   3.4522606932e+01    0.2372992       0.1215  53.77  0.001138255    2.077    0.519
       310  -8.9335    102.3641     76.8615   3.5779374018e+01   4.7030188606e+01    0.1820787    0.1363741 -33.90 0.0001726267    1.530    0.347
       311 -10.2346    105.9822     73.5816   3.3840948145e+01   4.6865490769e+01    0.3499843    0.2511682  70.64  0.001141471    1.533    0.348
       312  -9.7038     68.5091     72.0057   4.5378888122e+01   5.4959337887e+01    0.2002978    0.1931653 -48.55 0.0005072732    1.099    0.090
       313  -9.5647     71.9384     69.0283   4.3130027312e+01   5.4892649038e+01    0.3009909    0.2082463   0.56 0.0006773809    2.442    0.591
       314 -10.0767    189.1145     70.3099   1.7956990556e+01   3.0237565363e+01    0.2164318    0.1467802 -50.58 0.0004034195    1.240    0.194
       315 -10.2939     61.0004     68.8200   4.7340455587e+01   5.7037792000e+01    0.5353312    0.2082832 -58.16  0.001727641    3.754    0.734
       316 -11.3456     54.8025     68.6122   4.9906223155e+01   5.8201121725e+01    0.2879878    0.2691396 -15.97 0.0003982458    1.119    0.106
       317  -9.6757    154.3972     68.0644   2.2271177825e+01   3.7382491234e+01    0.1900223    0.1644569  84.79 0.0004356326    1.112    0.101
       318  -9.1576     47.4945     68.0290   5.3023839191e+01   5.9568621396e+01    0.2148386    0.1441145 -52.79  0.001031612    1.587    0.370
       319 -10.8095      8.7385     67.2388   7.3674276843e+01   6.4480066873e+01    0.3029371    0.2740456  -0.89  0.000801073    1.061    0.057
       320 -10.6573      9.9546     63.0494   7.1949169727e+01   6.5391400558e+01    0.4110525    0.2375036  -5.10  0.001379105    1.869    0.465
       321  -9.9182     11.9827     59.4851   6.9781895674e+01   6.6057940226e+01    0.2921587    0.1821187  40.18   0.00100261    1.743    0.426
       322 -10.3485      2.5466     72.5087   7.8393922777e+01   6.3589977995e+01     0.334223    0.1448486 -59.31  0.001426126    2.041    0.510
       323 -10.5371    173.1401     62.7816   1.8288788626e+01   3.4382069365e+01    0.2024105    0.1675788 -56.00 0.0002637472    1.088    0.081
       324 -10.0885    109.9754     59.7496   2.8707055150e+01   4.8397210205e+01    0.2022353    0.1775706  71.82  0.001168243    1.055    0.052
       325 -10.3155     42.3096     58.9618   5.2496667971e+01   6.2335490737e+01    0.3939157    0.2962492 -36.08  0.001594549    1.422    0.297
       326  -9.8507    180.8400     59.1925   1.6514383203e+01   3.3392990484e+01    0.2349542    0.1525652  86.54 0.0008777356    1.649    0.394
       327 -10.2702    103.9985     59.3085   3.0047790507e+01   4.9808728502e+01    0.1982148    0.1664912  64.65 0.0003173799    1.108    0.097
       328  -9.5417    197.9742     58.0000   1.4371571061e+01   3.0355424446e+01    0.1689136   0.06358523  66.01 0.0007977335    2.910    0.656
       329 -10.1309    153.8503     57.1798   1.9641466290e+01   3.9145498079e+01     0.204411    0.1567025 -71.57  0.001216851    1.218    0.179
       330 -10.8090     37.0407     53.6986   5.3339858011e+01   6.4251343065e+01    0.2964404    0.1881112  34.05 0.0009831248    1.454    0.312
       331  -9.8961     40.8591     53.0988   5.1131044856e+01   6.3763905334e+01    0.2099599    0.1916849  26.63 0.0002926558    1.029    0.028
       332 -10.9254     24.0670     55.1433   6.1132076608e+01   6.5757446277e+01    0.3613018    0.2466304 -10.60  0.001208624    1.665    0.400
       333 -10.6381     19.8598     53.1119   6.3002345486e+01   6.6699012068e+01    0.2380407    0.2076024 -74.92 0.0004097745    1.387    0.279
       334 -10.1903    115.9561     54.0105   2.5609194181e+01   4.7965139563e+01    0.2970211      0.17772 -76.55 0.0005924909    2.427    0.588
       335 -10.4440    114.9096     48.7053   2.4223966249e+01   4.9005075227e+01    0.2985092    0.2158729 -14.54  0.001045151    2.061    0.515
       336  -9.5986    120.4960     52.0095   2.4058345842e+01   4.7243127489e+01     0.188115    0.1303302 -43.47 -0.0003373374    1.487    0.328
       337 -10.0457    174.3723     50.9036   1.5396628634e+01   3.5809170646e+01    0.2066123    0.1486688 -83.34 0.0005824944    1.326    0.246
       338 -11.3630     30.1357     49.6212   5.5657805334e+01   6.6111746341e+01    0.3373119    0.2965291  75.30  0.001096517    1.462    0.316
       339  -9.2598      2.3144     51.4923   7.3950383660e+01   6.8646122815e+01    0.1726945    0.1157362  25.84 0.0008938186    1.486    0.327
       340 -10.2770    100.0628     49.7310   2.7989398053e+01   5.2235326231e+01    0.2641394    0.2097826 -73.85 0.0005069023    1.364    0.267
       341 -11.0897     19.4251     46.9148   6.1159746844e+01   6.8074085298e+01    0.5053405    0.1718091 -46.23  0.001931229    2.916    0.657
       342 -11.2987    115.7369     42.9924   2.2296435986e+01   4.9637976701e+01    0.2444357    0.2059084  74.07 0.0002635513    1.070    0.065
       343  -9.6534    119.7282     39.7081   2.0515753462e+01   4.9172285363e+01     0.212079    0.1829416 -58.34 0.0006603049    1.174    0.148
       344  -9.4709    195.1533     43.6050   1.1622712770e+01   3.2757046629e+01    0.1454856   0.09916372  63.55 0.0009417615    1.664    0.399
       345  -8.8033    189.6999     43.2835   1.2064062413e+01   3.3822301178e+01    0.1203618   0.07117471 -65.65 0.0002369747    1.550    0.355
       346  -9.1164     90.3117     43.6669   2.8506831469e+01   5.5373570018e+01    0.1408232    0.1026347 -81.64 0.0005475021    1.678    0.404
       347 -11.4888     27.8928     36.1589   5.1591773950e+01   6.9044383891e+01    0.3954846     0.193684 -43.05  0.001823442    2.199    0.545
       348 -11.4900     31.9151     32.2140   4.7433496317e+01   6.9105862184e+01    0.3810374    0.3287973 -61.95  0.002314392    1.483    0.326
       349 -10.0701     80.2789     35.7596   2.8492393000e+01   5.8795481396e+01     0.392462     0.144013 -43.53  0.001526027    3.031    0.670
       350  -9.3100    218.7351     32.9420   7.6212153974e+00   2.9851677361e+01    0.1499276    0.1054343 -57.00 0.0003415681    1.057    0.054
       351 -10.0141    120.4418     32.5701   1.8207742681e+01   4.9935690669e+01    0.2219651    0.1835279  82.03  0.000544272    1.055    0.053
       352  -9.9753    106.7524     32.3401   2.0714661619e+01   5.3141991693e+01    0.2352959    0.1822421 -81.15  0.000687968    1.297    0.229
       353  -9.5713     14.7780     33.2164   5.8988068689e+01   7.1377780177e+01    0.1831886    0.1363429  -4.74 0.0004000763    1.330    0.248
       354  -9.2252     95.6546     33.9725   2.3728710046e+01   5.5512410322e+01    0.1740955    0.1641361 -77.55 0.0003905762    1.123    0.110
       355 -10.0305    114.5090    249.0141   6.5119770323e+01   7.8645086661e+00    0.2155312    0.1139503 -49.10 0.0006392224    2.038    0.509
       356 -10.1104      2.7555     30.2396   6.6925683389e+01   7.3193572470e+01    0.1869425    0.1298682 -17.91  0.001067034    1.362    0.266
       357  -9.1670    114.5223     27.5080   1.7663941593e+01   5.1926878616e+01    0.1309613    0.1119581  85.13 0.0002273656    1.002    0.002
       358 -10.0026      1.6740     25.4999   6.5932964058e+01   7.4223584161e+01    0.2088035    0.1637766 -47.50 0.0007340771    1.341    0.254
       359 -11.1636     85.0815     24.1156   2.2713548943e+01   5.9210913050e+01    0.2761362    0.2216864 -51.43 0.0008129659    1.373    0.272
       360 -10.1884     70.1517     21.1686   2.5693630541e+01   6.2990651486e+01    0.1945303    0.1626242  42.30 0.0005519972    1.193    0.162
       361  -8.9108     60.5016     20.4889   2.8599546094e+01   6.5223333259e+01    0.1326158    0.1134527  53.15 4.783376e-05    1.002    0.002
       362  -9.2071     98.4848     19.5458   1.8000542884e+01   5.6596478627e+01    0.1309494    0.1103853  79.62 0.0003184543    1.022    0.022
       363 -10.4095     79.6000     18.6957   2.1987720596e+01   6.1111154510e+01    0.2939315    0.2066367  65.88 0.0009561811    1.228    0.186
       364  -8.8712    248.3305    247.6986   4.0177284326e+01  -3.6729255655e+00   0.07988807   0.06922968 -19.18 0.0003800756    1.649    0.393
       365  -9.4594     92.4788     18.0114   1.8684598497e+01   5.8176180974e+01     0.176409    0.1274157 -36.94 0.0006732867    1.566    0.362
       366 -10.3798     66.8369     16.3168   2.4609220140e+01   6.4303458915e+01    0.2206004    0.1977752  60.59 0.0002688554    1.056    0.053
       367  -9.1356    178.5011    247.4941   5.1585180912e+01   1.8600099207e+00     0.175372     0.106173 -15.24  2.68775e-05    1.468    0.319
       368  -9.9667    180.9008    244.4881   5.0732714293e+01   2.0961309415e+00    0.2298458    0.1517551   6.83  0.001535852    1.298    0.229
       369 -10.0369     99.0099    246.8559   6.8477149575e+01   9.8625847347e+00    0.2896455    0.1471674   7.72  0.001350982    2.116    0.527
       370  -9.3847    205.4963    244.0040   4.6302858099e+01   2.6386994292e-02    0.1672851    0.1178267   1.64  0.000824304    1.198    0.165
       371  -9.4644    126.3770    241.7924   6.1578835940e+01   7.9290863887e+00    0.1588466    0.1566046  16.89 0.0005018153    1.343    0.255
       372  -9.2351    117.3477    241.3077   6.3568749739e+01   8.9702305000e+00    0.1342068   0.08456057 -12.52 0.0007043554    1.704    0.413
       373  -8.9212    167.4108    240.4762   5.2766909484e+01   3.9866312637e+00    0.1167424   0.09318222  -7.34 -8.401633e-05    1.044    0.042
       374  -9.4940    108.8664    239.9649   6.5381294228e+01   1.0124768520e+01    0.2373995    0.1436336   6.45 0.0009754278    1.627    0.385
       375 -12.0855     62.7021    236.1096   7.6363716788e+01   1.5769874061e+01    0.7842305    0.4295551 -83.83  0.003711003    2.531    0.605
