#   1 NUMBER                 Running object number                                     
#   2 MAG_AUTO               Kron-like elliptical aperture magnitude                    [mag]
#   3 X_IMAGE                Object position along x                                    [pixel]
#   4 Y_IMAGE                Object position along y                                    [pixel]
#   5 X_WORLD                Barycenter position along world x axis                     [deg]
#   6 Y_WORLD                Barycenter position along world y axis                     [deg]
#   7 A_WORLD                Profile RMS along major axis (world units)                 [deg]
#   8 B_WORLD                Profile RMS along minor axis (world units)                 [deg]
#   9 THETA_WORLD            Position angle (CCW/world-x)                               [deg]
#  10 FWHM_WORLD             FWHM assuming a gaussian core                              [deg]
#  11 ELONGATION             A_IMAGE/B_IMAGE                                           
#  12 ELLIPTICITY            1 - B_IMAGE/A_IMAGE                                       
         1 -13.4771     12.3904      9.9691   3.3537366137e+01   7.6948896288e+01     2.824901     1.648924  24.80   0.01534889    1.635    0.388
         2 -14.4281      3.2057    115.5788   6.8373391482e+01   5.1988671593e+01     5.702435    0.8396965 -79.97   0.01278524    6.881    0.855
         3 -15.3107     14.1075    117.7703   6.4119136482e+01   5.0679415282e+01     4.335058     2.812173 -75.30    0.0158277    1.431    0.301
         4 -13.2404      3.5398     53.0206   5.8934949835e+01   6.8658969453e+01     4.166213     1.411411 -82.26   0.01270176    4.850    0.794
         5 -10.6931     58.4434    131.4336   4.9099490345e+01   4.2109121805e+01    0.6983333    0.4210329  86.27  0.002731321    2.264    0.558
         6  -9.4320     42.4954    250.5267   6.6195944899e+01   1.5265080436e+01    0.3337372    0.2218952 -34.84  0.001499744    2.048    0.512
         7 -10.5628     39.9901    247.4959   6.6595135515e+01   1.6086463635e+01    0.4082163    0.3403611  11.52  0.002058676    1.276    0.217
         8 -13.4069      7.6709    208.1303   7.2519414338e+01   2.7367245874e+01     3.360397     1.737054  68.05   0.01258802    1.832    0.454
         9 -12.5150      9.4324    238.6520   7.3224282263e+01   2.0557087564e+01     1.665212    0.8525755   7.42  0.006973105    2.445    0.591
        10  -7.8953     67.1657    220.6995   5.8074402394e+01   1.8773902498e+01     0.217049    0.1000334 -71.71 0.0009642133    2.578    0.612
        11  -8.6931     53.4468    218.9896   6.1389763740e+01   2.0635229768e+01    0.2149978     0.154487  42.60 0.0005624187    1.216    0.178
        12  -8.0672     36.7737    218.7524   6.5614522702e+01   2.2380283526e+01    0.1834543    0.1249853  53.20 0.0005619501    1.329    0.248
        13  -8.4364    127.6977    214.6813   4.2752474726e+01   1.2714277462e+01    0.1327455    0.0910443 -13.67 0.0002124286    1.625    0.384
        14  -9.9887     52.5120    212.7853   6.1111911889e+01   2.2111787610e+01    0.2615205    0.2266429  79.19 0.0005169304    1.209    0.173
        15  -9.1955     59.0885    211.3769   5.9274373909e+01   2.1713478479e+01     0.344251    0.1775641  80.41  0.001439769    2.825    0.646
        16  -8.4285     33.7590    207.4259   6.5631129117e+01   2.5250526330e+01    0.2209377    0.1734344 -85.13 0.0005153531    1.330    0.248
        17 -10.1212    102.2455    200.0380   4.6817555666e+01   1.8962039678e+01    0.3104585    0.2694574  15.55 0.0009749647    1.081    0.075
        18 -10.0611     32.1279    189.4763   6.4761719023e+01   2.9737100765e+01    0.6988685    0.2942376  75.67   0.00254484    3.196    0.687
        19 -10.7961     42.3174    198.0341   6.2594285868e+01   2.6621072122e+01     0.634932    0.5536802  66.60  0.003815796    1.103    0.093
        20  -9.7827     35.8661    193.3293   6.4006091754e+01   2.8418430554e+01    0.4584001     0.318529  51.70  0.002448056    1.322    0.243
        21  -7.9411    113.9957    196.0000   4.3315537999e+01   1.8254105114e+01    0.2291542   0.07306376  29.84 0.0005739052    2.941    0.660
        22 -11.9222     18.0307    249.2877   7.1658044572e+01   1.7714333442e+01      1.20312    0.6526954  11.66  0.003593681    2.051    0.513
        23  -9.0980     14.4886    190.1153   6.9815314314e+01   3.1151086764e+01    0.3458924    0.2264856 -37.01  0.001032875    1.949    0.487
        24  -7.7477    207.2708    190.6458   2.3161204552e+01   7.0710726226e+00    0.1050643    0.0888998 -53.27 0.0006997027    1.636    0.389
        25 -11.5225     12.8391    246.3371   7.2714062099e+01   1.8730841193e+01    0.6674426    0.4512695 -57.35  0.003749068    1.866    0.464
        26  -8.2755    108.4446    188.4857   4.3578498324e+01   2.0642801737e+01    0.1378859    0.1299479  14.81 8.548169e-05    1.015    0.015
        27  -9.0051    118.9754    182.4848   3.9980131095e+01   2.0457527373e+01    0.2064785    0.1056281  50.65 0.0008104106    2.598    0.615
        28 -11.7350     21.0633    172.2972   6.6722255082e+01   3.5149825587e+01    0.9530414    0.7445176  65.77  0.003926588    1.190    0.160
        29 -10.9358      8.2703    179.0534   7.1000182255e+01   3.4428101155e+01    0.4190348    0.3178175 -23.57 0.0009178588    1.649    0.393
        30  -8.4097    128.3521    179.3050   3.7153026546e+01   1.9769097948e+01     0.146521    0.1033506 -12.12 0.0007041345    1.708    0.414
        31 -10.8236     40.3454    172.7431   6.0828427809e+01   3.3178762990e+01    0.9368529    0.5334439  74.10  0.004064001    2.030    0.507
        32  -8.3134    115.3323    173.9959   3.9480973804e+01   2.2871170054e+01    0.2446888   0.08927442 -37.34 0.0007051696    4.356    0.770
        33  -9.2533     53.9903    163.4578   5.5505055349e+01   3.4072013211e+01     0.399577    0.2401031  71.12  0.001047534    2.034    0.508
        34  -8.6408    153.5087    162.5307   2.8325843823e+01   1.9408900151e+01    0.1369453    0.1257715 -21.60 0.0008097864    1.013    0.013
        35  -8.2515     17.3922    160.6161   6.6987286896e+01   3.8563491520e+01    0.2103692     0.134491  57.73 0.0005125066    1.499    0.333
        36  -9.5364     43.0377    159.5091   5.8522771628e+01   3.6393384821e+01    0.4431798    0.2662826 -14.35  0.001795175    2.454    0.593
        37  -9.7224     71.4830    157.5018   4.9161653257e+01   3.3352594389e+01    0.2736837     0.146428  27.83 -8.341455e-06    1.866    0.464
        38  -9.3728     59.5224    156.6008   5.2805638674e+01   3.5194508349e+01    0.3818898    0.3213107  13.61   0.00165287    1.278    0.218
        39 -11.1733     50.3014    154.1869   5.5467999519e+01   3.6987445464e+01     1.042385    0.6938946 -44.66   0.00153419    1.642    0.391
        40 -11.6819     47.3045    143.5212   5.4987455640e+01   4.0243746689e+01    0.6752481    0.4805328 -17.85  0.001615457    1.791    0.442
        41 -11.3539     68.9455    144.3186   4.7793551129e+01   3.7170025089e+01    0.8555489    0.5101968  38.94  0.002419841    1.630    0.386
        42 -10.0629     67.1729    148.9094   4.9146890936e+01   3.6205977730e+01    0.4204982    0.3086045  71.21 0.0009160827    1.561    0.359
        43 -10.8018     62.6204    148.4628   5.0561584181e+01   3.6950611531e+01    0.3967734    0.3155818 -10.06 0.0002526818    1.514    0.339
        44  -9.9321     55.0511    237.1353   6.2402551114e+01   1.6656281222e+01    0.3974218    0.1842955 -68.31   0.00174596    2.453    0.592
        45  -8.8579    108.9459    145.5096   3.5885875128e+01   3.0510284350e+01    0.2833225     0.225553 -53.10 0.0008700739    1.245    0.197
        46 -10.1869     76.2834    131.0505   4.2872438689e+01   3.9557066775e+01    0.3145383    0.2787237 -19.14 0.0005232821    1.260    0.207
        47  -8.7219    105.9622    130.9506   3.3640018573e+01   3.4519505711e+01    0.2392188    0.2365126 -43.46  0.001312214    1.016    0.015
        48  -8.4757    103.8699    126.3235   3.3203234072e+01   3.6011378458e+01    0.3542955    0.2337533   1.47  0.001307829    2.634    0.620
        49  -9.1470     90.0418    120.6307   3.6109239925e+01   3.9904483640e+01    0.3070351    0.2557999   2.70 0.0006954184    1.445    0.308
        50  -8.7208    102.5396    115.7517   3.1093381811e+01   3.8791984089e+01    0.2505794    0.2181268 -43.02 0.0004211597    1.156    0.135
        51  -8.8047    114.7647    108.0009   2.5653294865e+01   3.8192496262e+01    0.2121823    0.1243906 -48.67 0.0008892098    1.656    0.396
        52 -11.3606    221.8985     61.3151   3.5582510297e+02   2.5036216210e+01    0.4208945    0.4047185 -32.96  0.003196362    1.348    0.258
        53 -12.1292    230.1976     58.2007   3.5445061306e+02   2.4025498525e+01     0.894364    0.5188091 -47.22  0.005598373    1.297    0.229
        54 -11.6259    238.1179     52.8934   3.5274849288e+02   2.3389774871e+01     0.468161    0.3793726  71.64  0.001908292    1.546    0.353
        55  -8.5587     48.9550    237.0000   6.3845731610e+01   1.7299504923e+01    0.2108117    0.0609621  24.27 0.0008015003    2.936    0.659
        56 -11.0947    249.6529     44.4881   3.5031090968e+02   2.2569301535e+01    0.6284667    0.1882639 -34.43  0.002702746    2.678    0.627
        57  -8.0342     72.5027    226.5193   5.7296522986e+01   1.6958199917e+01    0.1295093    0.1121745  29.33 0.0003036247    1.015    0.015
        58  -7.6741     93.9883    141.0024   3.9286099447e+01   3.4126841725e+01    0.1813005    0.1720009 -59.25 0.0003254303    1.049    0.047
        59 -11.9683      2.2553    243.7364   7.5004722495e+01   2.0101254523e+01     1.538611    0.3662193 -81.90  0.006051975    4.455    0.776
        60 -10.7825     59.6954    138.6786   4.9932584782e+01   3.9976056947e+01    0.5393137     0.444376  64.20  0.002202165    1.261    0.207
        61  -8.8163     60.7524     21.1681   1.1952147757e+01   6.6362136650e+01    0.2345649    0.1778317  69.58 0.0008566328    1.408    0.290
