#   1 NUMBER                 Running object number                                     
#   2 MAG_AUTO               Kron-like elliptical aperture magnitude                    [mag]
#   3 X_IMAGE                Object position along x                                    [pixel]
#   4 Y_IMAGE                Object position along y                                    [pixel]
#   5 X_WORLD                Barycenter position along world x axis                     [deg]
#   6 Y_WORLD                Barycenter position along world y axis                     [deg]
#   7 A_WORLD                Profile RMS along major axis (world units)                 [deg]
#   8 B_WORLD                Profile RMS along minor axis (world units)                 [deg]
#   9 THETA_WORLD            Position angle (CCW/world-x)                               [deg]
#  10 FWHM_WORLD             FWHM assuming a gaussian core                              [deg]
#  11 ELONGATION             A_IMAGE/B_IMAGE                                           
#  12 ELLIPTICITY            1 - B_IMAGE/A_IMAGE                                       
         1 -10.5938    210.3369     13.1315   3.8322258290e+01   3.0768473477e+01    0.7959874    0.4160479 -58.28  0.003834277    1.945    0.486
         2 -10.7335    215.1277      8.6993   3.6801328305e+01   3.0102373849e+01    0.9355074    0.4821804 -63.27  0.004530272    1.999    0.500
         3 -10.3883    120.1114      8.1478   4.9506153087e+01   5.3585047476e+01     0.698329    0.3236862  34.17  0.002949458    2.428    0.588
         4  -8.4046    237.0352      7.1043   3.4652605101e+01   2.5281320328e+01    0.1814215     0.152811 -72.06  0.000427244    1.043    0.042
         5 -10.7847    114.9081      3.0125   4.8618099006e+01   5.5246655605e+01    0.8361905    0.1877214  60.16  0.002869377    3.328    0.700
         6  -8.3735    248.6271      1.8280   3.2728033369e+01   2.3338697450e+01    0.2043441    0.1438031  64.77 0.0009952653    1.564    0.361
         7  -7.0874    223.3797    246.2969   8.8562686029e+01  -7.9362771339e+00    0.1267993   0.07377438  11.31 0.0007022404    1.758    0.431
         8  -8.1850    248.8779    250.3280   8.4745218610e+01  -1.1848720404e+01    0.2195301   0.08611326  40.13   0.00110307    2.633    0.620
         9  -9.4808    105.2354    249.9692   1.1140534597e+02   9.5173113058e+00    0.2923061    0.2098742  45.14  0.001916758    1.128    0.114
        10 -17.6743     22.1330    241.4883   1.2581794062e+02   2.1657704110e+01     2.595663     2.003364  43.17   0.01248037    1.451    0.311
        11  -8.7067     84.2366    221.6069   1.1259276975e+02   1.7759200946e+01    0.2169614    0.2030972 -71.29  0.001073194    1.286    0.223
        12  -9.1241    121.9459    216.9653   1.0415824301e+02   1.2844882337e+01    0.2565231    0.1588177  41.46  0.001350932    1.406    0.289
        13  -7.8798     82.6982    216.4758   1.1235994112e+02   1.9001542509e+01    0.2554339    0.1443152 -85.43  0.001272273    2.151    0.535
        14  -8.8225     75.5260    215.5617   1.1375075679e+02   2.0199728368e+01    0.2678406    0.1978396 -80.50 0.0008855966    1.349    0.259
        15  -8.4608     78.8754    213.3307   1.1281753086e+02   2.0184517887e+01    0.2332969    0.1852306 -87.90 0.0008246107    1.224    0.183
        16  -8.8260     91.5904    214.8657   1.1031711261e+02   1.8023764475e+01    0.2752779    0.2491528  88.99  0.001059225    1.147    0.128
        17  -8.9106    217.3708    212.5346   8.3962984227e+01  -2.5153767528e+00    0.2902428     0.250957 -73.66  0.001022219    2.035    0.508
        18  -7.7128    247.3318    212.6920   7.8554656186e+01  -7.1078527098e+00     0.102097     0.100915  21.91 0.0002927853    1.666    0.400
        19  -7.6939     99.2666    209.9677   1.0808651148e+02   1.7846600524e+01    0.1754702    0.1578123  64.56 0.0003047237    1.050    0.047
        20  -7.7672    142.6270    209.2012   9.8605385935e+01   1.0825799109e+01    0.1841587    0.1255573 -37.84 0.0006419834    1.741    0.425
        21  -8.3416     75.9478    209.2978   1.1299808928e+02   2.1428402992e+01     0.346155    0.1716655  63.96  0.001578882    2.337    0.572
        22  -8.6881     74.8363    204.8122   1.1274295701e+02   2.2525149145e+01    0.3827045    0.1856204  32.64  0.001488358    2.223    0.550
        23  -9.2378     71.6865    202.3577   1.1315138954e+02   2.3484024882e+01      0.29988    0.2076255 -72.40  0.000896773    1.425    0.298
        24  -8.9128    205.8006    207.2405   8.5222255355e+01   1.8210556000e-01    0.2787402    0.1935462  41.63  0.001424128    1.459    0.314
        25 -10.4527    237.2154    205.8291   7.9073962318e+01  -4.6688809669e+00    0.2584471    0.2068637  13.52 0.0002787471    1.089    0.081
        26  -9.8664    134.4762    229.4766   1.0324668632e+02   8.5139705043e+00    0.4353941    0.2371183 -26.64  0.001706685    4.131    0.758
        27  -8.4148    219.0658    230.3261   8.6744809670e+01  -5.2687772973e+00    0.1877657    0.1629177  -7.91 0.0001997119    1.235    0.190
        28  -9.0530    206.9284    202.6533   8.4157412678e+01   7.1129575077e-01    0.2305599    0.1933163 -10.99  0.000321355    1.139    0.122
        29  -7.8136    185.9947    229.7360   9.2946131923e+01   8.9832779016e-03    0.2745852    0.1320043 -52.94  0.001201174    3.280    0.695
        30  -7.7454    101.9315    202.3310   1.0650732318e+02   1.9002076510e+01    0.1888124    0.1575855  47.56 0.0006103216    1.106    0.096
        31  -9.4835     85.8962    200.2878   1.0979550165e+02   2.1895583162e+01    0.2806526    0.2175137  58.85 0.0002927507    1.155    0.134
        32  -8.6636     89.4730    199.9551   1.0896055411e+02   2.1431758663e+01    0.2986609    0.1973493  89.54  0.001046409    1.733    0.423
        33  -8.9215     82.7325    196.5910   1.1004027018e+02   2.3158028925e+01    0.3656433    0.2191239  76.67  0.001232032    2.030    0.507
        34  -8.0915     66.4827    200.1106   1.1403488877e+02   2.4672793276e+01    0.3407003    0.1726736  61.23  0.001182621    2.081    0.519
        35 -10.8662     61.9818    195.5024   1.1452228319e+02   2.6269536604e+01    0.6956974    0.5477509  31.40  0.003632279    1.480    0.324
        36  -9.1743     62.6908    189.3275   1.1368320998e+02   2.7543989588e+01    0.2472305    0.1779369  65.09 0.0005303313    1.279    0.218
        37 -10.3769     59.9537    186.0007   1.1392679700e+02   2.8646150715e+01    0.3370914    0.2550912  77.49 0.0004004586    1.205    0.170
        38  -7.9446    216.9794    198.6261   8.1458657117e+01  -3.5549882469e-01    0.1861759    0.1509893  19.45  0.000572316    1.096    0.088
        39  -8.3661    207.1104    197.9523   8.3238582253e+01   1.4300088844e+00    0.2005175    0.1730921  10.97 0.0003609854    1.017    0.017
        40  -7.7736     97.8404    197.8921   1.0681920500e+02   2.0583820929e+01    0.1818968    0.1418629  83.08 0.0005263293    1.331    0.249
        41 -13.4636     12.2890    209.2784   1.2580569953e+02   2.8889082704e+01     1.053148    0.7804992 -63.66  0.004600126    1.585    0.369
        42  -8.4086    234.2591    194.0327   7.7359287319e+01  -2.4994838534e+00    0.1793463    0.1472268  -8.81  0.000337307    1.068    0.064
        43 -10.0644    175.0533    193.3279   8.8919651270e+01   7.9590566423e+00    0.2448751    0.2348651  19.05 0.0002516901    1.101    0.092
        44  -8.9739    127.0406    192.2848   9.9356132579e+01   1.6898159419e+01    0.2354409    0.2048195 -60.75 0.0002157295    1.236    0.191
        45  -8.2193     53.4482    188.7035   1.1568985213e+02   2.8856703075e+01    0.2499021    0.1849737 -47.51  0.001466487    1.689    0.408
        46  -8.1897     91.9381    191.8319   1.0733257684e+02   2.2811924606e+01    0.2029295    0.1796426  60.85 0.0004830188    1.039    0.038
        47  -7.1539     94.2513    236.6641   1.1216037669e+02   1.3454656076e+01    0.1214475   0.07932268  68.46 0.0006937278    1.563    0.360
        48  -8.5294     96.9199    190.1328   1.0594911319e+02   2.2406063186e+01     0.281343    0.2187646 -80.57  0.001039136    1.330    0.248
        49  -7.2570    207.0123    188.2127   8.1373064350e+01   3.0438046777e+00    0.1797875    0.1039661  37.97 0.0005219369    1.648    0.393
        50  -9.6655     71.3822    185.0932   1.1119068113e+02   2.7326347755e+01    0.6189094    0.3266722  23.04  0.002685511    2.760    0.638
        51 -10.5012     72.6596    179.4166   1.1016248731e+02   2.8442620626e+01    0.6388851    0.5879459  54.08  0.003044471    1.155    0.134
        52  -9.3825     64.9061    172.0951   1.1106097461e+02   3.1198309924e+01    0.3759725    0.2457424  62.17 0.0007627896    1.554    0.356
        53  -8.9279     60.8522    170.1789   1.1179781307e+02   3.2177948776e+01     0.226098    0.1982096  85.79 0.0003423076    1.011    0.011
        54  -8.7027    123.0616    183.4933   9.8815029246e+01   1.9460122639e+01    0.2104979      0.19422 -59.87 0.0005525599    1.145    0.126
        55  -7.5048     84.4982    183.9818   1.0798069808e+02   2.5688302163e+01    0.1843887     0.109031  83.71 0.0008042812    2.259    0.557
        56  -9.1456     52.1477    183.3055   1.1540706256e+02   3.0231959036e+01    0.2588184    0.1767642  56.86    0.0004761    1.360    0.265
        57  -7.6139     23.4812    184.5346   1.2187008615e+02   3.3084789844e+01    0.1793439    0.1115847  75.07 0.0006911643    1.414    0.293
        58  -7.9813     22.0000    180.4584   1.2186119659e+02   3.4134553534e+01     0.307431    0.1434867 -75.87  0.001613282    1.813    0.449
        59  -8.1935     14.5979    184.1837   1.2372742425e+02   3.3993774711e+01    0.1753408    0.1419656  45.69 0.0002600554    1.370    0.270
        60  -8.9729     80.2133    221.1368   1.1336473384e+02   1.8425003935e+01    0.2811708    0.1726976 -81.10  0.001412797    1.771    0.435
        61  -8.2260    150.5183    179.6504   9.1755778052e+01   1.5209939083e+01    0.3324923    0.2308363 -66.17  0.001234888    1.866    0.464
        62  -7.9927      4.6231    179.1118   1.2546778936e+02   3.5959493510e+01    0.1731251    0.1100843 -88.62 0.0006000319    1.233    0.189
        63  -8.8664    196.2856    177.8431   8.1445571666e+01   6.8017925848e+00    0.2391903    0.2092473  30.33 0.0002606909    1.120    0.107
        64  -7.2547    189.0000    176.9742   8.2776564368e+01   8.3411184942e+00    0.2357198   0.08088578 -41.61 0.0008096806    2.993    0.666
        65  -8.0400    182.2063    176.0422   8.4022980675e+01   9.8189566781e+00    0.3247847    0.2364043 -68.39  0.001501883    2.094    0.523
        66  -8.6163     34.6922    173.7090   1.1841369680e+02   3.4401213849e+01    0.3329702    0.1749043  58.55  0.001589963    1.897    0.473
        67  -9.7441     17.9029    165.0751   1.2148132012e+02   3.7999216072e+01    0.5325317    0.3122867 -75.54  0.003109422    1.402    0.287
        68  -8.3451     29.3645    174.5965   1.1971671971e+02   3.4742066975e+01    0.3806399    0.1106632  41.99   0.00161671    3.027    0.670
        69  -9.4112     11.8605    174.4910   1.2360004254e+02   3.6382991609e+01    0.5032166    0.2033114  24.70  0.002447554    3.156    0.683
        70 -10.0275     19.7792    173.2134   1.2175282716e+02   3.5972873949e+01    0.6882296    0.2446284  36.50  0.002427675    2.698    0.629
        71  -8.2505     88.7396    174.1277   1.0553367204e+02   2.7293947664e+01    0.2429978    0.1702185 -71.47  0.001248561    1.440    0.305
        72 -10.0931    153.8262    216.8665   9.7427098150e+01   7.4993945114e+00    0.5556802    0.4008657  53.24  0.003083045    1.437    0.304
        73  -8.5415    105.3099    171.7342   1.0108243563e+02   2.5157479499e+01    0.2420903    0.2014668  44.39  0.000741843    1.173    0.147
        74  -9.0140     82.6093    170.3688   1.0647145415e+02   2.9101923215e+01    0.3239759    0.2499991 -40.55  0.001627871    1.552    0.356
        75  -8.8250     85.9516    166.0247   1.0496353705e+02   2.9615715938e+01    0.2997309    0.2332486 -39.90 0.0007026051    1.516    0.340
        76  -8.2028    123.9879    169.0135   9.6017622063e+01   2.2472245363e+01    0.2144338    0.2077418  64.57  0.001214363    1.014    0.013
        77  -8.3962     76.5306    166.0450   1.0733684173e+02   3.1014007036e+01    0.2782406    0.1695285  52.57 0.0009926073    1.665    0.399
        78  -8.7438    129.2337    164.8979   9.3950425353e+01   2.2414659892e+01    0.2916158    0.2493998  69.36 0.0008733612    1.260    0.207
        79  -7.7038      7.1617    163.4315   1.2379999844e+02   3.9260699703e+01    0.1972681    0.1157197 -86.79 0.0007573091    1.380    0.275
        80  -8.3722     81.5628    161.4473   1.0534688124e+02   3.1366776596e+01    0.2879915    0.2369364   1.46  0.001539765    1.650    0.394
        81  -9.1432     71.1524    161.2866   1.0798551467e+02   3.2909260095e+01    0.3492652      0.21026  48.23 0.0006657998    1.667    0.400
        82  -9.4942     16.6622    158.0632   1.2114371040e+02   3.9726842036e+01    0.4696186    0.2040488 -44.77   0.00208218    3.204    0.688
        83  -8.1230     92.4091    157.6991   1.0191878170e+02   3.0573657099e+01    0.2423587    0.1878015  42.70 0.0005151519    1.300    0.231
        84  -9.8699     24.3821    156.2565   1.1910719443e+02   3.9474690492e+01    0.4471374    0.2216763  10.23  0.001613775    3.649    0.726
        85  -9.5472     32.9733    157.7197   1.1715129174e+02   3.8312370866e+01    0.2916726    0.1950061  55.38 0.0009829595    1.496    0.332
        86 -10.3583     29.7395    153.6259   1.1750181999e+02   3.9598539547e+01    0.7662981    0.2209345  44.37  0.003025655    3.424    0.708
        87  -7.5411    148.7156    157.3514   8.7684260327e+01   2.0266450892e+01    0.1525496    0.1218165  88.99 0.0002543755    1.658    0.397
        88  -9.1784      7.4672    144.4959   1.2213436065e+02   4.3604783407e+01    0.3101587    0.2352729  26.95  0.002070406    1.649    0.394
        89 -10.0661      9.7226    140.2499   1.2116369316e+02   4.4438649513e+01    0.6945338     0.159139  27.39  0.002761681    4.354    0.770
        90 -10.1436     12.4068    151.8535   1.2159668104e+02   4.1518137470e+01    0.3941329     0.368619 -15.88  0.002870452    1.450    0.310
        91  -9.8432     13.0991    147.0422   1.2097416970e+02   4.2590075739e+01    0.3637336    0.2291054  22.90  0.001231533    2.010    0.502
        92 -10.3236     81.5653    152.1962   1.0380780193e+02   3.3588226013e+01    0.3891744    0.2689095 -42.27  0.001046695    1.628    0.386
        93  -8.9141     97.1324    151.6129   9.9574394213e+01   3.1250492399e+01    0.5609861    0.2872933 -37.80  0.002110685    2.690    0.628
        94  -8.8742     38.7452    151.4698   1.1496241141e+02   3.9216755911e+01    0.4900323    0.1848235  48.10  0.002040048    2.852    0.649
        95  -8.3861      1.8351    151.7995   1.2411909657e+02   4.2308784020e+01    0.2878381    0.1362603 -88.79  0.001180506    1.829    0.453
        96  -7.6321    114.8173    152.6280   9.5145861119e+01   2.7904953217e+01    0.2219114    0.1328028  49.96 0.0009455149    1.740    0.425
        97 -12.3381     66.6680    140.2473   1.0579762710e+02   3.8631800866e+01     1.799547     1.068266  80.61   0.00759092    2.435    0.589
        98  -8.6024    150.0571    147.2001   8.5128552292e+01   2.2196014715e+01    0.2917397    0.2081198 -77.15  0.001220563    2.073    0.518
        99 -10.5444    146.1706    221.3136   9.9693553844e+01   8.0143181455e+00    0.4260797    0.3657829  11.41  0.002635353    1.277    0.217
       100  -8.1155     82.3424    141.3388   1.0163950589e+02   3.6107993539e+01    0.2948886    0.1521502  55.16  0.001162903    2.428    0.588
       101  -9.4196     96.8323    137.5099   9.6861487419e+01   3.4691800201e+01    0.3564732    0.3024859   2.68 0.0007223437    1.449    0.310
       102  -8.3217    108.8559    137.0190   9.3451662490e+01   3.2680038245e+01    0.3759519    0.1819298 -34.62  0.001249145    3.108    0.678
       103  -9.7151      3.5086    135.5104   1.2229957604e+02   4.5974138080e+01     0.533401    0.2034713 -88.26  0.002300504    2.709    0.631
       104  -7.8214    121.7217    135.5596   8.9659128961e+01   3.0579843230e+01    0.2145742    0.1445107  53.35 0.0007627994    1.614    0.380
       105  -8.7784     85.8620    132.9647   9.9003330866e+01   3.7601358765e+01     0.561565    0.2614747  59.96  0.001723839    4.171    0.760
       106  -8.0594     14.9722    135.3150   1.1928312989e+02   4.5220014571e+01    0.1966072   0.05300603  46.74 0.0007047881    4.309    0.768
       107  -9.8732     49.6097    133.1496   1.0941865839e+02   4.2494191693e+01     0.350931    0.2075775  44.57  0.001753688    1.826    0.452
       108 -10.7646     39.3962    129.3036   1.1173584699e+02   4.4531554791e+01    0.5615053    0.3830234  39.36  0.001396925    1.623    0.384
       109  -8.0245     12.8482    130.3220   1.1929728663e+02   4.6563782685e+01    0.2179531   0.09404226  34.59  0.001081268    2.532    0.605
       110  -7.6316    115.4775    129.4715   8.9929395929e+01   3.3216392665e+01    0.1530265     0.149028 -35.19 0.0008092749    1.038    0.036
       111  -8.3877     30.1823    129.3316   1.1436608432e+02   4.5403881575e+01    0.1853085    0.1574102 -35.92 0.0008473262    1.364    0.267
       112  -8.3432     26.0325    127.9785   1.1535469245e+02   4.6094816655e+01    0.2112461    0.1261217 -22.15  0.001029421    2.565    0.610
       113  -9.2219      3.4827    126.8418   1.2145493731e+02   4.8008516330e+01    0.3044471     0.158751  78.96  0.001577559    2.039    0.510
       114  -9.5002     73.7285    125.9892   1.0109595799e+02   4.1146782384e+01    0.3796889    0.2395914  63.81  0.001676445    2.105    0.525
       115  -9.2500     69.8068    125.6210   1.0218114875e+02   4.1793560556e+01    0.2934351    0.2182066  47.91 0.0007572222    1.454    0.312
       116  -8.9156    143.1314    125.1812   8.1583000053e+01   2.8509885778e+01    0.2573778    0.2385349 -52.88 0.0002862585    1.096    0.087
       117  -9.8803     48.7181    126.0049   1.0849199392e+02   4.4347875205e+01    0.2924082    0.2501551  71.18  0.001744968    1.236    0.191
       118  -9.5624    199.6100    123.8843   6.8554661526e+01   1.6199712769e+01    0.2551257    0.2487043   0.21 0.0003800385    1.047    0.045
       119  -8.0901    103.3712    125.0030   9.2258608225e+01   3.6541057394e+01      0.25129    0.2098538  -8.57 0.0005606503    1.452    0.311
       120  -8.9368      3.5680    121.8734   1.2090985742e+02   4.9171529641e+01    0.2346377    0.1993581 -43.36  0.001650143    1.344    0.256
       121  -8.2105    205.0033    120.7044   6.6728084475e+01   1.5610851581e+01    0.2625116    0.2083652 -35.77 0.0005409003    1.192    0.161
       122 -10.6179     55.4639    118.4300   1.0508962385e+02   4.5420531015e+01     0.487083     0.302352 -57.61  0.002021049    1.405    0.288
       123  -9.8790     42.5838    115.4908   1.0850435702e+02   4.7578877408e+01    0.3155495    0.2300151  27.31  0.001573753    1.597    0.374
       124  -8.2480     65.3056    114.9939   1.0135805590e+02   4.5005734459e+01    0.2041864    0.1711386 -60.08 0.0007149275    1.081    0.075
       125  -7.2896    203.2886    113.2997   6.5212011972e+01   1.7358652296e+01    0.1497781    0.1173387   4.92 0.0006978171    1.559    0.358
       126  -7.4796    106.0307    119.4874   9.0178824576e+01   3.7356932029e+01    0.2089464    0.1519035  41.76 0.0009718803    1.422    0.297
       127  -7.3037    106.2836    110.3596   8.7797974015e+01   3.9438671789e+01    0.1591109    0.1187077 -18.41 0.0002764973    1.676    0.403
       128  -7.8715    135.4997    109.5242   7.9454321049e+01   3.3612228384e+01    0.1568256    0.1546612 -30.06 6.436917e-05    1.015    0.014
       129  -8.9594    133.4464    146.5863   8.9099756640e+01   2.5722282231e+01    0.6205373    0.1711144 -43.09  0.001700051    4.099    0.756
       130  -8.8023     63.0939    104.1520   9.9657639989e+01   4.7915727584e+01    0.3190311    0.1447043 -38.25  0.001204847    2.637    0.621
       131  -8.3618     35.9595    103.0109   1.0830559640e+02   5.1246261282e+01     0.392989    0.1353058  42.06  0.001505074    3.551    0.718
       132  -7.6392    146.5099     99.1108   7.3737348529e+01   3.3333262932e+01    0.2297783    0.1555236 -38.20 0.0003608626    1.472    0.321
       133  -8.3691     89.1107     98.9739   8.9983736821e+01   4.5175840562e+01    0.2565736     0.226776  59.37  0.001035804    1.286    0.223
       134  -8.3417    122.6920     84.9118   7.5812361486e+01   4.1623796623e+01    0.3613535    0.2403411  13.41  0.001425816    2.241    0.554
       135 -10.1880    105.6776     79.1769   7.8976730930e+01   4.6378563524e+01    0.2573835    0.2424109   9.32 0.0002256684    1.045    0.044
       136  -9.0090    201.6760     76.3241   5.5902570533e+01   2.4246015649e+01    0.4084319    0.2640994 -29.48  0.001865744    1.593    0.372
       137  -7.4123    117.1772     77.7920   7.5141746570e+01   4.4246411254e+01    0.2031501    0.1724024   2.48 0.0002472491    1.278    0.218
       138  -6.9132    176.8159     66.1081   5.7458960661e+01   3.2034348791e+01    0.1966505    0.1719819  22.94  0.000333735    1.286    0.222
       139  -8.5482    163.2273     61.5931   5.8763330223e+01   3.6172442170e+01    0.2211625    0.1335482  46.26 0.0008202626    1.668    0.400
       140  -9.9064    172.6349     54.9976   5.4971967269e+01   3.4824857222e+01    0.3923765    0.3147028  63.89  0.001059575    1.223    0.182
       141  -7.1498    109.2781     56.2779   7.0183618161e+01   4.9905937981e+01    0.1453821    0.1098684  11.22 0.0003231452    1.501    0.334
       142  -7.3253    151.8039     53.4472   5.8584898187e+01   4.0311095981e+01    0.1971744    0.1340481  44.52 0.0002051178    1.460    0.315
       143 -10.0890    181.8193     46.9894   5.1050559509e+01   3.3666477447e+01    0.6583876    0.4829346 -58.15   0.00329276    1.446    0.309
       144 -10.5126    187.8509     41.3320   4.8507341550e+01   3.2921795485e+01    0.8016866    0.6065106 -48.27  0.003302717    1.316    0.240
       145 -10.1519    192.6289     35.5564   4.6223849170e+01   3.2479464540e+01    0.6007031    0.3931114 -23.87  0.001726318    1.722    0.419
       146  -7.4154    132.9822     32.2479   5.5533016562e+01   4.7917832571e+01    0.1950695    0.1684005  49.14 0.0003273415    1.068    0.064
       147  -7.3878    171.4496     24.7989   4.6169208954e+01   3.9119808102e+01    0.1712585     0.137695  -0.94 0.0004884941    1.522    0.343
       148  -8.1351    163.8597     23.8259   4.7030197591e+01   4.1157307319e+01    0.1984893    0.1714323  47.95 0.0002665763    1.156    0.135
       149  -9.0512    131.1163     20.2671   5.1692241061e+01   4.9753475334e+01    0.3029233    0.1876903 -29.87            0    1.732    0.423
       150  -7.8062     92.3563    249.3174   1.1376386067e+02   1.1487713920e+01     0.223744    0.1471186  25.11  0.001304929    1.957    0.489
       151  -8.9105     89.9851    246.3197   1.1392810095e+02   1.2343792689e+01    0.2735673    0.2289471 -88.11  0.001954725    1.280    0.219
       152  -8.2460     89.2711    242.6534   1.1371620221e+02   1.3092443926e+01    0.1870306    0.1386058  62.65 0.0005351283    1.161    0.139
       153  -9.5788    247.9793    240.9018   8.3360935304e+01  -1.0676363910e+01    0.2769566    0.1698066  30.86  0.001044752    1.455    0.313
       154  -7.2127    231.6293    242.3099   8.6449497384e+01  -8.6159429554e+00    0.1046447   0.08978193  46.12 0.0007034542    1.769    0.435
