#   1 NUMBER                 Running object number                                     
#   2 MAG_AUTO               Kron-like elliptical aperture magnitude                    [mag]
#   3 X_IMAGE                Object position along x                                    [pixel]
#   4 Y_IMAGE                Object position along y                                    [pixel]
#   5 X_WORLD                Barycenter position along world x axis                     [deg]
#   6 Y_WORLD                Barycenter position along world y axis                     [deg]
#   7 A_WORLD                Profile RMS along major axis (world units)                 [deg]
#   8 B_WORLD                Profile RMS along minor axis (world units)                 [deg]
#   9 THETA_WORLD            Position angle (CCW/world-x)                               [deg]
#  10 FWHM_WORLD             FWHM assuming a gaussian core                              [deg]
#  11 ELONGATION             A_IMAGE/B_IMAGE                                           
#  12 ELLIPTICITY            1 - B_IMAGE/A_IMAGE                                       
         1 -14.4297    180.2877     80.4368   5.0012837233e+01   2.9109291505e+01      9.70496     4.155584 -56.31   0.03260284    3.346    0.701
         2 -11.9928    249.8322     24.7692   2.9527324156e+01   2.2527986200e+01     1.338933    0.4958731 -32.88  0.006304512    3.068    0.674
         3 -14.1003    226.0395     87.4535   4.4624613816e+01   1.8170964575e+01     7.835957     2.000733 -51.62    0.0202093    6.256    0.840
         4 -13.6036    225.1458     70.6385   4.1089660140e+01   2.1043852487e+01     3.880089     1.152453 -48.50    0.0142937    3.122    0.680
         5 -13.7133    238.4724     64.5254   3.8285382039e+01   1.9347164167e+01     2.702512    0.7761458 -43.20   0.01096482    2.743    0.635
         6 -12.6139    245.0403     54.8790   3.5683248065e+01   1.9490858156e+01     2.154382     0.504612 -52.94  0.006645895    5.347    0.813
         7  99.0000    211.7604     17.5021   3.1061904499e+01   3.0963484760e+01     2.141901     1.828468 -37.67   0.01035059    1.402    0.287
         8 -13.9511    240.0609     47.0275   3.4591587672e+01   2.1527677234e+01     4.068161    0.7225654  58.83   0.01407055    5.380    0.814
         9 -11.9326    139.3607     37.2988   4.5568231984e+01   4.5245511557e+01     1.369768    0.3492884 -45.64  0.003943709    5.402    0.815
        10 -10.6456    227.7241     16.9041   2.9645783177e+01   2.7735623685e+01    0.3836005    0.1827603 -34.48  0.002086177    2.175    0.540
        11  -8.7085    163.6590     12.1110   3.4714214655e+01   4.2278768141e+01    0.2755711    0.1719778  36.56  0.001454057    2.155    0.536
        12  -9.7178    208.4454      9.7133   2.9693751984e+01   3.2510393487e+01    0.2197621    0.1761403 -35.48 0.0007590707    1.474    0.322
        13 -10.1514    120.1876      8.2674   3.9982653573e+01   5.2785632751e+01    0.5073513    0.2531976 -33.59  0.002485857    2.250    0.556
        14  -9.7701    233.1000      6.3713   2.7228143616e+01   2.7825862576e+01    0.3325674    0.2682492 -44.43  0.001509925    1.388    0.280
        15 -10.2684    225.0576      5.3612   2.7571314843e+01   2.9530746239e+01    0.3330548    0.2559447   1.38  0.001472055    2.406    0.584
        16  -9.1938    184.3075      5.9306   3.0972889124e+01   3.8159829506e+01    0.2245827    0.1809992  75.50 0.0005041725    1.158    0.136
        17  -8.1835    128.9706      5.7433   3.7706988143e+01   5.0956294046e+01    0.1725963    0.1467686  65.69  0.000644327    1.020    0.020
        18  -7.8641     79.9963      4.8123   4.7559754671e+01   6.1977062759e+01    0.1582102    0.1222663 -39.54 0.0005284243    1.641    0.390
        19  -8.0284    172.2617      2.6465   3.1366200936e+01   4.1183078189e+01    0.2013915    0.1152481 -69.69   0.00109317    1.792    0.442
        20  -8.8758    109.5876      2.7821   4.0084458637e+01   5.5653641126e+01    0.1624858     0.111384 -38.67 0.0009573722    1.730    0.422
        21  -8.4982    143.0536      1.7309   3.4487581524e+01   4.8001034810e+01    0.1814848    0.1415883 -88.20 0.0004637474    1.205    0.170
        22 -10.6676    249.1291      3.9733   2.5813643593e+01   2.5024870150e+01    0.3015561    0.2354911  -2.94  0.002034185    2.532    0.605
        23  -8.2803    242.1035    183.4683   6.2081431935e+01  -1.4246946069e+00    0.1646288    0.1243661  28.34 0.0003682875    1.492    0.330
        24  -9.5134    136.0223    249.2052   9.5144355216e+01   2.5159225153e+00    0.3599895    0.2354297  69.72  0.001703742    2.681    0.627
        25  -8.1249    180.2966    182.0069   7.3769069102e+01   8.6321683521e+00    0.2044645    0.1760551 -31.63  0.000379894    1.101    0.092
        26  -9.0521    238.3324    175.8227   6.1234394260e+01   4.2399396699e-01    0.2734046    0.2182101  73.16 0.0009338307    2.238    0.553
        27  -9.7053    230.6386    168.0532   6.1010949054e+01   2.9554045529e+00    0.5510333    0.1939067 -49.16  0.001920946    3.447    0.710
        28  -8.8093    228.1536    171.5003   6.2140732874e+01   2.7191892401e+00    0.2776782     0.164396 -51.71  0.001329137    1.947    0.486
        29  -8.2614    202.0829    175.2308   6.7814456020e+01   6.2439851603e+00    0.2154365    0.1709011  70.45  0.001080218    1.976    0.494
        30 -11.4362     11.4047    169.5370   1.1580575998e+02   3.6857111691e+01    0.7918288    0.5437484  47.19  0.004545039    1.503    0.335
        31 -11.4733     10.8846    158.7963   1.1492885450e+02   3.9625926782e+01     1.143537    0.5127118 -50.65  0.005184804    2.196    0.545
        32  -8.7957    186.8323    168.2101   6.9493526203e+01   1.0314256461e+01    0.3085993    0.2389891 -56.04 0.0006862221    1.470    0.320
        33  -8.2244    186.4737    164.5766   6.8794733846e+01   1.1129549233e+01    0.1946739    0.1400052  27.80 0.0002968186    1.498    0.332
        34 -12.4665     27.5176    158.5398   1.1026937753e+02   3.8298578949e+01      0.81479    0.7245262 -63.37  0.001315992    1.106    0.096
        35 -12.4834     39.8151    153.0920   1.0598411806e+02   3.8507878478e+01     1.114683    0.9190029 -56.74  0.002888049    1.141    0.124
        36  -9.4125    244.0359    165.6435   5.8281545292e+01   1.3557385366e+00    0.2680747    0.1248198  40.71  0.001263165    2.562    0.610
        37 -12.6785    204.7434     77.5970   4.5380019872e+01   2.4179239621e+01     1.536689     1.238179 -44.47  0.006161787    1.170    0.145
        38  -8.6126    117.4774    247.4674   9.8964993224e+01   5.5435924452e+00     0.131736    0.1122762  39.66 0.0001618635    1.053    0.050
        39  -9.3324    178.4638    149.6798   6.7238328696e+01   1.5775621603e+01    0.3289673    0.2160377  45.08  0.001434426    1.642    0.391
        40  -8.0075    203.8011    152.0696   6.2575949622e+01   1.0498477229e+01    0.1938077    0.1666778 -86.99  0.001010506    1.566    0.362
        41 -10.6694     56.2125    150.4272   1.0064890185e+02   3.7319742049e+01    0.9315724    0.5679122 -51.18  0.004279109    1.543    0.352
        42  -8.6782    134.4692    148.4367   7.7532891366e+01   2.4787989454e+01    0.2960958    0.1533572 -59.89   0.00103451    2.423    0.587
        43  -9.7012     69.7886    145.5901   9.5631434883e+01   3.6780813687e+01    0.4426344    0.3724856  75.39  0.001673428    1.320    0.242
        44 -10.1004     66.6582    144.3100   9.6355929464e+01   3.7557152471e+01    0.6093636    0.3588847 -78.59   0.00243564    2.129    0.530
        45  -9.0013    223.4613    145.4779   5.7583075964e+01   8.2772519295e+00    0.2570334    0.2149103  89.34 0.0008639942    1.672    0.402
        46  -9.8118    192.4299    143.7503   6.2974609857e+01   1.4299633238e+01    0.3255467    0.2753456  28.25  0.001201922    1.286    0.223
        47 -10.2884    176.8717    143.4976   6.6175248911e+01   1.7407339238e+01    0.3800236    0.2657939  41.40  0.001659399    1.518    0.341
        48  -8.2005    116.1883    149.0793   8.2638273409e+01   2.8144620358e+01    0.2241007    0.2022257 -15.56 0.0003714346    1.173    0.148
        49  -8.6778    146.8465    143.5881   7.3229018468e+01   2.3456028069e+01    0.2256115    0.1496038  52.81 0.0009453226    1.718    0.418
        50  -8.1902    215.1517    141.1430   5.8101545619e+01   1.0562795011e+01    0.1923162    0.1582213 -58.62  0.000409253    1.328    0.247
        51  -9.6169    209.3802    136.8213   5.8188240049e+01   1.2453753542e+01    0.2781827    0.2365249 -47.42 0.0006924538    1.118    0.105
        52  -9.9535    190.6922    136.9726   6.1783339737e+01   1.6021405702e+01    0.5045906    0.2736723 -61.94  0.001799233    2.967    0.663
        53  -8.4611    143.4165    136.2043   7.2337929715e+01   2.5862692104e+01    0.3788882    0.2567424 -12.85  0.001052355    2.205    0.546
        54  -8.1315    172.7626    136.6185   6.5472097723e+01   1.9708353694e+01    0.2056837    0.1479388  54.45 0.0007085283    1.580    0.367
        55  -7.9394    165.6408    133.3214   6.6282303911e+01   2.1890385768e+01    0.1597495    0.1248516 -86.99 0.0007043877    1.769    0.435
        56  -9.1187    140.5078    132.5830   7.2201073695e+01   2.7300025887e+01    0.3800487    0.2606845 -75.98 0.0008828182    2.237    0.553
        57  -9.8864    223.7267    129.3134   5.4079936354e+01   1.1230180449e+01    0.3751498    0.2720631 -68.09 0.0009604821    1.755    0.430
        58  -9.1230    159.9299    128.7301   6.6483701530e+01   2.4089197231e+01    0.3392365    0.2606784 -21.80  0.001567774    1.480    0.324
        59  -8.7415    135.9355    127.4714   7.2123723765e+01   2.9431195821e+01    0.4030734    0.2107546 -52.32  0.001507157    2.002    0.501
        60  -8.9548    113.3557    242.2395   9.9214352025e+01   7.1535429077e+00    0.4171335    0.1563401  53.41  0.001281829    4.834    0.793
        61  -9.4805    201.6405    125.7383   5.7105154735e+01   1.6094818602e+01    0.2596615    0.2282579 -81.14  0.000541439    1.315    0.240
        62  -8.4558    178.0199    122.3011   6.0916412169e+01   2.1622759844e+01    0.2776266    0.2023826 -64.76  0.001129249    1.631    0.387
        63  -7.2329    122.6748    123.3037   7.4667288367e+01   3.3139403564e+01    0.1603271    0.1287301  83.73 0.0003215469    1.642    0.391
        64  -8.0517    142.9359    122.0061   6.8932273550e+01   2.9196369703e+01    0.1945361     0.184942  37.98  0.000996857    1.080    0.074
        65 -10.4718    227.0016    115.4250   5.0562245072e+01   1.3153832580e+01    0.6403395    0.3233748 -64.64  0.002226827    3.919    0.745
        66  -9.0978    168.5057    116.5315   6.1522807328e+01   2.4850087707e+01    0.3211572     0.146309 -42.59 0.0008623837    2.090    0.522
        67  -9.9962    162.5230    114.7431   6.2394674418e+01   2.6524508554e+01    0.5917634    0.3160013 -59.86  0.002008237    2.629    0.620
        68  -8.3383     65.7946    116.0180   9.0687767207e+01   4.5000236933e+01    0.2018061    0.1752171 -47.69  0.001060307    1.065    0.061
        69  -9.4130    134.8064    111.3749   6.8250678960e+01   3.3305027181e+01    0.5648853    0.1694627 -44.00  0.001649426    3.275    0.695
        70 -10.6560    205.4438    109.8685   5.2783645191e+01   1.8355968071e+01    0.4592552    0.3641277   5.39  0.002178495    1.744    0.427
        71  -9.6390    184.9926    241.5917   8.3576768674e+01  -3.2282457512e+00    0.2676292    0.2116142  47.42  0.000927383    1.674    0.403
        72 -10.1375    122.6913    103.1034   6.9265119401e+01   3.7719387562e+01    0.8657379    0.5584415 -66.97  0.003396582    2.248    0.555
        73  -9.1503    120.2275     96.9269   6.8207988458e+01   3.9571842423e+01    0.3286643    0.2193088 -58.80  0.001063666    1.789    0.441
        74  -7.9009    144.4936    105.5063   6.4214912738e+01   3.2442757629e+01    0.1554726    0.1508497 -15.74 1.303513e-05    1.047    0.045
        75  -9.2044    151.4705    102.2593   6.1670658942e+01   3.1556588959e+01    0.3282513    0.2561222  37.28 0.0008717719    1.368    0.269
        76 -10.1347     84.5761     98.4410   7.9698449294e+01   4.6255587809e+01     0.269087    0.2516271 -17.10 0.0002375648    1.013    0.013
        77 -10.5222    164.7515     96.5650   5.7207417662e+01   2.9689484307e+01    0.8058036    0.3358657  44.26  0.002873713    2.627    0.619
        78  -8.7017    136.7371     98.1974   6.4152561572e+01   3.5690102878e+01    0.2577691    0.2027145  59.90 0.0006675494    1.377    0.274
        79  -9.1078    134.9268    241.1759   9.4276342216e+01   4.1588321895e+00    0.2078937     0.166319  48.09 0.0006305973    1.299    0.230
        80  -7.3359    209.2514     96.3388   4.9044280613e+01   2.0031275898e+01    0.1322301    0.1074695 -13.22 0.0004431926    1.569    0.363
        81  -8.4208    202.3211     94.4674   4.9713266696e+01   2.1807606067e+01    0.2846576     0.184731 -61.80 0.0008460943    1.700    0.412
        82  -8.4779    199.8237     90.2591   4.9123416277e+01   2.3081919807e+01    0.3142579     0.188031 -60.20  0.001284409    1.883    0.469
        83  -9.6283    145.5843     92.6574   6.0436990976e+01   3.4810997073e+01    0.3273972     0.295891 -66.38  0.000823862    1.159    0.137
        84 -10.2740    205.3762    235.8787   7.8511848735e+01  -5.0935662012e+00    0.2381427    0.1898977  -5.11 0.0003614222    1.036    0.035
        85  -7.6979    137.0000     92.0237   6.2350611827e+01   3.6881846676e+01    0.2445799   0.08697806 -41.37 0.0004305196    2.806    0.644
        86 -10.9291    162.2621     87.6717   5.5368719096e+01   3.1940236821e+01      0.34202    0.2767267 -31.63 0.0008413931    1.299    0.230
        87  -9.1961    172.7089    235.5527   8.5179188750e+01  -4.4391036442e-01    0.3021186    0.1891428  33.22  0.001437649    1.468    0.319
        88  -9.6560    208.8823     85.1383   4.6521176110e+01   2.2044420287e+01    0.4315747    0.2846264  61.38 0.0009599402    1.637    0.389
        89  -8.2590     53.9343     83.1594   8.6479961416e+01   5.4472912888e+01    0.1967904    0.1852147 -53.58 0.0003233078    1.207    0.172
        90  -9.8197    139.8701     78.5189   5.7770317852e+01   3.8797012961e+01    0.3705178    0.2128867 -44.71  0.001234519    1.778    0.437
        91  -9.5029    133.0788     78.6761   5.9459697557e+01   4.0330007105e+01    0.2212166    0.1878724  47.77  0.001140341    1.156    0.135
        92  -9.7531    196.2203     75.2428   4.6097928544e+01   2.6417980883e+01    0.4172743    0.1639878 -49.80  0.001578579    2.609    0.617
        93  -8.6394    123.4909    234.9912   9.5973254750e+01   7.0753012969e+00    0.1842761    0.1360585 -56.62  0.000433798    1.536    0.349
        94 -11.5875    151.6801     71.1016   5.3010661472e+01   3.7341196558e+01    0.7320469    0.4490545  56.75  0.002208522    1.603    0.376
        95 -10.5922    138.9439     71.7243   5.5996322640e+01   4.0215396059e+01    0.4625249    0.2167468  38.94  0.001689007    2.609    0.617
        96  -8.4504     71.4634    234.9498   1.0773755576e+02   1.4565250004e+01    0.1886653    0.1009194  78.92 0.0008093343    2.654    0.623
        97 -10.4491    144.4596     59.5198   5.1181075909e+01   4.0921307078e+01    0.3628016    0.2672082 -50.01 0.0009641913    1.432    0.302
        98  -7.6845     72.5868     58.4431   7.1210419270e+01   5.6545002322e+01    0.1387839    0.1249867   1.71 0.0001849257    1.028    0.028
        99  -9.5995    151.8218     54.9838   4.8389017815e+01   3.9864597483e+01    0.2617911      0.21176  84.80 0.0003871646    1.293    0.227
       100 -10.2624    138.7395     55.2165   5.1111580635e+01   4.2929265023e+01    0.3432612    0.2306826  62.58  0.001360304    1.462    0.316
       101  -9.6196    124.6510     55.5060   5.4410682417e+01   4.6178831404e+01    0.2727382    0.2237074 -63.49 0.0009000862    1.425    0.298
       102 -10.0291    177.2950     50.4582   4.2811889311e+01   3.4517041506e+01    0.5972479    0.3173059 -54.48  0.002713519    2.024    0.506
       103 -11.0337    133.3551     39.3697   4.7384927497e+01   4.6405666799e+01    0.4807778    0.3558011 -61.10  0.002562593    1.581    0.368
       104  -9.1701    174.1869    230.9888   8.4118081388e+01   1.4416468866e-01    0.2110141    0.1703527  18.71  0.001250343    1.097    0.089
       105  -9.1113    218.3866    158.6990   6.1264053194e+01   6.6628171381e+00    0.2777423    0.2233501 -81.42  0.001034338    1.906    0.475
       106  -9.1616    102.9077     45.2082   5.6612568989e+01   5.2595480762e+01    0.2890119    0.2008584 -35.93 0.0006697396    1.551    0.355
       107  -9.7418    193.0003    155.6799   6.5506637995e+01   1.1756335188e+01    0.4366669    0.2762842 -49.30  0.001307724    1.585    0.369
       108  -9.8498    118.2386     42.5636   5.1749506209e+01   4.9515716676e+01    0.3064954    0.2241266 -16.48 0.0002099329    1.600    0.375
       109  -9.7716    123.2951     37.0056   4.8762966382e+01   4.9065748741e+01    0.1860859    0.1837779  60.94  0.001168022    1.091    0.084
       110  -9.7620    173.0033    152.8495   6.9157404970e+01   1.6160494234e+01    0.3822269    0.2323892 -37.89 0.0003203406    1.594    0.373
       111 -11.6515    232.4891     39.4285   3.3760045655e+01   2.4026385017e+01    0.5532466    0.3536493 -47.96 0.0004419181    1.343    0.255
       112  -8.4745    198.6805     36.0002   3.6461869666e+01   3.1591726140e+01    0.1743926    0.1406903 -52.66 0.0004696862    1.186    0.157
       113  -8.1460    200.0129     30.2792   3.5001328470e+01   3.2009226230e+01     0.167395    0.1354909 -86.89 0.0003175246    1.072    0.068
       114 -10.6443    137.8939     49.7321   4.9631099631e+01   4.3931115151e+01    0.4541004    0.3452113 -79.16 0.0009904569    1.595    0.373
       115  -7.9987    239.3822     27.7288   3.0862422887e+01   2.4153498089e+01    0.1480942    0.1024134 -35.12 0.0009429665    1.608    0.378
       116  -9.2529    144.9828     27.4679   4.1639323535e+01   4.5075340402e+01    0.1912236    0.1818942 -51.92 0.0006936701    1.163    0.140
       117  -8.8235    112.9691     28.2475   4.8153875625e+01   5.2492401141e+01    0.1872481    0.1604279  48.85 0.0004412908    1.029    0.028
       118  -9.3364    178.5619     23.7211   3.5870172603e+01   3.7613017894e+01    0.3368728    0.2670638 -60.24  0.001438181    1.211    0.174
       119  -7.6288    182.4895     23.4978   3.5353008028e+01   3.6738640630e+01    0.1272811    0.1079773 -86.72 0.0008106009    1.002    0.002
       120  -9.2375    137.0198     44.6818   4.8273768787e+01   4.4839496710e+01    0.2455135    0.2057084 -44.69 0.0004731271    1.275    0.216
       121  -8.5461    117.6020     23.7654   4.5616940242e+01   5.1916189294e+01     0.172563    0.1204337 -41.29 0.0009451148    1.630    0.387
       122  -9.2125    175.0328    226.2046   8.3137254508e+01   8.7729583539e-01    0.2165026    0.1809093 -25.04 0.0003807263    1.185    0.156
       123  -9.4378    130.1914     19.0336   4.1639284866e+01   4.9464090437e+01      0.22726    0.1655287  62.74 0.0004352197    1.185    0.156
       124 -12.4189    249.3085     84.9780   4.1242208277e+01   1.4203842531e+01     1.510522    0.5402306 -41.16  0.006650855    2.261    0.558
       125  -7.6475     84.7500    227.4139   1.0389087656e+02   1.4371601607e+01    0.1399215    0.0937215  71.08 0.0006933956    1.727    0.421
       126  -7.5229    172.0041     12.7412   3.3896520598e+01   4.0286782746e+01    0.1496832   0.09348146  74.26 0.0003958477    1.385    0.278
       127 -10.1375    142.0150    219.6178   8.9415605706e+01   7.2936483205e+00    0.2549032    0.2170843 -47.92   0.00144711    1.279    0.218
       128  -8.6584    224.9916    218.8627   7.1760024075e+01  -4.9754463912e+00    0.2728274    0.1635363  41.41  0.001218545    2.116    0.527
       129  -8.2107     93.8720    214.0590   1.0003764281e+02   1.6027247196e+01    0.1968436     0.171945  67.77 0.0003688716    1.148    0.129
       130  -8.9359    186.7896    208.2939   7.7454348961e+01   2.3797354683e+00     0.342919    0.2390354  67.84  0.001474651    3.040    0.671
       131  -8.5889    164.9867    205.7602   8.1766389750e+01   6.3775284728e+00    0.2195597    0.1884046 -28.39 0.0003202893    1.145    0.127
       132  -7.6686    133.2969    201.6429   8.8474415994e+01   1.2546755198e+01     0.147505     0.115477  73.43 0.0007034112    1.700    0.412
       133  -9.6296    193.1214    195.1864   7.3640715752e+01   3.8611688414e+00    0.7936447    0.3973537 -62.10   0.00222617    6.187    0.838
       134  -9.6381     25.7967    199.2583   1.1485999556e+02   2.8193160289e+01    0.2262065    0.1935791 -62.65            0    1.267    0.211
       135  -7.5652    174.6615    189.3336   7.6478504864e+01   8.1005994125e+00    0.1417841    0.1195124  80.87 0.0007051757    1.746    0.427
       136  -8.7785     28.8978    183.5175   1.1264191210e+02   3.1762678695e+01    0.2264164    0.1593239 -60.25 0.0005126778    1.377    0.274
