#   1 NUMBER                 Running object number                                     
#   2 MAG_AUTO               Kron-like elliptical aperture magnitude                    [mag]
#   3 X_IMAGE                Object position along x                                    [pixel]
#   4 Y_IMAGE                Object position along y                                    [pixel]
#   5 X_WORLD                Barycenter position along world x axis                     [deg]
#   6 Y_WORLD                Barycenter position along world y axis                     [deg]
#   7 A_WORLD                Profile RMS along major axis (world units)                 [deg]
#   8 B_WORLD                Profile RMS along minor axis (world units)                 [deg]
#   9 THETA_WORLD            Position angle (CCW/world-x)                               [deg]
#  10 FWHM_WORLD             FWHM assuming a gaussian core                              [deg]
#  11 ELONGATION             A_IMAGE/B_IMAGE                                           
#  12 ELLIPTICITY            1 - B_IMAGE/A_IMAGE                                       
         1 -13.9919    224.0878     31.4666   3.5501187339e+01   2.6131115399e+01     1.204206    0.8600909  45.13  0.007012878    1.880    0.468
         2 -13.1195    248.2085      9.6826   2.9130092625e+01   2.3700181468e+01    0.6329984    0.3549208 -46.19  0.003352886    1.494    0.331
         3 -11.4496      2.3799      5.6042   8.6977969936e+01   7.4102780594e+01    0.7336211   0.09840035 -45.36  0.002482615    5.803    0.828
         4 -10.2585     48.5574    237.1794   1.1589693257e+02   1.8010587163e+01    0.2339885    0.1900775  52.10 0.0009978184    1.127    0.113
         5 -14.7654     69.1303    247.4937   1.1259115370e+02   1.3365726122e+01     7.855615      2.44635  26.39   0.02230648    6.949    0.856
         6 -13.9951     26.3854    199.5349   1.1762503260e+02   2.8696174466e+01     1.144476    0.7781671  68.86   0.00299128    1.306    0.234
         7 -13.5091     85.8609    233.1363   1.0768714603e+02   1.3921756364e+01     1.961156     1.309559  55.16  0.007938746    1.373    0.272
         8 -13.1487     10.5996    206.4657   1.2153675910e+02   2.8644398412e+01    0.6736114     0.500174  12.15  0.002740518    1.935    0.483
         9 -10.4529     43.0173    217.7338   1.1547550794e+02   2.2780337762e+01    0.2222782    0.1632202 -87.15 0.0003669483    1.253    0.202
        10  -9.7410     59.5913    231.4401   1.1313689381e+02   1.7821013067e+01    0.2182164    0.1784477 -82.43  0.001162554    1.236    0.191
        11 -12.7648     17.9022    207.3711   1.2005840820e+02   2.7758268183e+01    0.3897409    0.3081266 -57.18  0.000778632    1.503    0.335
        12  -8.5495    226.6910    206.2775   7.3276763920e+01  -3.2679799357e+00    0.1077609    0.1069263  69.91 0.0003459497    1.556    0.357
        13 -15.2953      4.7788    175.8773   1.2074809711e+02   3.6177863635e+01     7.868968     1.041048 -75.33   0.02237293    5.757    0.826
        14 -11.9626     49.2410    180.4717   1.1028948795e+02   3.0736263312e+01    0.4438905     0.370799 -31.42   0.00222229    1.515    0.340
        15 -11.6068     56.5737    173.8832   1.0757059902e+02   3.1473715596e+01    0.3057572    0.2534994 -39.37 0.0005544653    1.407    0.289
        16 -10.9733     68.2882    163.9805   1.0298101050e+02   3.2427965333e+01    0.2764357    0.2462832 -51.94 0.0003727838    1.158    0.136
        17 -13.2579     54.1813    160.2637   1.0633248545e+02   3.5205748806e+01    0.5501041     0.342558 -40.29  0.001781143    1.894    0.472
        18 -12.4692     55.6247    125.5681   1.0004377642e+02   4.3932494754e+01     3.028359     1.163311 -76.86  0.006138313    9.300    0.892
        19 -12.0675     67.7874    142.5780   9.9487332931e+01   3.7974387476e+01    0.5481415     0.361276  51.53  0.001737175    1.686    0.407
        20 -10.4635     36.4152    161.1148   1.1132425722e+02   3.6985842390e+01    0.2788092    0.1422004  61.83  0.001199103    2.360    0.576
        21 -13.9175      8.1363    240.8008   1.2390304464e+02   2.1671094714e+01     2.384232    0.8704234 -85.70   0.01205427    2.588    0.614
        22  -9.2436    134.0000    146.5015   8.1393231219e+01   2.5490205832e+01    0.3577209   0.08957466 -48.69 0.0009381737    3.962    0.748
        23  -9.8162     92.4811    143.5154   9.2325315793e+01   3.3947724535e+01    0.2687663    0.2647517 -56.58  0.000745212    1.024    0.023
        24  -9.1155     95.9500    140.0456   9.0569006400e+01   3.4231336146e+01    0.3672056     0.215482 -26.56  0.001334892    2.619    0.618
        25 -11.8388     80.1125    141.7685   9.5632454161e+01   3.6380393141e+01    0.3199055    0.2643094 -49.18 0.0003681344    1.169    0.145
        26 -10.1954     43.5989    140.6276   1.0644176553e+02   4.1456962908e+01    0.2764164    0.1587882  53.26  0.001256906    2.027    0.507
        27 -10.4308    106.0042    131.2140   8.5606206255e+01   3.4620814014e+01    0.3725613    0.3423038 -13.84 0.0009721505    1.146    0.127
        28 -10.8807     66.9878    128.0471   9.6896687198e+01   4.1808573717e+01    0.4429196    0.2559316  70.51  0.001593579    3.131    0.681
        29 -10.1273     92.9165    127.8271   8.8731399385e+01   3.7810314933e+01    0.3201448    0.2563321 -10.30  0.001107475    1.502    0.334
        30  -9.2689    114.4266    125.0476   8.1648912090e+01   3.4499354464e+01    0.3319543    0.2041814  -0.61  0.001042239    3.559    0.719
        31  -9.5832    104.0924    119.9803   8.3421572048e+01   3.7709342519e+01    0.2270616    0.2186093 -26.07 0.0002987013    1.017    0.016
        32 -12.4768     76.0136    156.9399   9.9654700297e+01   3.3120799064e+01     1.303343     0.808087  79.36  0.001312378    2.330    0.571
        33 -14.6470     29.2258    184.5587   1.1566631487e+02   3.1933591607e+01     5.166123     1.863311  70.04   0.01506723    5.711    0.825
        34  -9.6289    204.5702    110.6940   5.6827424605e+01   1.7989259219e+01    0.2985775     0.217157  26.16  0.001423363    1.768    0.434
        35 -11.4964     69.5285    145.5097   9.9504692042e+01   3.6978290116e+01    0.3987261    0.3245732  15.36  0.001185387    1.425    0.298
        36 -12.1389      1.9604     81.5341   1.1076316076e+02   5.9254857870e+01     0.770783    0.1272844 -65.98  0.002546099    4.008    0.750
        37  -8.8102     24.6295     82.7439   1.0204907890e+02   5.7578362742e+01    0.1714787    0.1139161 -66.78 0.0003268432    1.484    0.326
        38 -10.6540     13.2634     60.2860   1.0130709397e+02   6.3395359098e+01    0.2645695    0.1786925 -42.84  0.001093964    1.166    0.142
        39 -11.8731    204.9643     48.6313   4.1584120771e+01   2.8132901885e+01    0.5747676     0.317626 -55.71  0.002735522    1.831    0.454
        40 -12.7317    210.4825     42.9686   3.9557343368e+01   2.7651705162e+01    0.6182857    0.4592352 -58.28  0.003596677    1.226    0.184
        41 -12.1667     86.7941    224.1215   1.0647082710e+02   1.5651893165e+01    0.5224583    0.3006308  55.53  0.000410633    1.729    0.422
        42  -9.6485     18.0912     47.0688   9.5095611165e+01   6.5762458245e+01    0.1933515    0.1333235 -25.77 0.0003884134    1.218    0.179
        43  -8.5253     94.5327     46.4921   6.3436188716e+01   5.4513528864e+01    0.1405296    0.1288794  20.78 4.007898e-05    1.040    0.039
        44 -10.7138    125.2896     33.1033   5.0463131173e+01   4.9377879451e+01    0.3058763    0.2438133 -75.20 0.0006171814    1.553    0.356
        45 -10.6930    116.3907     24.8133   4.9571023539e+01   5.2435018920e+01    0.3399192    0.2537791 -77.27 0.0009991056    1.807    0.447
        46 -10.4914     23.8296    246.8417   1.2133673174e+02   1.8892890091e+01    0.2182181    0.1587648  18.70  0.001025496    1.974    0.494
        47 -10.1303    189.3077     15.0150   3.5170715361e+01   3.5892047767e+01    0.1761338    0.1542743 -69.18 0.0005834177    1.101    0.092
