#   1 NUMBER                 Running object number                                     
#   2 MAG_AUTO               Kron-like elliptical aperture magnitude                    [mag]
#   3 X_IMAGE                Object position along x                                    [pixel]
#   4 Y_IMAGE                Object position along y                                    [pixel]
#   5 X_WORLD                Barycenter position along world x axis                     [deg]
#   6 Y_WORLD                Barycenter position along world y axis                     [deg]
#   7 A_WORLD                Profile RMS along major axis (world units)                 [deg]
#   8 B_WORLD                Profile RMS along minor axis (world units)                 [deg]
#   9 THETA_WORLD            Position angle (CCW/world-x)                               [deg]
#  10 FWHM_WORLD             FWHM assuming a gaussian core                              [deg]
#  11 ELONGATION             A_IMAGE/B_IMAGE                                           
#  12 ELLIPTICITY            1 - B_IMAGE/A_IMAGE                                       
         1 -13.4467    162.7513     53.1257   1.0726901737e+01   3.7615500888e+01     1.094122    0.9501159 -20.61   0.00369734    1.267    0.211
         2 -13.0801    180.1347     24.4655   4.8070409730e-02   3.7291711638e+01    0.7548577    0.4948309 -18.88  0.003832361    1.749    0.428
         3 -13.3198    175.8665     23.5603   2.2203109976e-01   3.8395151789e+01    0.7897733    0.5868315 -19.49  0.003587867    1.515    0.340
         4 -10.5557    120.1189      9.1450   2.3551172426e+00   5.3759326398e+01    0.3416527    0.3225467 -29.81  0.001333931    1.147    0.128
         5 -10.6200    172.2711      2.8212   3.5448511150e+02   4.1380383983e+01    0.2220949    0.1353228 -50.18  0.001202884    1.445    0.308
         6  -9.5238    110.9787    242.0365   6.1011808073e+01   1.0799861699e+01    0.2397079    0.1308065  43.12 0.0009441767    1.670    0.401
         7 -14.8903    221.4684    244.1364   4.0722669566e+01  -2.1262460241e+00      4.17295    0.8167741  29.38   0.01651705    4.864    0.794
         8 -10.1827    144.3327    213.1821   5.0540566868e+01   1.1328798471e+01    0.2119595    0.1812823  30.57  0.000830636    1.151    0.132
         9 -11.5417    191.9656    193.4714   3.8027775706e+01   8.0190669798e+00    0.6673049    0.3917628 -58.44  0.003048052    3.438    0.709
        10 -11.1357    180.8654    177.2872   3.7280895818e+01   1.2192217707e+01    0.4417341    0.2125405 -43.93  0.001318194    2.106    0.525
        11  -9.6451    147.6028    188.9853   4.6163919781e+01   1.5118106450e+01     0.248694    0.1574951 -54.85  0.001281567    1.885    0.469
        12 -10.1630    202.9372    188.5611   3.5211322244e+01   7.2814893292e+00    0.2549836    0.1860871  18.31  0.001345021    1.285    0.222
        13 -15.8176     67.4995    139.2264   5.8746774329e+01   3.8487671677e+01     4.004725     2.405851 -62.58   0.01673178    1.621    0.383
        14 -11.0093    160.7386    222.2440   4.8481866032e+01   7.7217595993e+00    0.3062817      0.22327  -6.17  0.001695329    1.367    0.268
        15 -10.8015    150.2794    178.7539   4.3849082621e+01   1.6606386756e+01    0.2743115       0.2232 -62.57 0.0008836705    1.547    0.354
        16 -10.6368    139.0529    168.8604   4.4610790644e+01   2.0307466604e+01    0.3785803    0.2752687   2.97  0.001249832    1.659    0.397
        17 -11.2724    143.9541    174.2697   4.4462726292e+01   1.8453871770e+01    0.4770744    0.3665232 -37.95   0.00215277    1.317    0.241
        18 -10.8311      3.9675    176.0188   8.1098502755e+01   3.5868504256e+01    0.3456523    0.2870527 -31.59  0.001538717    1.587    0.370
        19  -9.6896    157.0175    218.9990   4.8764605913e+01   8.7042921199e+00    0.2359167    0.1903168 -59.24   0.00136529    1.726    0.421
        20 -11.2307    185.7896    172.2356   3.5406880473e+01   1.2297812105e+01    0.5616392    0.2991288 -45.72  0.001824154    1.989    0.497
        21 -10.0458    149.7910    173.8738   4.3091595940e+01   1.7604678645e+01    0.3300901    0.2078296  48.72  0.001440109    1.844    0.458
        22 -10.5067    188.6292    165.0576   3.3512373127e+01   1.3064527693e+01    0.5283983     0.282157 -57.73  0.002102376    3.550    0.718
        23 -10.3137    152.1700    217.3906   4.9516041687e+01   9.5938498560e+00    0.2827224    0.2120414  19.33  0.001009832    1.147    0.128
        24  -9.6806    154.2879    214.6652   4.8698029976e+01   9.7535733250e+00    0.1960316    0.1653227 -29.24 0.0005834223    1.263    0.208
        25 -10.3961    145.1867    222.7175   5.1671382295e+01   9.6480344997e+00    0.3545461    0.2421412 -59.70  0.002107742    2.017    0.504
        26 -13.3847    133.8387    147.8316   4.1792543781e+01   2.5548659340e+01     1.358743    0.6724354 -61.63  0.004960014    2.960    0.662
        27  -9.9300     18.4586    154.4636   7.5800113863e+01   4.0014164297e+01    0.2898654    0.1586137 -82.09  0.001413184    1.689    0.408
        28 -10.4002     18.4867    148.1419   7.5301784211e+01   4.1626516423e+01    0.4373221    0.2636688 -48.67  0.001781741    1.877    0.467
        29 -10.2789     10.5481    152.4877   7.8018312489e+01   4.1141777113e+01    0.4667728    0.2477546 -35.97  0.002099216    2.672    0.626
        30  -9.3172      7.6833    150.2964   7.8736998733e+01   4.1906729858e+01    0.2086277    0.1586195  65.58 0.0005005333    1.157    0.136
        31 -11.5234      6.1754    222.5779   8.2272530415e+01   2.5552020867e+01    0.3002281    0.1670391 -89.70  0.001264844    1.764    0.433
        32 -12.2948    151.4047    150.1413   3.8161685715e+01   2.1970732404e+01    0.6997225    0.4504262  57.39  0.002887236    2.091    0.522
        33 -10.9567    155.0362    146.5975   3.6616800010e+01   2.2032504383e+01    0.4626925     0.315789 -85.78  0.001655804    3.154    0.683
        34  -9.2747    154.5471    222.9866   4.9813976379e+01   8.3994059356e+00    0.1583603    0.1162361 -42.72 0.0008831408    1.552    0.356
        35 -11.7829     27.1234    146.4448   7.2472051374e+01   4.1309484172e+01    0.4394647     0.328768  17.33  0.001718022    1.521    0.342
        36 -11.5135     27.8806    142.0182   7.1795927589e+01   4.2391591159e+01    0.5947031     0.324809   7.05  0.002300202    2.487    0.598
        37 -10.2403     26.3187    139.3103   7.2024370337e+01   4.3244659284e+01    0.3098834    0.2186311  -1.06  0.001076943    1.837    0.456
        38 -10.9110    157.1806    140.2215   3.4781934618e+01   2.2904859244e+01    0.2888214    0.2459941 -59.78 0.0008705301    1.332    0.249
        39 -10.9767    154.0459    137.0045   3.4765589257e+01   2.4119310018e+01    0.3083814    0.2490831 -61.76 0.0004897898    1.437    0.304
        40 -10.4083     12.0326    135.8300   7.6366838366e+01   4.5327202339e+01    0.2150005    0.2018688  -3.18 0.0003564646    1.279    0.218
        41 -10.3630    160.5577    127.7689   3.1257020226e+01   2.4720492304e+01    0.3259004    0.2297271 -56.90   0.00157667    1.618    0.382
        42 -11.0424    153.0030    129.3064   3.3258478584e+01   2.5859997898e+01    0.2756066     0.202015 -57.53 0.0007561893    1.529    0.346
        43 -10.2566    149.4953    127.4783   3.3623986081e+01   2.6904212530e+01    0.2207572    0.1845921 -85.05 4.809522e-05    1.542    0.351
        44 -11.7428    135.5857    126.3551   3.6649949315e+01   2.9832170459e+01     0.599927    0.1891738 -48.81  0.001886866    3.218    0.689
        45 -12.1720    122.3077    126.2726   4.0016135748e+01   3.2404205476e+01    0.4808592    0.4432838 -77.97  0.001768372    1.165    0.142
        46  -8.4736    117.2414    246.3295   6.0169826678e+01   9.3718974797e+00     0.160227    0.1327875  11.66 0.0007476859    1.160    0.138
        47  -9.5895    114.5034    244.5155   6.0540847421e+01   9.9821301009e+00    0.1744691    0.1546037  58.38 0.0007489906    1.337    0.252
        48 -11.1275    110.1165    121.8393   4.2313405314e+01   3.5731622959e+01    0.2948404    0.2711987 -16.44 0.0004969942    1.174    0.149
        49 -10.7112    188.2048    211.2846   4.1613800359e+01   5.8549863028e+00    0.6103408    0.2950409 -31.89  0.003239698    2.084    0.520
        50 -11.6035    179.8537    195.7040   4.0679633474e+01   9.3284596997e+00    0.8127483    0.6132827   0.73  0.005088525    1.236    0.191
        51  -9.9122    114.8535    116.8397   3.9783381604e+01   3.5983411602e+01    0.2083926    0.1813089  78.70 0.0004712766    1.303    0.232
        52 -10.7006    130.0494    240.8511   5.6987792661e+01   8.6845210699e+00    0.1990583    0.1583471 -32.81 0.0006403322    1.444    0.307
        53 -10.5425    168.6145    114.1253   2.6351119028e+01   2.5764340995e+01    0.3514837    0.2566814 -63.25  0.001092193    1.685    0.406
        54 -11.9779    183.9654    180.6786   3.7297075757e+01   1.1171828970e+01    0.7203636    0.4014908 -17.66  0.003389401    2.306    0.566
        55 -12.1853    112.6071    110.3984   3.8797798181e+01   3.7901437544e+01    0.5990451    0.3556322  61.22  0.001776102    2.302    0.566
        56 -11.7959    119.5755    235.7186   5.8558808868e+01   1.0780663008e+01    0.4324444    0.2560722 -23.14  0.002298273    2.459    0.593
        57 -10.7152    125.8287    229.9599   5.6594406576e+01   1.0944996611e+01    0.5925727    0.3785295  16.40  0.003474693    1.537    0.349
        58 -10.3272     23.9254    107.3058   6.9038923691e+01   5.2013544817e+01    0.3234778    0.2384414 -15.74  0.001425079    1.670    0.401
        59 -11.9067    102.0678    105.8711   4.0710439198e+01   4.1021941908e+01    0.4559716    0.3307005 -54.60   0.00206998    1.365    0.268
        60 -11.4338    184.0887    212.8654   4.2620081221e+01   6.1468847791e+00    0.6508622    0.1879903 -45.76  0.002581706    4.065    0.754
        61 -11.4700     57.8643    101.7366   5.4798460340e+01   4.9626376042e+01    0.6050012    0.1959056  28.62  0.001909247    3.469    0.712
        62 -11.3314     27.9701     98.2973   6.6013947141e+01   5.4078233893e+01    0.4082176    0.3541681 -41.25  0.002309247    1.201    0.168
        63 -10.9037    183.0000    206.0501   4.1760531945e+01   7.3017070538e+00    0.5795431     0.163164 -42.87  0.002152703    3.636    0.725
        64 -11.4335    100.1647     98.6436   3.9350998565e+01   4.3086686434e+01    0.4740352    0.2707557  48.98  0.001937833    1.856    0.461
        65 -10.4310      5.3692     89.6715   7.4390360640e+01   5.8044450627e+01    0.2772684    0.1747498  -4.72  0.001400178    1.931    0.482
        66  -9.0162    145.3012     84.3386   2.3316570223e+01   3.6380148008e+01    0.1507134    0.1197724   2.83 0.0003611848    1.666    0.400
        67 -12.6672    151.3290     66.6913   1.6837776599e+01   3.8154591585e+01    0.6333807    0.6096215  73.93  0.001085138    1.085    0.079
        68 -10.2170    165.5138    212.1690   4.6080782228e+01   8.6638334948e+00    0.2502469     0.177198 -48.19  0.001213147    1.701    0.412
        69 -10.3103    165.7881    244.4651   5.0464623586e+01   3.9010711984e+00    0.2965366     0.242495  51.78  0.001181627    1.805    0.446
        70 -12.0527    167.9532     44.1143   7.2506619642e+00   3.7677972615e+01    0.4767624    0.4186366 -53.17 0.0008071964    1.037    0.035
        71  -9.3771    117.8279     62.6439   2.3003429666e+01   4.6802524939e+01    0.2183141    0.1421332  66.52 0.0009436277    1.760    0.432
        72 -10.0537    143.9680     59.5333   1.6052866253e+01   4.1097887829e+01    0.2802144    0.1897104 -53.61 0.0006309986    1.508    0.337
        73  -8.9411    221.7010     40.3238   3.3815544168e-01   2.6387428388e+01    0.1340763   0.07483223 -55.19 0.0004231345    1.628    0.386
        74 -19.4066     66.8634    215.7842   6.8180081813e+01   2.0843978680e+01     5.029353     4.391948  46.37   0.02425959    1.038    0.037
        75 -11.9171    105.0022    247.0600   6.2734264523e+01   1.0700801733e+01    0.1895749    0.1672607  -6.80 0.0004052948    1.286    0.222
        76  -9.1769    101.1455    245.6263   6.3391242683e+01   1.1384084244e+01    0.1572964    0.1538416  -4.80 0.0005217286    1.240    0.193
