#   1 NUMBER                 Running object number                                     
#   2 MAG_AUTO               Kron-like elliptical aperture magnitude                    [mag]
#   3 X_IMAGE                Object position along x                                    [pixel]
#   4 Y_IMAGE                Object position along y                                    [pixel]
#   5 X_WORLD                Barycenter position along world x axis                     [deg]
#   6 Y_WORLD                Barycenter position along world y axis                     [deg]
#   7 A_WORLD                Profile RMS along major axis (world units)                 [deg]
#   8 B_WORLD                Profile RMS along minor axis (world units)                 [deg]
#   9 THETA_WORLD            Position angle (CCW/world-x)                               [deg]
#  10 FWHM_WORLD             FWHM assuming a gaussian core                              [deg]
#  11 ELONGATION             A_IMAGE/B_IMAGE                                           
#  12 ELLIPTICITY            1 - B_IMAGE/A_IMAGE                                       
         1 -12.6439     68.0515    145.3304   1.2591323464e+02   3.7068965126e+01     1.101947    0.5869668  80.44   0.00318554    2.717    0.632
         2 -12.1171    215.4007      2.5658   5.4286335142e+01   2.9973910567e+01     1.072992    0.6531597  65.09  0.002677776    1.576    0.366
         3 -13.1899    190.9580     27.4452   6.4655489808e+01   3.3800781465e+01     1.807631     1.355303  -3.45  0.006240271    1.451    0.311
         4 -12.9059    197.8766     20.7423   6.1602020482e+01   3.2722254560e+01     1.302812     0.888499 -53.62  0.004426194    1.629    0.386
         5 -12.4710    204.5117     13.5078   5.8592800280e+01   3.1734459190e+01    0.8697221    0.6927891  12.41  0.001643061    1.394    0.283
         6 -10.5892     20.9959     12.5016   1.1359582040e+02   7.0998989681e+01    0.2338589   0.09726256 -46.07   0.00117585    1.815    0.449
         7 -10.6644     32.8067      3.9815   1.0277547563e+02   7.1460925704e+01    0.4639605     0.125842 -43.47  0.001822999    3.077    0.675
         8 -10.2898     73.4725    246.4529   1.3383824676e+02   1.8375839635e+01    0.1607767   0.08547056  56.19 4.703104e-05    1.500    0.333
         9 -10.5184    247.9182    248.6597   1.0457200418e+02  -5.3844884231e+00    0.2834809    0.1731096  16.79  0.002092449    1.183    0.155
        10 -10.9549    139.2783    247.5902   1.2268291652e+02   9.8041787392e+00    0.4240693    0.1541903 -55.37  0.002216797    4.105    0.756
        11 -11.7401    125.8410    246.0261   1.2486478250e+02   1.1838639743e+01    0.3847022    0.3107686 -65.32  0.003106659    1.682    0.405
        12 -11.6900    107.7357    245.0332   1.2791493490e+02   1.4369168481e+01    0.3735469    0.1961779  41.89   0.00187921    1.378    0.274
        13 -12.1700     99.1456    245.6570   1.2944275170e+02   1.5382546578e+01    0.6637999     0.277953  53.86  0.003819055    2.184    0.542
        14 -11.7147     82.7944    243.9101   1.3210437347e+02   1.7641464690e+01    0.3997771     0.288949 -55.58  0.003148879    1.925    0.480
        15  -9.5531     63.2835    250.5876   1.3575370826e+02   1.8939785771e+01     0.247167   0.07593229  44.42  0.001290143    2.123    0.529
        16  -8.6779     60.0000    246.9587   1.3608912684e+02   1.9817442592e+01    0.1312491   0.05198307 -73.52 0.0008053372    2.963    0.662
        17 -15.6455      3.5824    236.3501   1.4460410176e+02   2.6816036101e+01     14.51925    0.9125557 -79.31    0.0330796   10.479    0.905
        18 -10.9802     70.0887    191.1469   1.3034279837e+02   2.7737024883e+01    0.3259556    0.2296167 -39.20  0.002048172    2.134    0.531
        19 -10.9817     74.7887    184.3730   1.2873534631e+02   2.8411317215e+01    0.2424328    0.2178473 -52.30 0.0008595241    1.393    0.282
        20 -10.4364    105.0043    172.9402   1.2084049600e+02   2.6441087836e+01    0.5171506    0.1533063  43.76  0.002004708    2.928    0.658
        21 -10.3616    126.2648    174.1350   1.1629617363e+02   2.2913797302e+01    0.4233978   0.08362535  36.98  0.001201491    5.054    0.802
        22 -10.3817     83.3650    173.0383   1.2567457374e+02   2.9466331772e+01    0.2159917    0.2010068 -82.78 0.0004263726    1.168    0.144
        23 -12.4756     70.9527    170.2059   1.2812370716e+02   3.1604558292e+01    0.4152133    0.2563586 -43.03  0.001462803    2.224    0.550
        24 -10.5889     58.4237    240.2777   1.3598082930e+02   2.0965723637e+01    0.2737661    0.1240311  53.33  0.001820077    1.659    0.397
        25 -12.1420     58.1454    131.6650   1.2667383687e+02   4.1195869961e+01     1.675983    0.5547375 -79.21   0.00448848    7.130    0.860
        26 -14.0301     54.5635    211.4432   1.3491454391e+02   2.5954452853e+01     3.010367     1.744392 -59.32   0.02019143    2.112    0.526
        27  -9.2044    102.1347    148.6066   1.1794932866e+02   3.1669946359e+01    0.2682477    0.2226204  -3.82 0.0008718224    1.561    0.359
        28  -9.0885    104.1966    145.1875   1.1688430224e+02   3.2052609364e+01    0.3064933    0.2082833 -21.24  0.001347087    2.317    0.568
        29 -11.3310     90.6901    148.0446   1.2067719121e+02   3.3488067119e+01    0.2443331    0.2354888 -18.05 0.0005072176    1.209    0.173
        30  -9.3748    133.9196    144.9511   1.0959233450e+02   2.7072239201e+01    0.7285326    0.1459339 -52.80  0.001649012    8.293    0.879
        31  -9.7556     99.5617    131.9190   1.1576723997e+02   3.5567379521e+01    0.2670543    0.2068554 -24.07 0.0007296315    1.645    0.392
        32 -11.3322     44.5877    130.2197   1.3005723833e+02   4.2937698371e+01    0.3153165    0.2125777 -72.58  0.001627318    1.333    0.250
        33 -11.1154     33.0332    164.1958   1.3595635563e+02   3.6871271021e+01    0.3780115    0.1716265 -59.53  0.002093215    2.287    0.563
        34 -13.8217     10.6034    206.7153   1.4255021104e+02   3.0973068683e+01      1.68394     1.298996 -19.46   0.01186683    2.486    0.598
        35  -8.8194    108.4379    122.6213   1.1162477255e+02   3.6110892012e+01    0.1995394    0.1603408  12.76 0.0003961663    1.468    0.319
        36 -10.3531     32.6117    121.1857   1.3222574722e+02   4.6030666929e+01     0.267149    0.1018178 -70.75  0.001250193    2.239    0.553
        37  -9.1201    111.8687    135.3122   1.1321035259e+02   3.2855924367e+01     0.257645    0.2028087  -0.92  0.001351877    1.664    0.399
        38 -10.0137     45.0024    115.9926   1.2817360133e+02   4.6077539451e+01    0.1534472    0.1344198 -82.53  0.001018486    1.001    0.001
        39 -10.0583    168.1836    113.0978   9.4411995218e+01   2.6236719467e+01    0.3192854    0.2922224  88.94 0.0006561814    1.397    0.284
        40 -14.8141     48.6372    223.1059   1.3668778276e+02   2.4669890649e+01      6.41652     1.392527  34.75  0.006431407    3.772    0.735
        41  -8.5582    205.0863    110.2885   8.5940901621e+01   1.8610636867e+01    0.2531709   0.09031151  33.80 0.0007019778    4.279    0.766
        42 -11.6555     88.4488    164.8904   1.2353701580e+02   3.0375939105e+01    0.9290139    0.4525059  48.16  0.001332919    1.910    0.477
        43 -10.3094     33.0065    107.9207   1.3056303671e+02   4.8984108652e+01    0.3391261    0.1279666 -70.70  0.001538007    2.279    0.561
        44 -11.3792     42.7363    148.0395   1.3239277721e+02   3.9272066136e+01    0.5064653    0.2801399  58.94  0.002869329    1.769    0.435
        45 -10.7528     99.3667    237.1492   1.2872616707e+02   1.6552676560e+01    0.2388719    0.1622521  75.73 0.0008017718    1.684    0.406
        46  -9.6845     33.3734    100.3060   1.2945140062e+02   5.0692226333e+01    0.3945171    0.1074373 -71.28  0.001452893    3.387    0.705
        47 -10.0988     70.4902    244.4664   1.3421270754e+02   1.9003246349e+01    0.1574827    0.1102901  68.42  0.001268034    1.287    0.223
        48  -9.4640    225.6510    200.2540   1.0081113313e+02   2.4566548515e+00    0.2008786    0.1944781 -27.87 0.0008013663    1.689    0.408
        49  -9.9560    193.3408    195.5679   1.0593267803e+02   8.2812376711e+00    0.5445089    0.3199365 -61.57   0.00209396    5.375    0.814
        50  -9.4500    148.5995    248.7797   1.2119044141e+02   8.3665714477e+00    0.1198504    0.1020301 -89.76 0.0009482859    1.709    0.415
        51 -11.3545     94.2660    249.0045   1.3052436550e+02   1.5531967629e+01    0.4886362    0.1895897  38.99  0.002049796    1.901    0.474
        52  -8.5510    250.3296    225.6494   1.0078240554e+02  -3.7415431635e+00   0.09426211   0.08271295  32.07 0.0007048068    1.768    0.434
        53 -10.9636    150.0857    228.8934   1.1874695951e+02   1.0666732730e+01    0.3234582    0.2002914  36.92  0.002094159    1.223    0.183
        54  -9.2291    185.6596    246.6761   1.1457331262e+02   3.3637817374e+00    0.1134094   0.06715684  18.66 0.0007051008    1.726    0.421
