#   1 NUMBER                 Running object number                                     
#   2 MAG_AUTO               Kron-like elliptical aperture magnitude                    [mag]
#   3 X_IMAGE                Object position along x                                    [pixel]
#   4 Y_IMAGE                Object position along y                                    [pixel]
#   5 X_WORLD                Barycenter position along world x axis                     [deg]
#   6 Y_WORLD                Barycenter position along world y axis                     [deg]
#   7 A_WORLD                Profile RMS along major axis (world units)                 [deg]
#   8 B_WORLD                Profile RMS along minor axis (world units)                 [deg]
#   9 THETA_WORLD            Position angle (CCW/world-x)                               [deg]
#  10 FWHM_WORLD             FWHM assuming a gaussian core                              [deg]
#  11 ELONGATION             A_IMAGE/B_IMAGE                                           
#  12 ELLIPTICITY            1 - B_IMAGE/A_IMAGE                                       
         1 -13.4544    246.5790     47.9817   2.4484725228e+01   1.6823316623e+01     1.200064    0.5156775 -32.63  0.004915334    2.155    0.536
         2 -12.3617     15.5765     30.8365   7.8736621213e+01   6.7016520684e+01    0.6254475    0.4151702  60.95  0.003619571    2.960    0.662
         3 -11.5747     43.9173     19.4556   6.2419940001e+01   6.6381393907e+01    0.3483683    0.2983005  88.60  0.001134306    2.261    0.558
         4 -10.9312     62.9530      8.5194   4.9917017564e+01   6.5324691844e+01    0.1770142    0.1123859  36.86 0.0009933839    1.579    0.367
         5 -11.8866     57.5280      5.5306   5.0553279307e+01   6.6529596262e+01    0.3058712    0.1971548 -25.99 0.0006445664    1.392    0.282
         6 -11.2400    226.3220    230.6588   6.7767942685e+01  -5.1207400017e+00    0.1072661   0.08972303  61.99 0.0007050503    1.723    0.420
         7 -11.1095    229.5067    229.0039   6.6965762003e+01  -5.4612192406e+00    0.1377907    0.1047346 -61.76 0.0008105026    2.557    0.609
         8 -10.9553    166.3865    233.2060   7.8592749595e+01   4.7881494237e+00     0.144782    0.1145051 -71.33  0.000950398    1.713    0.416
         9 -10.4347    177.3109    210.6632   7.3384105261e+01   6.1000662403e+00    0.1256699   0.09434851  70.85 0.0003335069    1.685    0.406
        10 -12.1321     70.9250    207.8915   9.3013813939e+01   2.4204758982e+01    0.2667349    0.1433187 -89.33  0.001500863    1.973    0.493
        11 -11.3020    185.5158    203.9872   7.0783181856e+01   5.5777378575e+00    0.1768761    0.1320048 -41.48  0.001036069    1.605    0.377
        12 -11.0044    230.1674    201.3228   6.2167530030e+01  -2.2730378010e+00    0.2122695    0.1360759  27.97  0.001189267    1.386    0.278
        13 -10.2045    112.3351    197.6600   8.4034491366e+01   1.9869115188e+01    0.1360601   0.08466916  71.36 0.0007051218    1.754    0.430
        14 -11.4629     93.7335    184.1295   8.6028472646e+01   2.5464838039e+01    0.3622321    0.2182094 -82.48  0.001626725    1.849    0.459
        15 -11.1165     96.4327    180.9640   8.5063701024e+01   2.5675250383e+01    0.3732268    0.2187072  53.68  0.001998833    1.533    0.348
        16 -13.1219     29.2335    182.9181   9.8594301715e+01   3.4015632548e+01    0.3811194    0.3015214 -77.27  0.002898915    1.310    0.237
        17 -11.0889    120.1899    183.7753   8.0541352857e+01   2.1165572228e+01    0.2760686    0.1024208 -62.52  0.001021489    3.546    0.718
        18 -10.7472      4.3230    183.3190   1.0313425872e+02   3.6279684036e+01    0.1372818    0.1129559 -82.00 0.0009827834    1.361    0.265
        19 -11.7754    147.7619    179.7014   7.4187589182e+01   1.6871644492e+01    0.2701916    0.1955679 -66.58  0.001411861    1.632    0.387
        20 -10.5016    192.2280    177.2527   6.4751810158e+01   8.4589074579e+00    0.2077084    0.1106501 -50.82 0.0008947255    2.433    0.589
        21 -11.0556    159.5924    174.7963   7.0880785579e+01   1.5461162742e+01    0.1900475    0.1337867 -62.50 0.0009555813    1.727    0.421
        22 -10.7795    105.4064    174.2232   8.2243083880e+01   2.5583734105e+01    0.1835829    0.1184967 -76.56 0.0009511505    1.697    0.411
        23 -11.8118     14.4004    171.7881   1.0056621916e+02   3.7656788874e+01     0.290376    0.2210758 -69.40  0.001408116    1.414    0.293
        24 -12.2918    134.3571    170.4221   7.5437453210e+01   2.1198814784e+01     0.318018    0.2197122 -66.67  0.001635892    1.639    0.390
        25 -10.2502    205.5318    169.0453   6.0552700870e+01   7.0774202265e+00    0.1894106    0.1216198 -61.82 0.0008096767    2.611    0.617
        26 -11.5361    120.9027    168.5667   7.8032628482e+01   2.4050173910e+01    0.2810137    0.1774943 -77.79   0.00133451    2.004    0.501
        27 -12.8546    138.9961    163.5325   7.3221632104e+01   2.1673103795e+01    0.4861449    0.2794981 -63.16  0.002166151    2.128    0.530
        28 -10.6942    205.0000    161.9639   5.9202149018e+01   8.3322193215e+00    0.2217884   0.08158889 -37.80 0.0007996479    2.923    0.658
        29 -11.7178    128.1118    158.0239   7.4628395018e+01   2.4874280761e+01    0.3079716     0.187928 -71.35  0.001377175    2.099    0.524
        30 -10.3163     92.3364    159.6570   8.2939068968e+01   3.0736925265e+01    0.1429275   0.09160942  75.25 0.0007049959    1.766    0.434
        31 -11.2354    105.2970    156.9088   7.9581253923e+01   2.9205324464e+01    0.3973939    0.2275285 -80.44  0.001723623    2.404    0.584
        32 -12.8328    119.6297    153.8439   7.5790181361e+01   2.7323314812e+01    0.5538511    0.3011385 -65.36  0.002412018    2.162    0.538
        33 -10.4061     81.4782    153.9814   8.4547493053e+01   3.3608903981e+01    0.1902825    0.1031831 -89.25 0.0008101987    2.571    0.611
        34 -10.8021     39.1117    147.2605   9.3272134267e+01   4.0383165221e+01    0.2840971    0.1283053  71.60  0.001259159    2.965    0.663
        35 -11.8837    106.9834    144.3593   7.7012053662e+01   3.1615120906e+01    0.5051014    0.3010848 -87.47  0.002081738    2.611    0.617
        36 -13.3981    124.7217    141.7385   7.2313329043e+01   2.8934543401e+01    0.7492016    0.3969728 -70.59  0.002766638    2.987    0.665
        37 -11.1535     53.9973    144.9123   8.9603417404e+01   3.9238643457e+01    0.2554109    0.2216755  68.86  0.001742299    1.160    0.138
        38 -10.9142     22.4851    136.9990   9.5911524068e+01   4.4181774790e+01    0.1736834   0.07768995  83.41 0.0008103323    2.636    0.621
        39 -11.9286    113.2852    132.5296   7.3205441184e+01   3.3070986351e+01    0.4959365    0.3395712 -82.26  0.002312785    1.857    0.462
        40 -10.6619     82.8689    131.3694   8.0545180367e+01   3.8397071040e+01    0.2689726    0.1701786 -86.70  0.001286533    1.935    0.483
        41 -10.6577    153.0000    129.0051   6.2935587211e+01   2.5775532729e+01    0.2458565   0.08708155 -44.49  0.000763973    2.923    0.658
        42 -11.1517     98.4117    127.3987   7.5877823100e+01   3.6818432658e+01    0.4409693     0.225601 -74.67  0.001600114    3.179    0.685
        43 -11.6253     38.3964    126.8081   9.0941074085e+01   4.4932046392e+01    0.2968111    0.1323368 -70.65  0.001481636    1.903    0.475
        44 -12.3220    117.5287    124.7252   7.0502301685e+01   3.3984710880e+01     0.453504     0.286773 -75.59  0.001919085    2.195    0.544
        45 -12.3857     28.5936    122.7684   9.2838124458e+01   4.6743176700e+01    0.6377549    0.2868299  78.59  0.002679652    3.460    0.711
        46 -10.9405     58.6068    123.3415   8.5334353554e+01   4.3483164695e+01    0.3353032    0.1504147 -78.98  0.001310668    3.091    0.676
        47 -11.8700     43.0622    122.0350   8.9108482648e+01   4.5518768482e+01    0.5220112    0.2396003 -88.46  0.002116687    3.266    0.694
        48 -10.6661    141.2489    118.2482   6.3157333847e+01   3.0553893216e+01    0.2467874     0.122292 -56.19 0.0008950873    2.446    0.591
        49 -11.2200      2.0078    115.8219   9.8560691025e+01   5.0240197400e+01    0.2790701    0.1180393  88.33  0.001412193    2.427    0.588
        50 -11.3922    108.7794    112.8947   7.0076422009e+01   3.8213388086e+01     0.538667    0.2685738 -65.78  0.001951254    2.887    0.654
        51 -11.3153     92.0230    111.6158   7.4245176047e+01   4.1398387014e+01    0.5223791     0.196432 -60.70  0.001814242    3.097    0.677
        52 -10.8926     78.0341    111.0556   7.7918764649e+01   4.3674680552e+01    0.3571674    0.1714862 -77.62  0.001148152    4.324    0.769
        53 -10.6882     66.3882    110.6166   8.1012644304e+01   4.5372350672e+01    0.2562523    0.1148564 -73.64 0.0009523385    3.157    0.683
        54 -11.3458     13.8032    108.9862   9.4863881451e+01   5.0928656232e+01    0.4050417    0.1312995 -77.73  0.001715828    3.010    0.668
        55 -11.5606     20.5564    109.5712   9.3184491990e+01   5.0302999838e+01     0.227703    0.1759073 -76.09 0.0005909411    1.013    0.013
        56 -10.0733    187.2278    107.5685   5.0062385682e+01   2.1993385286e+01    0.2240553     0.142014  40.30  0.000940254    1.626    0.385
        57 -11.4937     44.7915    101.6998   8.5362668162e+01   4.9879553567e+01    0.4070278    0.2143466  77.32  0.001673701    3.476    0.712
        58 -11.5550     20.8628     99.9879   9.1778888553e+01   5.2375276426e+01    0.5155906     0.230305  83.82  0.002064394    3.942    0.746
        59 -11.2079    108.5502     98.6837   6.6667506642e+01   4.1354642813e+01    0.5064877    0.3132959  74.42  0.001927471    2.940    0.660
        60 -10.4893     81.5986     99.8005   7.4472627143e+01   4.5663969024e+01    0.2007606    0.1228962 -65.89 0.0009473405    1.729    0.421
        61 -11.4332    234.4886     99.5166   3.9236603863e+01   1.2028377255e+01    0.1462553    0.1396405 -13.83  0.000568288    1.002    0.002
        62 -11.1117     62.9899     95.5041   7.8888554090e+01   4.9188450564e+01    0.2865401    0.1584901 -76.96  0.001253705    2.461    0.594
        63 -10.6949    137.2393     91.6197   5.7184576669e+01   3.6931462932e+01    0.2171624    0.1424886  38.54 0.0006927914    1.611    0.379
        64 -10.6347    124.3218     90.6567   6.0259021045e+01   3.9922037514e+01    0.1552042    0.1199896 -84.13 0.0003853095    1.728    0.421
        65 -11.7190     51.3752     88.5221   8.0847063459e+01   5.2100399506e+01    0.4588742    0.2887828 -16.54   0.00226763    2.541    0.606
        66 -10.6203     86.0277     86.5239   6.9912234898e+01   4.7881902277e+01    0.2792693    0.1725037 -86.28  0.001035564    3.471    0.712
        67 -12.0708    104.7837     79.8875   6.2576834707e+01   4.6023407867e+01    0.6442302    0.4013837 -40.70  0.003002774    1.550    0.355
        68 -12.8206    112.2048     77.5244   5.9766781065e+01   4.5068087376e+01    0.3397548    0.3206041  25.54 0.0004570161    1.088    0.081
        69 -12.4439     25.5522     77.9958   8.6701995489e+01   5.6796279656e+01    0.3232692    0.2248438 -47.22  0.000460928    1.281    0.220
        70 -12.8075     67.9308     72.1301   7.1625288177e+01   5.3601754805e+01    0.5668766    0.3350885  32.25 0.0007423332    1.927    0.481
        71 -11.1906     62.9914     67.0034   7.1804917836e+01   5.5317916307e+01    0.3171951    0.1696284 -49.28 0.0008972235    1.617    0.382
        72  -9.5382    245.2868     67.2907   2.9496850853e+01   1.4415469627e+01    0.1383599     0.109971  19.16 0.0002102293    1.538    0.350
        73 -11.9928     11.9741     65.6334   8.8726413712e+01   6.0335899715e+01    0.3393815    0.2746304  75.70  0.002077947    1.500    0.333
        74 -12.2149      8.3628     58.2902   8.8505955273e+01   6.2059971854e+01    0.4341036    0.2159973  62.56  0.001972638    4.228    0.763
        75 -11.8481    131.1839     65.3325   5.0805784719e+01   4.3349870494e+01    0.3636798    0.3286527  60.54 0.0008743156    1.181    0.153
        76 -11.5237    122.0890     64.5111   5.2954816958e+01   4.5516941387e+01    0.4537392    0.2212476 -38.35  0.001809788    2.020    0.505
        77 -11.3417    191.8272     58.7628   3.5509009184e+01   2.9216086410e+01    0.4585277    0.2565159  61.23  0.001659275    1.777    0.437
        78 -12.2178      3.1008     53.6749   8.9428926331e+01   6.3270644667e+01    0.4354799    0.2252104 -44.78  0.001993591    1.592    0.372
        79 -11.5938      4.5947    244.7901   1.0592823221e+02   2.5454992544e+01    0.1340718   0.06051679  81.95  0.000955923    1.699    0.411
        80 -10.6900     92.0000     49.4919   5.6658496582e+01   5.4210235622e+01    0.3104587   0.07420938 -40.35 0.0009368336    3.952    0.747
        81  -9.8803    206.6666     48.6940   3.0119657806e+01   2.6800416777e+01    0.1563875    0.1129214  30.70   0.00035794    1.666    0.400
        82 -12.6281     59.9104     38.5931   6.3688224927e+01   6.1178211537e+01    0.4694572    0.3084881 -12.77  0.001661776    1.744    0.426
        83 -12.4084     29.7718     36.7150   7.4744900889e+01   6.4834987761e+01    0.4041287    0.2460543  38.64  0.002435085    2.161    0.537
        84 -10.6389    244.6357    238.3257   6.5913305126e+01  -8.8561778594e+00    0.1024932   0.08533496  55.59 0.0007039194    1.796    0.443
        85  -9.7838    208.2587     30.9931   2.4872574959e+01   2.8755555262e+01    0.1775997    0.1261377 -30.20 0.0002754014    1.458    0.314
        86 -10.9536     50.2659     24.1655   6.1793261526e+01   6.4859784387e+01    0.4095176    0.2326411   9.78  0.001966769    2.351    0.575
        87 -10.8856     10.8960    237.1517   1.0472757025e+02   2.6069617616e+01    0.1186113   0.09346717  74.23 0.0006902792    1.334    0.251
        88 -11.4111      9.3782     15.7072   7.6368389351e+01   7.0122738864e+01    0.2096289    0.1614936  28.75  0.001581984    1.735    0.424
        89 -12.3590    218.2945    231.8064   6.9316117388e+01  -3.9175300302e+00    0.2691601    0.2062933  87.83  0.001516275    2.843    0.648
