#   1 NUMBER                 Running object number                                     
#   2 MAG_AUTO               Kron-like elliptical aperture magnitude                    [mag]
#   3 X_IMAGE                Object position along x                                    [pixel]
#   4 Y_IMAGE                Object position along y                                    [pixel]
#   5 X_WORLD                Barycenter position along world x axis                     [deg]
#   6 Y_WORLD                Barycenter position along world y axis                     [deg]
#   7 A_WORLD                Profile RMS along major axis (world units)                 [deg]
#   8 B_WORLD                Profile RMS along minor axis (world units)                 [deg]
#   9 THETA_WORLD            Position angle (CCW/world-x)                               [deg]
#  10 FWHM_WORLD             FWHM assuming a gaussian core                              [deg]
#  11 ELONGATION             A_IMAGE/B_IMAGE                                           
#  12 ELLIPTICITY            1 - B_IMAGE/A_IMAGE                                       
         1 -15.2603    202.1572     71.2179   7.0113496931e+01   2.4948536736e+01     3.594169     2.918437  37.05   0.01315634    1.298    0.230
         2 -14.6659    216.3137     99.7788   7.5652797855e+01   1.7167304729e+01     2.487837      1.76656 -57.12   0.01170401    1.805    0.446
         3 -14.4929    166.8814     80.8549   7.9599567947e+01   3.2033175681e+01     1.800275     1.309057 -31.83  0.004186832    1.340    0.254
         4 -17.3358    195.4079    121.9258   8.4971518177e+01   1.8276903955e+01     6.630715     5.216536 -46.68   0.03387132    1.380    0.275
         5 -10.2346    242.8576      7.6861   4.6787203613e+01   2.2847430310e+01    0.2679912    0.1047188  64.42  0.001096161    2.573    0.611
         6 -11.6586    196.2399    211.2488   1.0194709081e+02   5.0990044688e+00    0.3380127    0.3093328  40.80  0.002556691    1.227    0.185
         7  -8.7496    222.6988    250.3398   1.0319174654e+02  -2.9277144816e+00   0.08974754   0.07274383  52.92 0.0007037187    1.670    0.401
         8 -10.2309    143.4423    215.8155   1.1151030714e+02   1.2977873883e+01    0.2250395    0.1594775  58.18 0.0004245981    1.296    0.228
         9  -9.3209    124.3946    215.7433   1.1478130623e+02   1.5909664321e+01    0.1323175    0.1062187 -48.39 0.0008172974    1.628    0.386
        10 -11.2020    176.0005    211.7020   1.0540773482e+02   8.3356026891e+00    0.3076694     0.173707  61.54  0.001584846    2.498    0.600
        11  -9.3887    227.0887    209.8050   9.6726359081e+01   3.2263570036e-01    0.1672875    0.1320357  34.97 0.0006377441    1.190    0.159
        12  -9.7490    220.8222    207.9960   9.7436817374e+01   1.5092914048e+00    0.1587147    0.1421237  41.21 0.0004739454    1.351    0.260
        13 -13.0019    226.9837     90.6373   7.1523893035e+01   1.6120732556e+01     1.349648    0.7444336 -51.11  0.005495459    2.324    0.570
        14  -8.7292     51.5455    245.5042   1.2891649908e+02   2.1013517961e+01   0.09643108   0.06677624  63.52 7.597012e-05    1.043    0.041
        15  -9.5187    192.2785    232.2629   1.0550977568e+02   3.3007186938e+00    0.1443706    0.1111806  51.99  0.001057707    1.368    0.269
        16 -13.0905    244.6592    124.9674   7.7292595117e+01   7.5380015931e+00    0.8713903    0.4778921  48.19  0.004210901    1.901    0.474
        17 -15.8623    175.0020    153.0620   9.5768565973e+01   1.7287716237e+01      5.21218      3.32101   3.42   0.02184587    2.881    0.653
        18 -10.9021    225.9408    179.7923   9.1777736662e+01   3.9282423210e+00    0.5482885    0.3138597  17.57  0.002790035    2.066    0.516
        19 -11.8020    113.5126    164.5390   1.1025628114e+02   2.6424736470e+01    0.3960997    0.2485597 -86.77 0.0001094163    2.117    0.528
        20 -13.0256    114.3631    152.2900   1.0814146737e+02   2.8688380152e+01    0.8001949    0.5059156 -46.51  0.002911424    1.778    0.437
        21 -11.1592    118.3068    162.1840   1.0890063332e+02   2.6082509072e+01    0.2670265    0.2367771  53.83 0.0003972723    1.108    0.098
        22 -12.1164    120.0906    158.9837   1.0801865838e+02   2.6398428315e+01    0.5366103    0.2879483  61.15  0.002455756    2.201    0.546
        23  -9.3671    230.5413    161.6419   8.7524510536e+01   5.3861062530e+00    0.2212218    0.1192067 -22.73 0.0006020676    1.940    0.485
        24  -9.9477    229.1644    155.6492   8.6531548800e+01   6.4194238904e+00    0.2355812    0.1895109 -36.38 0.0004593652    1.419    0.295
        25 -10.2304    238.2291    154.8180   8.4876307075e+01   4.8561744659e+00    0.2602684     0.188498   9.31 0.0007737671    1.329    0.248
        26 -13.5422    205.3608    144.4666   8.8285064989e+01   1.2613283043e+01    0.6124169    0.5857548   2.35 0.0008226985    1.104    0.094
        27 -10.4429     80.2512    148.7169   1.1509561372e+02   3.4746699563e+01    0.2622242    0.1895862 -79.24 0.0005768613    1.277    0.217
        28  -9.5010    229.7278    149.0970   8.5065315885e+01   7.1861507947e+00    0.1859252    0.1511759  -0.26 0.0005891328    1.130    0.115
        29  -9.1809     11.5704    143.4615   1.2970319386e+02   4.3518013870e+01    0.1117714   0.08157734  87.94 4.614239e-05    1.028    0.028
        30 -10.9795    248.4561    138.2716   7.9716385158e+01   5.0736157628e+00    0.3520711    0.2229367  44.52  0.001873002    1.615    0.381
        31 -13.9971    175.1082    120.9072   8.8687222263e+01   2.2872707745e+01    0.9322017    0.5442759 -40.10  0.001529002    1.717    0.418
        32 -12.0639    120.2945    134.6232   1.0363674643e+02   3.1252206913e+01    0.3771747    0.3102234  23.20  0.002080137    1.526    0.345
        33 -10.4641    169.9673    203.9645   1.0534940313e+02   1.0369617543e+01    0.1801664    0.1482642  42.29 0.0003285712    1.013    0.013
        34  -9.3932     86.6367    129.4577   1.1059284864e+02   3.7970968788e+01    0.2193963    0.1219659  46.76 0.0006150312    1.823    0.452
        35 -10.4455    122.8371    123.1215   1.0068305711e+02   3.3181825270e+01     0.219994    0.1912977 -88.78  0.001226506    1.181    0.153
        36 -11.0238    100.0079    114.7186   1.0443943446e+02   3.9084361528e+01    0.2948943     0.213696 -43.50 0.0004343866    1.473    0.321
        37 -10.1098    154.4889    203.5624   1.0801139162e+02   1.2986453840e+01    0.1764412   0.09387832  50.28 0.0001051948    1.650    0.394
        38 -11.9483    249.0423    114.5591   7.4181035952e+01   8.0586937975e+00    0.3768798    0.2689219  10.77  0.001112153    1.466    0.318
        39 -10.0252    111.4971    110.9796   1.0072549960e+02   3.7880222164e+01    0.2211418    0.1339572 -50.72 0.0008752234    1.571    0.363
        40 -14.1378    222.9231    139.3535   8.4091064087e+01   9.8556592893e+00     1.692833      1.00599  27.60  0.006205247    1.842    0.457
        41 -10.7813    101.3438    105.5494   1.0206065674e+02   4.0882995758e+01    0.4117143    0.2020323 -58.81  0.001707387    2.064    0.516
        42 -10.5592    241.8559    103.6575   7.2596686528e+01   1.1013694262e+01    0.3974097    0.1850487 -26.07  0.001287959    1.996    0.499
        43 -11.5820    240.7899     95.3973   7.0675279955e+01   1.2388079055e+01    0.4880217    0.3468995  46.77  0.001476236    1.495    0.331
        44 -12.0648    128.1099     94.7991   9.2515448637e+01   3.8089039843e+01    0.3789484    0.3306735  14.66  0.001318194    1.356    0.263
        45 -12.2920    132.3171     86.8865   8.9255239559e+01   3.8823962101e+01    0.5995165    0.4701082   3.87  0.002838701    1.703    0.413
        46 -12.1700    124.0562     88.4739   9.1775962735e+01   4.0240747126e+01    0.5529069    0.3469151 -46.16  0.001494709    1.508    0.337
        47 -10.7219    161.7119    201.4359   1.0643754697e+02   1.2101886875e+01    0.1843296    0.1463202  -4.88 0.0009665929    1.706    0.414
        48  -9.2681    242.6713     89.0074   6.8765475677e+01   1.2865975905e+01    0.2557928    0.1825829  21.88  0.001003361    1.569    0.363
        49  -9.4996     73.9733    201.2966   1.2222159729e+02   2.5403751657e+01    0.1535538    0.1135911  60.94  0.000260432    1.084    0.077
        50 -10.5014    128.1355     82.8264   8.9106080927e+01   4.0543354344e+01    0.2829354    0.2337096  21.85 0.0003793708    1.429    0.300
        51 -10.5273    232.4922     81.4568   6.8248789023e+01   1.6191772893e+01     0.327676    0.2557315 -57.57  0.001299847    1.513    0.339
        52  -8.9121    107.2908     82.6725   9.4537514744e+01   4.4795673800e+01    0.1476662    0.1130305 -78.95 0.0002640657    1.619    0.382
        53  -9.0952     52.5024     81.4497   1.1046141218e+02   5.3534807121e+01    0.1324277    0.1098832 -64.58 9.598293e-05    1.005    0.005
        54 -15.9149    175.6011    140.6521   9.3084174300e+01   1.9282171246e+01     6.285635     1.927993  43.15   0.01008924    3.244    0.692
        55 -10.9061    236.6297     76.2657   6.6265724455e+01   1.5976192479e+01    0.5339046    0.3973597 -87.89  0.002173106    1.863    0.463
        56 -10.6905    118.8467     70.5158   8.7700450560e+01   4.4992811795e+01    0.2999966    0.2141646 -40.60   0.00143374    1.308    0.235
        57 -10.3715    243.1793     65.9920   6.2630002511e+01   1.5877579061e+01    0.4387227    0.2749254 -81.58  0.001458846    2.581    0.613
        58 -11.8946    178.0068    222.1136   1.0648609852e+02   6.6949702269e+00    0.5965104    0.2595893  51.63  0.002396271    2.292    0.564
        59 -10.4075    125.5079     65.5938   8.4344266316e+01   4.4519639994e+01    0.3170543    0.2030049 -64.15  0.001283115    2.200    0.545
        60 -11.3320    158.7975     55.0510   7.3046458231e+01   3.8466699347e+01    0.3483146    0.3135104 -43.00  0.000313068    1.106    0.096
        61 -14.4928    200.2187    163.5230   9.3122142515e+01   1.0774478164e+01     2.668833     1.248631  30.03  0.005801658    2.732    0.634
        62 -12.1546    235.1715    214.4315   9.6193621728e+01  -1.4014578021e+00    0.3028561    0.2082548  25.96 0.0008963622    1.135    0.119
        63 -11.5125    118.1276    191.9666   1.1311476890e+02   2.0697079056e+01    0.2826045    0.2411965  31.18  0.001414322    1.400    0.286
        64  -9.3013    249.3497     52.8904   5.8371607954e+01   1.6165674793e+01    0.2142875    0.1863448 -61.79  0.000551138    1.245    0.197
        65  -9.8799    226.9927    191.5884   9.3715063917e+01   2.3498235777e+00    0.2146784     0.167289 -10.58 0.0007177448    1.290    0.225
        66 -12.1839    174.8106     43.3019   6.6001478119e+01   3.6136887493e+01    0.5873728    0.3168781 -39.46  0.001343486    1.793    0.442
        67 -12.6182    170.3419     48.4267   6.8540222400e+01   3.6550192206e+01    0.8625665    0.5492413 -83.23  0.003329807    2.458    0.593
        68 -11.4175    169.8305     42.7057   6.6683841150e+01   3.7524867122e+01    0.4009185    0.2785049 -20.32  0.001057981    1.457    0.314
        69 -11.4141    191.9104     39.1172   6.1834209792e+01   3.2218972330e+01    0.2881292    0.2695344 -11.82  0.001546204    1.060    0.056
        70 -11.2561    213.6382     45.7171   6.0777728137e+01   2.5719676238e+01     0.521418    0.3291087  27.33  0.002221705    2.031    0.508
        71 -14.1655    163.1153    114.9995   8.9732583337e+01   2.6570724641e+01     1.972001     1.379454 -86.02  0.003914192    2.333    0.571
        72 -12.2994    128.9647    189.2103   1.1072063026e+02   1.9435868747e+01    0.3624842    0.2760164 -77.87  0.001447852    1.494    0.331
        73 -13.7378    176.3281    111.1855   8.6031815069e+01   2.4350489693e+01    0.9045179    0.5083405  58.91  0.001025692    2.070    0.517
        74 -11.4753    247.5130    184.5170   8.9192272509e+01  -2.3629909988e-01    0.3121803    0.1915347  34.57 0.0009692863    1.405    0.288
        75 -10.1775    156.6867     43.6568   6.9514110386e+01   4.0788173447e+01    0.2858854    0.1900068 -15.17  0.001019778    1.643    0.391
        76 -13.2719    123.8549    178.3598   1.1019694749e+02   2.2157496807e+01    0.9595369    0.4417562  54.35  0.004476835    2.190    0.543
        77 -11.9263    195.1614     43.9100   6.2877863310e+01   3.0722107935e+01    0.6153764    0.2755084 -38.80 0.0002641952    2.095    0.523
        78 -11.0446    219.9003    175.5137   9.1990369147e+01   5.5216329580e+00    0.4806939    0.2827671  44.30  0.001617708    1.578    0.366
        79 -10.0983    146.4210     37.4868   6.9361973160e+01   4.4317156996e+01    0.2686094    0.2541434  -7.53 0.0005091875    1.018    0.018
        80  -9.7921    233.3090     35.9021   5.5499015013e+01   2.2054304266e+01    0.2010115     0.169819 -28.30 0.0003513591    1.086    0.079
        81  -9.8561    238.9144    181.6193   9.0012280954e+01   1.5028740779e+00    0.2150383    0.1625535 -18.98 0.0007595507    1.335    0.251
        82  -9.2525     87.5387    172.9625   1.1671257139e+02   2.8786408768e+01    0.1737902    0.1101361 -66.79 0.0009233302    1.572    0.364
        83 -11.6547    189.4983     28.0355   5.8563666608e+01   3.4266629348e+01    0.6619675    0.4253957  22.02  0.001819079    1.977    0.494
        84 -10.6347    213.8516     34.4906   5.7371857164e+01   2.7101471373e+01    0.2543665     0.190228 -49.42   0.00125751    1.330    0.248
        85 -10.1988    225.8143     23.0754   5.2626727060e+01   2.5405585558e+01    0.3181175    0.2025066  61.40  0.001529161    1.638    0.389
