#   1 NUMBER                 Running object number                                     
#   2 MAG_AUTO               Kron-like elliptical aperture magnitude                    [mag]
#   3 X_IMAGE                Object position along x                                    [pixel]
#   4 Y_IMAGE                Object position along y                                    [pixel]
#   5 X_WORLD                Barycenter position along world x axis                     [deg]
#   6 Y_WORLD                Barycenter position along world y axis                     [deg]
#   7 A_WORLD                Profile RMS along major axis (world units)                 [deg]
#   8 B_WORLD                Profile RMS along minor axis (world units)                 [deg]
#   9 THETA_WORLD            Position angle (CCW/world-x)                               [deg]
#  10 FWHM_WORLD             FWHM assuming a gaussian core                              [deg]
#  11 ELONGATION             A_IMAGE/B_IMAGE                                           
#  12 ELLIPTICITY            1 - B_IMAGE/A_IMAGE                                       
         1 -12.6676      3.8999     50.3622   1.2857015194e+02   6.4644271702e+01    0.5899908    0.4119516 -54.99  0.002223378    1.284    0.221
         2 -14.9537      7.2922    141.5840   1.4282125476e+02   4.4995573013e+01     8.180175     2.359921 -79.64   0.02919477    3.985    0.749
         3 -13.3267    199.5491     28.6772   6.5722660090e+01   3.1954624574e+01     1.419615     1.215566  50.27  0.007165275    1.324    0.245
         4 -13.3523    215.2393     10.5497   5.9725755336e+01   3.0274278986e+01    0.9376854    0.8270359  72.24  0.003273286    1.237    0.191
         5 -11.7644      2.4970      7.9847   1.1532826854e+02   7.1674288021e+01    0.6948915    0.1629967 -48.13  0.002948601    4.383    0.772
         6 -13.0467    159.6860    247.2040   1.2237516853e+02   2.0807538585e-01     1.327311    0.5723195  37.58  0.005933971    2.015    0.504
         7 -12.9290    246.9463    246.5717   1.0539180342e+02  -1.3889015551e+01     1.586891    0.5947715  32.41  0.007446916    2.400    0.583
         8 -10.0269     65.7103    249.4124   1.4087621811e+02   1.5032016259e+01    0.2232382     0.165315  72.97 0.0006623018    1.085    0.078
         9 -11.0491     46.7582    247.9767   1.4414611469e+02   1.7847465214e+01    0.3133458    0.2783411 -72.77  0.001882675    1.524    0.344
        10 -10.3220     28.5589    249.6122   1.4737071209e+02   1.9765954690e+01    0.2294876     0.185166 -87.40  0.001511923    1.329    0.248
        11 -12.1584     35.9964    244.4602   1.4576954724e+02   1.9862861483e+01    0.6525684    0.4467536 -63.04   0.00412667    1.774    0.436
        12 -12.8412     14.1423    241.0221   1.4925282381e+02   2.3009646072e+01     1.074083    0.5811871  71.20  0.007035004    1.436    0.303
        13 -11.8565    117.6665    231.6463   1.2881705398e+02   1.0355766017e+01    0.7706374    0.1799908  41.16  0.002520865    3.617    0.724
        14 -11.7076    103.8473    229.8182   1.3144023716e+02   1.3044475882e+01    0.6257085    0.1518682  42.91  0.002159995    3.348    0.701
        15 -12.2009     88.3370    226.0973   1.3418443756e+02   1.6296130874e+01     0.858943    0.2625015  51.32  0.003144391    3.194    0.687
        16 -12.0381      9.8747    230.7316   1.4937568908e+02   2.5455654103e+01    0.7280169    0.2311243  74.20  0.002853302    4.283    0.767
        17 -10.1086     81.8710    248.7728   1.3783407175e+02   1.2812984704e+01    0.2440567    0.1324745  76.54  0.001245199    2.119    0.528
        18 -11.7437      3.6734    248.3926   1.5132576112e+02   2.2706924522e+01    0.7689722    0.3085829  53.14  0.003798363    1.888    0.470
        19 -10.1529    105.4871    245.9877   1.3301440786e+02   9.6519685117e+00     0.174458    0.1223626 -71.10  0.001003572    1.589    0.370
        20 -10.3925     76.8487    217.0435   1.3552488355e+02   1.9952466940e+01    0.4230676    0.1140531  48.75   0.00150958    3.365    0.703
        21  -8.3531    152.3753    212.7685   1.1858682196e+02   7.7826292406e+00     0.145809   0.09980829  60.53   0.00035984    1.610    0.379
        22 -12.2735      9.9050    206.8097   1.4786634826e+02   3.0329912975e+01    0.6033363    0.4048484  33.02  0.002946183    1.873    0.466
        23 -10.5874    229.3363    229.9940   1.0577581793e+02  -8.9769648256e+00    0.4098409    0.2282708 -57.92  0.001577219    4.598    0.783
        24 -11.5422     57.5434    197.8366   1.3746275202e+02   2.6903513513e+01    0.3174788    0.2413176 -74.70 0.0005621128    1.221    0.181
        25 -10.0457    192.7953    194.9950   1.0658270870e+02   3.3731707951e+00    0.7744738      0.39682 -64.88  0.002135577    6.029    0.834
        26 -10.4790      8.7687    193.3518   1.4712940579e+02   3.3305240314e+01    0.2300664    0.1622139  67.03 0.0004487865    1.239    0.193
        27 -11.8016     64.1675    189.4517   1.3500745620e+02   2.7921323973e+01    0.2791986    0.2416963 -72.94 0.0004303157    1.180    0.152
        28 -13.1101     44.6757    213.8443   1.4174139557e+02   2.5029877032e+01     1.381609     1.079976  39.98  0.008922591    1.489    0.328
        29 -13.0777     61.4311    174.5438   1.3370883608e+02   3.1776652786e+01    0.5446544     0.279745 -46.64   0.00242952    2.363    0.577
        30 -10.5911     74.9571    176.6215   1.3075241304e+02   2.9387003856e+01    0.2441406    0.2186135  84.69 0.0003426303    1.031    0.030
        31  -9.8382     94.6491    171.6571   1.2513897499e+02   2.7470095187e+01    0.3378781    0.2093121  51.45  0.000887211    1.610    0.379
        32 -11.5845     82.5203    167.7436   1.2752157011e+02   3.0362300735e+01    0.6201044    0.5642782 -47.11  0.003601588    1.248    0.199
        33 -12.7094     29.6216    231.2227   1.4596742654e+02   2.3219903358e+01    0.2964972    0.2421693 -83.93  0.000731431    1.296    0.228
        34  -9.9605     95.8188    152.0749   1.2130143480e+02   3.1979774319e+01    0.3222816     0.283138 -42.20 0.0007879641    1.232    0.188
        35  -9.0733     98.9248    147.8401   1.1963872407e+02   3.2466257187e+01    0.2183933    0.1980656 -28.60 0.0003458796    1.256    0.204
        36 -11.8619     84.3909    150.8810   1.2411631850e+02   3.4143342476e+01    0.3080571    0.2589519 -46.07 0.0007297387    1.254    0.202
        37 -11.9320     67.9880    143.0003   1.2711392744e+02   3.8472280199e+01    0.6101938    0.4395022 -88.12  0.002103995    1.537    0.349
        38 -10.8854     64.6917    141.6644   1.2777838411e+02   3.9240718657e+01    0.3596505    0.2132455 -50.00 0.0008797483    1.619    0.382
        39  -9.6465    108.3297    137.1194   1.1482030240e+02   3.3337172381e+01    0.4373038    0.2936321 -16.79  0.001728752    2.486    0.598
        40 -10.3193     95.3634    134.2707   1.1778456638e+02   3.6346248709e+01    0.2612403     0.240054 -31.68 0.0005040522    1.168    0.144
        41 -10.7406     25.9956    128.5171   1.3630055190e+02   4.6565422738e+01    0.2577988    0.2077243  61.48 0.0007813655    1.388    0.279
        42  -9.0320     74.3098    128.0082   1.2245656043e+02   4.1185837822e+01    0.2454665    0.1854439  68.71 0.0007182561    1.585    0.369
        43  -8.9825    105.9572    123.6758   1.1238325461e+02   3.6949995122e+01    0.1989195    0.1870267  45.41 0.0003107082    1.089    0.082
        44  -9.4250     78.5172    122.2925   1.2001226938e+02   4.1919564369e+01    0.2710334    0.2180811  69.54 0.0006697384    1.461    0.316
        45  -9.7600     65.7801    121.2931   1.2356724110e+02   4.3966704959e+01    0.2393785     0.198694  84.49 0.0005394497    1.369    0.270
        46  -9.7045    167.6803    112.7330   9.3546509186e+01   2.5909193121e+01    0.2934377    0.2564479 -82.62  0.000755966    1.265    0.209
        47  -9.2398     47.2635     99.8077   1.2470087593e+02   5.1135874416e+01    0.2059992    0.1709546  47.67  0.001188044    1.434    0.302
        48 -11.6904    242.1761     94.4915   7.5165605904e+01   1.1913276535e+01    0.4937784     0.371861  -4.99  0.002431939    2.027    0.507
        49  -8.9858     64.7887     80.7936   1.1407163442e+02   5.3098492309e+01    0.1674415    0.1586159  68.45 0.0005601584    1.327    0.246
        50  -9.0985    158.5272     77.4907   8.6066260450e+01   3.4966254823e+01    0.1533182    0.1460631  56.35 2.367063e-05    1.014    0.014
        51  -8.4907     59.2947     76.6935   1.1481250259e+02   5.4654270264e+01    0.2021243    0.1189303  40.55 0.0005376399    1.967    0.492
        52  -8.8459     55.7528     74.5932   1.1546152033e+02   5.5519482029e+01    0.1612589    0.1548129  81.79 0.0004758152    1.353    0.261
        53 -13.7974     34.8721    224.7660   1.4453455514e+02   2.3920382470e+01    0.7964184    0.5749022  65.34  0.002432778    1.129    0.115
        54 -10.8561      5.5361    241.0019   1.5065810156e+02   2.3906163515e+01    0.2139944    0.1877683  64.97  0.001020902    1.466    0.318
        55 -11.0538     99.9192    245.8492   1.3408527260e+02   1.0573260857e+01    0.3192356    0.1860725 -57.86  0.001208659    1.993    0.498
        56 -11.1110     51.3623    236.3301   1.4240637483e+02   1.9523500936e+01     0.462345    0.2151207  69.37  0.001792597    2.221    0.550
