#   1 NUMBER                 Running object number                                     
#   2 MAG_AUTO               Kron-like elliptical aperture magnitude                    [mag]
#   3 X_IMAGE                Object position along x                                    [pixel]
#   4 Y_IMAGE                Object position along y                                    [pixel]
#   5 X_WORLD                Barycenter position along world x axis                     [deg]
#   6 Y_WORLD                Barycenter position along world y axis                     [deg]
#   7 A_WORLD                Profile RMS along major axis (world units)                 [deg]
#   8 B_WORLD                Profile RMS along minor axis (world units)                 [deg]
#   9 THETA_WORLD            Position angle (CCW/world-x)                               [deg]
#  10 FWHM_WORLD             FWHM assuming a gaussian core                              [deg]
#  11 ELONGATION             A_IMAGE/B_IMAGE                                           
#  12 ELLIPTICITY            1 - B_IMAGE/A_IMAGE                                       
         1 -12.9205    163.3100     40.0714   2.9022568050e+02   6.3161792618e+00   0.04106462   0.03067365  63.93  0.003786386    1.571    0.363
         2 -13.0631    167.9688     34.0264   2.9013488171e+02   6.3570091588e+00   0.03776941   0.03225411  69.14  0.002564756    1.292    0.226
         3 -12.7524    232.6693     28.6425   2.8936157690e+02   6.0275939471e+00   0.03660833     0.029854 -71.97  0.002842883    1.279    0.218
         4 -11.7259    230.3451     10.9092   2.8927803777e+02   6.2436553564e+00   0.02088304   0.01701871 -71.51  0.001740558    1.277    0.217
         5 -12.3416    184.4256      2.7178   2.8975230147e+02   6.6145038446e+00   0.03057843   0.02321175  -6.55  0.002529321    1.561    0.359
         6 -11.9561    180.4982      2.4786   2.8979576068e+02   6.6409455823e+00   0.02141263    0.0146284  22.29  0.001556092    1.524    0.344
         7 -10.7952    163.9765    217.2795   2.9131345221e+02   4.2891085689e+00  0.009509351  0.008919771  28.15  0.001172138    1.072    0.067
         8 -19.7131     62.1788    162.8677   2.9214220737e+02   5.5221086219e+00     1.007914    0.2378868 -63.37   0.06019169    4.686    0.787
         9 -11.0008    135.2303    195.9386   2.9151038249e+02   4.7057153613e+00   0.01702423   0.01186079  72.81  0.001288851    1.861    0.463
        10 -11.7013    188.9464    186.8394   2.9084048310e+02   4.4865225119e+00   0.02829465   0.01968051 -78.68  0.001872364    1.661    0.398
        11  -9.9343    123.2899    196.5792   2.9165082139e+02   4.7701399648e+00  0.009300735  0.006453236  11.79 0.0009550052    1.638    0.390
        12  -9.6326    159.4943    195.4822   2.9123027477e+02   4.5650475958e+00  0.006533194   0.00638656  67.80 4.933284e-05    1.047    0.045
        13 -11.4430    207.6368    185.3929   2.9061810887e+02   4.3904785458e+00   0.01632924   0.01459183  -3.13 0.0008367767    1.183    0.155
        14 -11.7863    211.9471    181.6478   2.9054576367e+02   4.4072685277e+00   0.01953193    0.0151046 -46.06  0.001530672    1.292    0.226
        15  -9.8299    158.1348    185.6070   2.9118489924e+02   4.6860265126e+00  0.009258065  0.008403813  82.29  0.000557648    1.178    0.151
        16 -10.6395    123.9929    185.0531   2.9157175582e+02   4.8976118325e+00   0.01101055  0.007728689  63.28  0.001126586    1.731    0.422
        17 -10.0350    223.8636    184.1430   2.9042514082e+02   4.3069769406e+00  0.009055122  0.007595565 -23.95            0    1.287    0.223
        18 -11.7010    108.5040    182.7460   2.9173465231e+02   5.0170087483e+00   0.01702025   0.01232288  70.94  0.001295405    1.716    0.417
        19 -11.1061    198.9104    178.5011   2.9067519571e+02   4.5217312489e+00   0.01681052   0.01344283  85.08 0.0008400872    1.450    0.310
        20  -8.6780     13.3975    250.3216   2.9323734658e+02   4.8143654870e+00  0.007501262  0.006258762 -72.66 0.0001825438    1.244    0.196
        21 -11.4028    145.5087    169.5880   2.9123038520e+02   4.9449545340e+00   0.02598311   0.01742707  64.80  0.002586566    1.900    0.474
        22 -10.8874    137.3185    171.0622   2.9133312016e+02   4.9773636819e+00   0.01399893  0.009794539  68.15  0.001423415    1.803    0.445
        23  -9.7335    225.3212    166.6860   2.9030062287e+02   4.4974583329e+00  0.006895229  0.004973071  63.27 0.0003151709    1.656    0.396
        24 -11.4666     10.6166    206.5407   2.9300071269e+02   5.3315102136e+00   0.02109815   0.01940064 -23.33  0.002601086    1.121    0.108
        25  -9.9147     25.2993    165.7347   2.9258200233e+02   5.7101927975e+00    0.0126364  0.008643151  11.43 0.0008650481    1.677    0.404
        26 -10.8882    104.9182    161.5797   2.9164520394e+02   5.2803954153e+00   0.01184316   0.01010184 -54.29 0.0003526723    1.155    0.134
        27 -10.3734    179.1243    175.5602   2.9088305395e+02   4.6744632625e+00   0.01436466  0.007845389 -44.18  0.001335579    1.914    0.478
        28 -10.4418    165.2922    208.0164   2.9124132291e+02   4.3870029545e+00   0.01204362   0.01059081  45.13 0.0005074461    1.161    0.138
        29 -12.6752    109.1397    153.8134   2.9154901219e+02   5.3437726085e+00   0.03662571   0.02726074 -12.94  0.003935105    1.615    0.381
        30 -10.9154     16.6890    150.2084   2.9258508951e+02   5.9391615637e+00    0.0129434   0.01046913  20.81 0.0007606014    1.270    0.213
        31 -11.1294    133.8605    145.2721   2.9121350453e+02   5.2927618563e+00   0.04216846   0.01136712 -67.02  0.002327868    5.608    0.822
        32  -9.5919    174.5022    148.9793   2.9077169726e+02   5.0058364399e+00  0.009130024  0.005726572  82.48 0.0005259352    2.381    0.580
        33 -11.4328    130.3861    206.0288   2.9162792314e+02   4.6195402373e+00   0.01443341   0.01291265 -75.45 0.0008232407    1.155    0.134
        34  -9.0825    211.3244    203.2634   2.9068634514e+02   4.1642348407e+00  0.006654358  0.004982968 -21.15 0.0002032182    1.561    0.359
        35 -12.4887      5.1628    139.7719   2.9265289815e+02   6.1273527827e+00   0.02702295   0.02168399  20.62    0.0026721    1.283    0.220
        36 -11.4928    115.7207    139.5576   2.9138575161e+02   5.4670914193e+00   0.02088756   0.01044787 -49.17  0.001900127    1.969    0.492
        37 -11.8735    105.7210    139.7328   2.9150126037e+02   5.5251738246e+00   0.01518736   0.01285635  27.67 0.0007189465    1.188    0.158
        38 -12.7371      3.1733    127.8642   2.9260241939e+02   6.2753267596e+00   0.05654635   0.02377001 -69.45  0.004366633    2.929    0.659
        39 -11.3543    106.0624    130.7771   2.9144208035e+02   5.6254278955e+00   0.01921972   0.01647636  79.82  0.001542485    1.295    0.228
        40 -10.6598    108.9391    126.0520   2.9137998527e+02   5.6621163479e+00   0.01439468   0.01091384 -47.42 0.0008890778    1.311    0.237
        41 -10.8986    120.0732    130.1705   2.9127799350e+02   5.5481535441e+00   0.01379388   0.01038042 -49.67 0.0007835805    1.311    0.237
        42 -10.4260    160.6977    128.1534   2.9080081349e+02   5.3267668580e+00   0.01092132  0.008654975  86.95  0.001210991    1.466    0.318
        43 -10.5358    125.5077    127.3951   2.9119866836e+02   5.5471789921e+00   0.02204222   0.01048055  58.28  0.001594844    3.578    0.721
        44 -13.0317    196.1931    195.7445   2.9081269024e+02   4.3412013936e+00   0.03101953   0.02702935  35.13   0.00165368    1.151    0.131
        45 -10.2556    114.0056    119.0116   2.9127851743e+02   5.7120797283e+00  0.009778082  0.009707094  -6.96 0.0003641428    1.009    0.009
        46 -11.4206      2.5819    112.2185   2.9251287588e+02   6.4576374278e+00   0.01788332   0.01153228 -58.76  0.001761813    1.517    0.341
        47 -11.0336    141.3215    197.7910   2.9145218008e+02   4.6479420484e+00      0.01591   0.01129153  83.86 0.0009765605    1.805    0.446
        48 -11.0838      9.6650    111.1972   2.9242540995e+02   6.4269645433e+00   0.02012137   0.00918167  13.08  0.001482475    3.364    0.703
        49  -9.9800    205.4191    110.1032   2.9017792624e+02   5.2632751785e+00   0.01120246  0.009215362   8.26 0.0007288152    1.310    0.237
        50 -11.4555     12.3689    246.4736   2.9322552905e+02   4.8645035207e+00  0.009961101  0.007011709 -50.07 0.0005567216    1.398    0.285
        51 -12.6870    249.2148     70.6388   2.8943314479e+02   5.4489332844e+00     0.072367   0.01484644 -59.11  0.004487084    4.243    0.764
        52 -11.9239    179.8980    194.3884   2.9099042600e+02   4.4547798977e+00   0.02532781   0.02102634  73.03  0.002617496    1.361    0.265
        53 -13.1366    156.7505     50.1099   2.9036297278e+02   6.2412395846e+00   0.03842426   0.02507557  52.29  0.001610165    1.729    0.422
        54 -11.4273     22.5962    242.6787   2.9308536469e+02   4.8467519769e+00   0.01090574  0.009781612 -12.04 0.0005148303    1.179    0.152
        55 -10.4508     19.2353    240.2674   2.9310900385e+02   4.8944125136e+00   0.00840691  0.007753127 -37.98 0.0003173584    1.089    0.082
        56 -12.4522    171.5207     26.2071   2.9004574055e+02   6.4247249506e+00   0.02587592   0.01924376 -39.43  0.001516073    1.402    0.287
        57 -10.3100    250.4384     32.7470   2.8918407656e+02   5.8733537240e+00    0.0200905  0.006652215 -63.18  0.001446867    3.170    0.684
        58 -10.6613      3.1711    226.3195   2.9320717871e+02   5.1498727827e+00  0.006377993  0.004401125 -44.26 0.0003607737    1.475    0.322
        59  -9.1575    140.5089     32.5003   2.9043979291e+02   6.5399486612e+00  0.006553253  0.006359756  66.98 0.0005720628    1.059    0.056
        60 -10.3510    189.6023     14.8068   2.8976810714e+02   6.4455075369e+00   0.00919093  0.006384533 -76.54 0.0007520674    1.632    0.387
        61 -11.5765    186.0663    220.9325   2.9108370606e+02   4.1145168918e+00   0.01518725   0.01091374  -6.59  0.001080116    1.723    0.420
        62 -11.0543    151.3175    220.8796   2.9148023671e+02   4.3240897920e+00   0.01241417  0.008961232  40.84  0.001346077    1.400    0.286
