#   1 NUMBER                 Running object number                                     
#   2 MAG_AUTO               Kron-like elliptical aperture magnitude                    [mag]
#   3 X_IMAGE                Object position along x                                    [pixel]
#   4 Y_IMAGE                Object position along y                                    [pixel]
#   5 X_WORLD                Barycenter position along world x axis                     [deg]
#   6 Y_WORLD                Barycenter position along world y axis                     [deg]
#   7 A_WORLD                Profile RMS along major axis (world units)                 [deg]
#   8 B_WORLD                Profile RMS along minor axis (world units)                 [deg]
#   9 THETA_WORLD            Position angle (CCW/world-x)                               [deg]
#  10 FWHM_WORLD             FWHM assuming a gaussian core                              [deg]
#  11 ELONGATION             A_IMAGE/B_IMAGE                                           
#  12 ELLIPTICITY            1 - B_IMAGE/A_IMAGE                                       
         1 -11.3110     76.7562     20.4890   8.7261931253e+01   6.0464587798e+01    0.5458021    0.3030267  49.93  0.002946861    1.832    0.454
         2 -11.2409     65.4779     21.8350   9.1465187374e+01   6.2211653566e+01    0.5478365    0.3272326  52.01  0.003010315    2.109    0.526
         3 -11.6390    110.8659      4.1381   7.2387109746e+01   5.5297960004e+01    0.4311638    0.2839469  25.79  0.002527918    1.585    0.369
         4 -11.7490    104.2523      9.1315   7.5583497033e+01   5.6271346719e+01    0.4737555     0.195642  47.66  0.002261437    1.959    0.489
         5  -9.5221     97.4129     10.2396   7.7626950818e+01   5.7573893398e+01    0.1833104    0.1741059 -77.73 0.0005896685    1.374    0.272
         6 -12.1481     97.5419      4.3223   7.5453771904e+01   5.8056308393e+01    0.6186618    0.3731375  47.03  0.003630037    1.352    0.260
         7 -12.0875     98.5168     16.2683   7.9522371743e+01   5.6781112759e+01    0.5448476    0.4364125  82.48  0.003303481    1.730    0.422
         8 -12.0293     92.1622     10.0762   7.8905638202e+01   5.8634148191e+01    0.6366944    0.4182846 -87.98  0.002953363    3.439    0.709
         9  -9.6170     41.2924     12.8405   9.6693660329e+01   6.6783423009e+01    0.2473718    0.1641174  -8.27 0.0009726704    1.324    0.245
        10 -11.4009     85.0619     11.5839   8.1389798532e+01   5.9862449249e+01    0.4272722    0.2322585  57.76  0.002065896    1.985    0.496
        11 -11.0612     78.4878     11.1933   8.3129624044e+01   6.1116170061e+01    0.3872091    0.2430634  70.76  0.001932979    2.870    0.652
        12 -11.4709     57.8684      9.7285   8.9172224307e+01   6.4743356354e+01    0.3831117    0.2329261  48.97  0.002295124    1.875    0.467
        13 -11.5316    116.9163      5.2037   7.1491273178e+01   5.3906139672e+01    0.4703159    0.2713175   6.83  0.002410837    2.350    0.574
        14 -11.2369    122.5996      3.1543   6.9710911933e+01   5.2824540022e+01    0.3879834    0.2186457  36.74  0.002077557    1.774    0.436
        15 -10.9796    129.1429      2.0681   6.8169415920e+01   5.1451379109e+01    0.3833273    0.2293253  82.20  0.001989895    1.976    0.494
        16  -9.8011     35.8101      7.2408   9.6486622932e+01   6.8118548703e+01    0.3046972    0.1802865 -41.70  0.001847422    2.359    0.576
        17 -12.7548    236.9976      4.1696   5.5811728429e+01   2.6421032405e+01    0.8542639    0.3918071  78.26   0.00448248    1.917    0.478
        18 -11.6179     72.4483      6.6497   8.3141226786e+01   6.2618180383e+01    0.3894235    0.2296063  43.85  0.001700185    1.463    0.316
        19  -9.0078     29.2747     10.0163   1.0045862684e+02   6.8584558287e+01    0.1812566    0.1294696  33.47  0.001280963    1.650    0.394
        20 -11.4674     79.6065      2.2972   7.9323915183e+01   6.1701510098e+01    0.5024859    0.2105412  54.35   0.00220165    2.205    0.547
        21 -10.9406     65.7367      2.3598   8.3470869140e+01   6.4155862325e+01    0.3919431    0.2639522  68.26  0.002225565    2.545    0.607
        22 -10.1288     48.3873     10.6491   9.3006197064e+01   6.6060783283e+01    0.2054612    0.1598133  24.20   0.00114714    1.202    0.168
        23  -9.3714    160.6535      3.1786   6.3572576011e+01   4.4078585093e+01    0.1578924    0.1205609  -0.53 0.0009470154    1.753    0.430
        24  -9.9049    168.4488      2.2840   6.2304536830e+01   4.2321445419e+01    0.3494286     0.106709  74.82  0.001216788    3.604    0.723
        25  -9.6371    139.5133      2.4838   6.6535292529e+01   4.9060546987e+01    0.2350322   0.08214281  55.17 0.0007869998    2.198    0.545
        26  -9.5527     54.2885      1.9854   8.7125266811e+01   6.6045765133e+01    0.1823112    0.1578886  54.51  0.001321238    1.688    0.408
        27 -10.2641    151.0078      1.7516   6.4549921015e+01   4.6460519364e+01    0.4436859   0.04777839  62.40  0.001325272    4.663    0.786
        28  -9.9035     79.2961    211.0053   1.3251909508e+02   2.0419602943e+01    0.1864649    0.1567909  81.30 0.0006751688    1.031    0.030
        29 -11.2359    168.9068    241.7630   1.1820035656e+02  -8.4555062639e-01    0.4547187    0.2811706  11.73  0.002047653    2.652    0.623
        30 -11.4139    166.7876    248.2314   1.1958855969e+02  -1.5593626587e+00    0.4494672    0.2945108  28.41   0.00236033    1.516    0.340
        31  -9.9966    202.8764    208.7967   1.0573069397e+02  -1.1301495378e+00    0.3627827    0.1725187  31.68  0.001502415    2.282    0.562
        32  -8.8139    164.8794    198.9160   1.1183761982e+02   7.8756408449e+00    0.2373682    0.1677276 -15.90 0.0009921463    2.037    0.509
        33  -8.1999     89.2944    199.6953   1.2886112738e+02   2.1402619811e+01    0.1427283   0.09596471  73.55 0.0003749165    1.580    0.367
        34  -9.0894    126.8757    196.8521   1.1993919839e+02   1.5547818087e+01    0.2040681    0.1973433 -33.45 0.0007934333    1.196    0.164
        35 -10.3234    172.9492    195.6683   1.0948022247e+02   6.9681545719e+00    0.3122152    0.2825593  43.30 0.0008081241    1.062    0.059
        36  -9.1643    173.9942    191.7515   1.0850329922e+02   7.5553082111e+00    0.2144864    0.1931097  77.41 0.0003240416    1.257    0.205
        37  -8.7603    124.9645    192.4674   1.1963093192e+02   1.6875973890e+01    0.2197863    0.1363638  44.71  0.001007053    1.532    0.347
        38  -7.9612    156.2979    188.3150   1.1174428744e+02   1.1764165725e+01    0.1463734    0.1184009  -3.45  0.000447207    1.607    0.378
        39  -8.7610     94.5543    187.0449   1.2579470427e+02   2.3467424614e+01    0.2076869    0.1174491 -87.81 0.0006006342    2.591    0.614
        40  -8.3256    144.2910    186.7088   1.1416218674e+02   1.4474402433e+01    0.1480277    0.1142506  77.53 0.0002449405    1.547    0.354
        41 -10.2975    210.9973    183.1364   9.9081529234e+01   2.0533199309e+00    0.4881274    0.3185092  -3.93  0.002096639    2.319    0.569
        42  -8.5221    139.3395    185.3267   1.1504228791e+02   1.5745285047e+01    0.1501117    0.1204489  -4.94 0.0005503346    1.731    0.422
        43  -8.6752    197.4830    182.0082   1.0158313327e+02   4.8761588595e+00     0.205551    0.1241927 -19.29 0.0008091698    2.449    0.592
        44  -9.4897     13.1103    180.8889   1.4333070174e+02   3.5342407157e+01    0.2291212    0.1680229  -1.07  0.001401289    2.353    0.575
        45  -8.9314    175.7495    179.0206   1.0558875461e+02   9.8262477719e+00    0.2213444    0.1637851  19.09 0.0006117372    1.642    0.391
        46  -9.8702    204.9512    176.2057   9.8859286290e+01   4.5407015179e+00    0.3656874    0.2885133 -38.08  0.001179582    1.245    0.197
        47  -9.0167    183.1459    174.2227   1.0299165698e+02   9.3158151985e+00    0.4394876    0.1642529 -33.90  0.001248677    4.232    0.764
        48  -8.7907    149.5134    175.0037   1.1068942021e+02   1.6031129074e+01    0.1989406    0.1323655 -23.98 0.0003930813    2.213    0.548
        49  -8.6715     76.0236    175.5110   1.2841011440e+02   2.9116477594e+01    0.2013912    0.1010446  59.26 0.0007500977    2.422    0.587
        50  -8.7140    218.5829    174.1960   9.5750048871e+01   2.2882296131e+00    0.1943768    0.1290116 -27.94 0.0002810744    1.573    0.364
        51  -8.8297    207.2313    170.4356   9.7187020028e+01   5.2126647967e+00    0.1990825    0.1407796  54.58 0.0009467065    1.602    0.376
        52  -8.3098    161.6540    170.3190   1.0693735126e+02   1.4581412972e+01    0.1591353    0.1212192  82.07 0.0007049094    1.728    0.421
        53  -8.8820     10.2567    162.2632   1.4218605808e+02   3.9835547674e+01    0.1994332    0.1037313  70.53  0.001028597    2.113    0.527
        54  -8.4072     93.6590    161.3295   1.2167607631e+02   2.9757077544e+01    0.1565418    0.1087227  76.62 0.0007051502    1.742    0.426
        55  -9.4111    213.1747    155.3937   9.2767467517e+01   6.9587191311e+00    0.2703649    0.2326047  57.43 0.0007821761    1.281    0.219
        56  -9.1897     50.6603    155.9645   1.3171644591e+02   3.7256438015e+01    0.2908348    0.1369956  58.46   0.00118267    2.818    0.645
        57  -9.1957    248.6699    153.6573   8.6008363239e+01   4.4971677509e-01    0.1414589     0.102773  -5.18 0.0003710671    1.748    0.428
        58  -8.7710    205.3165    152.3476   9.3635958371e+01   9.1824779312e+00    0.1548801    0.1179063  -2.21 0.0005784166    1.725    0.420
        59  -9.4790     40.4270    148.4387   1.3321147436e+02   4.0233916628e+01    0.3966359    0.1508206  55.59  0.001377459    4.216    0.763
        60  -8.7732    199.8185    147.6096   9.3675463425e+01   1.1301471629e+01    0.3066961    0.1128064 -40.30  0.001018366    2.704    0.630
        61  -9.2063     59.0276    148.0049   1.2830586209e+02   3.8140365071e+01    0.3876597    0.1526472  48.58  0.001483823    3.013    0.668
        62  -9.0101     55.6781    145.3611   1.2874996925e+02   3.9204630760e+01    0.2197115    0.1491131  78.06  0.001101803    1.741    0.426
        63  -9.1410    149.1521    145.5739   1.0445705405e+02   2.2771014263e+01     0.373834    0.2279426  87.39  0.001134397    3.908    0.744
        64  -8.9957     13.5532    146.5735   1.3970990710e+02   4.3190774590e+01    0.1954732   0.09354714  43.44 0.0009234311    2.324    0.570
        65  -8.9085    106.8018    145.1595   1.1508411805e+02   3.1369318341e+01    0.2704217    0.1650088  79.95 0.0009554903    2.977    0.664
        66  -9.7010     24.3020    139.3007   1.3607620174e+02   4.3984846982e+01     0.325749    0.1652421  68.75  0.001443724    2.851    0.649
        67  -9.0551     39.7306    136.6254   1.3159281377e+02   4.3130478184e+01    0.1720064    0.1153205  46.22 0.0006334432    1.676    0.403
        68 -10.6875    249.1985    133.2102   8.1589419592e+01   4.0093387515e+00    0.4595356    0.1188986 -34.98  0.001247972    4.946    0.798
        69  -9.5818     83.5809    132.3938   1.1867058195e+02   3.8408242212e+01    0.3389599    0.2256927  75.49  0.001188392    2.157    0.536
        70  -8.4953    132.3143    131.9808   1.0545082812e+02   2.9463130254e+01    0.2591098    0.1261143 -66.84 0.0007046076    4.256    0.765
        71  -9.4277     13.3885    130.2616   1.3770477468e+02   4.6979313936e+01    0.3057117    0.1596768  73.34  0.001262551    2.673    0.626
        72  -9.5975     74.1556    130.3531   1.2088899254e+02   4.0331144070e+01    0.3019045    0.1567667  58.67  0.001146333    2.912    0.657
        73  -9.4406     99.8769    128.7236   1.1333072596e+02   3.6543737790e+01    0.3631716    0.2333236  79.35  0.001381566    2.659    0.624
        74 -10.8932     61.4998    125.9673   1.2360268119e+02   4.3126051084e+01    0.6428404    0.3031676  57.28  0.002320088    3.610    0.723
        75 -10.8003     45.4634    124.4134   1.2790917615e+02   4.5413890033e+01    0.7081097    0.3558429  64.80  0.002609291    3.918    0.745
        76 -10.3460     29.9126    124.2024   1.3229255082e+02   4.7020654779e+01    0.4310497    0.2261455  65.68  0.001869928    3.061    0.673
        77  -9.0071    142.7382    120.5991   1.0001489285e+02   2.9789933255e+01    0.2700082    0.1934773 -69.59 0.0007641881    1.731    0.422
        78  -9.5158     73.9811    121.5158   1.1906202020e+02   4.2456558603e+01    0.3223123    0.1262303  41.37  0.001223725    2.755    0.637
        79 -10.2752    248.7374    119.2365   7.8661654563e+01   6.5996991117e+00    0.2908553     0.166045 -21.98  0.001189547    2.622    0.619
        80  -9.5250      3.6630    118.2253   1.3869827669e+02   5.0384184960e+01    0.2332681    0.1548848  66.20  0.001425951    1.810    0.448
        81 -10.0933     80.5230    114.0785   1.1545044599e+02   4.3203250861e+01     0.486672    0.2918921  66.92  0.001899993    2.921    0.658
        82 -10.0319     95.0306    113.9403   1.1118159159e+02   4.0838307326e+01    0.7020746    0.2343964  43.72  0.002333062    3.205    0.688
        83 -10.6536     14.5116    110.7156   1.3451756872e+02   5.1358821019e+01    0.4484677    0.2608291  89.94  0.001932288    2.129    0.530
        84 -11.2450     47.6490    103.9920   1.2316009451e+02   4.9891529009e+01    0.9467595    0.4542498  54.96  0.003608174    3.826    0.739
        85 -11.0522     23.6442    103.4464   1.3051651322e+02   5.2301844258e+01    0.6314928    0.3485602  69.73  0.002756918    3.420    0.708
        86 -10.4035     68.4230    111.9801   1.1857173702e+02   4.5471086679e+01    0.4544296    0.1974854  50.08  0.001673054    3.286    0.696
        87 -10.2999    111.4272    100.6105   1.0303331778e+02   4.0734125730e+01     0.882621    0.3984582  60.56  0.002371515    5.255    0.810
        88  -9.3620     83.4409    101.2224   1.1138886009e+02   4.5638254364e+01    0.3055362    0.1718607  51.85  0.001298828    2.262    0.558
        89 -10.9067     66.2979     97.6861   1.1579743341e+02   4.8978420423e+01    0.7535976    0.3997433  46.02  0.003387381    2.293    0.564
        90  -9.2939     96.1200     98.2961   1.0681123366e+02   4.4114628432e+01    0.4051073    0.2086683  53.23  0.001576142    2.536    0.606
        91  -9.0793    100.6610     97.7106   1.0531931149e+02   4.3412789062e+01    0.2643331     0.205477  24.91 0.0007478969    1.411    0.291
        92  -9.6100      6.2509     92.9296   1.3403086914e+02   5.5812035246e+01    0.3064788    0.1449144  45.01   0.00155225    2.995    0.666
        93  -9.1046    124.9437     91.5220   9.6808463160e+01   3.9829854170e+01    0.3331311    0.2204984  80.75  0.001271712    2.711    0.631
        94 -10.6543     35.5473     90.6705   1.2407547079e+02   5.4072842347e+01    0.4084179    0.2559052 -85.90  0.001851742    2.599    0.615
        95 -10.4867     89.2541     88.3339   1.0611277724e+02   4.7411592854e+01    0.7966706    0.3093802  49.48  0.002720859    3.475    0.712
        96 -11.0814     50.7036     86.2778   1.1796560862e+02   5.3410274091e+01     0.715691    0.3720041  54.97  0.002841194    3.733    0.732
        97  -9.8547    107.0614     85.2256   9.9932395122e+01   4.4755831846e+01    0.5933616    0.3183292  63.35  0.002038589    3.502    0.714
        98 -10.1880     25.3602     81.5374   1.2541438806e+02   5.6905411410e+01    0.3959507    0.2399527  52.33  0.001866395    2.543    0.607
        99 -10.2813     75.7568     81.6998   1.0845269551e+02   5.0961604917e+01    0.3511314    0.2290761  48.83  0.001586764    1.857    0.461
       100  -9.3455      8.9728     81.1621   1.3092091715e+02   5.8143105512e+01    0.2101856    0.1526756  33.46 0.0009764628    1.745    0.427
       101  -9.9129     61.9371     77.5899   1.1182761712e+02   5.3781074825e+01    0.2641238    0.1737937 -64.73  0.001306472    2.023    0.506
       102  -8.4007    129.3180     76.6879   9.1368250285e+01   4.1710475953e+01    0.1480339    0.1183349 -83.49 0.0003826868    1.644    0.392
       103 -10.3286     84.4000     74.4102   1.0352774466e+02   5.0987990597e+01    0.5899017    0.3473476  60.13  0.002423375    2.924    0.658
       104  -9.8175     43.8689     73.9302   1.1703245641e+02   5.6706803777e+01    0.3039718    0.1553037  41.38  0.001479083    2.477    0.596
       105  -8.9096     10.0021     74.4985   1.2916544681e+02   5.9451423060e+01    0.1442723     0.112298   8.03 0.0003706803    1.505    0.336
       106  -9.0851    107.7776     73.0943   9.6094745479e+01   4.6913116769e+01    0.3736307    0.1665753  53.60  0.001383301    2.737    0.635
       107  -9.3597     96.4050     72.8517   9.9347014485e+01   4.9150954728e+01    0.2985083    0.2239307  86.67  0.001388667    2.293    0.564
       108 -10.9569     53.2884     71.2644   1.1296973940e+02   5.6139270857e+01    0.5203658    0.3370331  54.68  0.002608638    2.455    0.593
       109  -9.2518     17.6462     71.0791   1.2566405568e+02   5.9631859311e+01    0.2358511    0.1539116  39.75  0.001011085    2.027    0.507
       110 -10.4636     39.6930     65.7642   1.1623110841e+02   5.8742261131e+01    0.4918126    0.1918279  39.53  0.002141323    3.278    0.695
       111  -9.3285    112.7064     65.2228   9.2272790947e+01   4.7290317792e+01     0.430478    0.1922449  56.93  0.001568195    2.903    0.656
       112  -9.4081    101.7279     61.6701   9.4242966980e+01   5.0099911869e+01    0.3361023    0.2383592  85.37  0.001460847    2.748    0.636
       113 -10.7921     76.5071     61.0286   1.0185792827e+02   5.4718476092e+01    0.7678918    0.2812574  44.37  0.002985436    3.036    0.671
       114  -9.1030     90.6726     60.9794   9.7325689475e+01   5.2299034793e+01    0.2316629    0.1957407  67.70  0.001286086    1.579    0.367
       115  -9.8331     26.7048     60.5945   1.1957957577e+02   6.0957509339e+01    0.4049758    0.1568137  39.41  0.001791421    3.658    0.727
       116  -9.5807      8.2203     58.3125   1.2600733112e+02   6.2743697213e+01    0.2414688    0.1822148  78.95  0.001536036    2.230    0.552
       117  -9.1539    121.2337     57.2831   8.7510597248e+01   4.6769494854e+01    0.4157976    0.2087916  68.16  0.001384322    3.819    0.738
       118 -10.6498     64.9779     55.8759   1.0406372305e+02   5.7373970550e+01    0.4688646    0.2496628  43.07  0.002305155    2.143    0.533
       119 -10.2144     55.7192     55.9232   1.0735702726e+02   5.8650832178e+01     0.371546    0.2927825 -73.99  0.002096466    2.153    0.536
       120 -10.3714     46.1465     57.0304   1.1121150021e+02   5.9644198090e+01    0.3640952     0.183727  41.20  0.001802868    2.494    0.599
       121  -9.1372    108.0556     54.7305   9.0198604518e+01   4.9951912014e+01    0.3573344    0.1682038  61.17   0.00127777    3.355    0.702
       122  -9.7871    100.1883     53.7246   9.2092807107e+01   5.1682447745e+01    0.4198093    0.2882921 -59.60  0.001829435    2.157    0.536
       123 -10.0612     94.2453     52.2720   9.3356235134e+01   5.3049340556e+01    0.4313942    0.2645926  58.72  0.002024684    2.168    0.539
       124 -10.2337     33.3387     53.0700   1.1480638506e+02   6.1724417605e+01    0.4570239    0.2241092  42.03  0.002254678    2.944    0.660
       125  -9.5743     23.0228     53.9021   1.1906573455e+02   6.2506848928e+01    0.3536245    0.1428017  31.09  0.001782349    2.814    0.645
       126 -10.5348     84.1383     47.9246   9.4978360527e+01   5.5560087871e+01    0.4830703    0.2483414  49.22  0.002245059    2.160    0.537
       127  -9.6027     75.2754     48.6270   9.8091144539e+01   5.6960179711e+01    0.4014253     0.142184  39.50  0.001621734    2.790    0.642
       128  -9.0377    113.7099     48.0049   8.6479131270e+01   4.9780406337e+01    0.2675823    0.1766445  78.66  0.001164319    2.585    0.613
       129 -10.2598     47.0920     45.8624   1.0715708961e+02   6.1437753134e+01    0.4442853    0.2740947  33.55  0.002590803    1.738    0.425
       130  -9.0088    124.5413     47.3212   8.3530843483e+01   4.7525470863e+01    0.2575462    0.1198528  52.91  0.001083151    1.998    0.499
       131  -9.9080     19.3655     46.0860   1.1815976275e+02   6.4194790600e+01    0.4554067    0.1426189  31.53  0.002092037    3.592    0.722
       132 -10.3201     59.9079     43.9886   1.0176709762e+02   6.0036049848e+01    0.3847479    0.2680719  53.72  0.002123678    2.181    0.541
       133 -10.8327     71.8815     42.8884   9.7204473057e+01   5.8382904009e+01    0.5738018    0.3014332  51.57  0.002663982    2.588    0.614
       134  -9.9618    106.8132     42.5914   8.6512908574e+01   5.1982416712e+01    0.6220217    0.1992995  50.01  0.002297892    2.879    0.653
       135  -9.0799      5.4337     42.7832   1.2288681961e+02   6.5746047585e+01    0.2019256   0.09485783 -58.00  0.001118217    2.119    0.528
       136 -10.1640     38.4748     41.6966   1.0903730674e+02   6.3115589466e+01    0.3365985    0.1867091  37.80  0.001884846    2.157    0.536
       137 -10.0459     97.8216     39.4284   8.7918214328e+01   5.4220001881e+01    0.4044381    0.2482207  55.61  0.002043344    1.791    0.442
       138  -9.9970     82.9295     38.3793   9.1991129487e+01   5.7152012187e+01    0.3746594    0.2483539  53.75  0.002019361    1.800    0.444
       139  -9.7416    113.8483     36.3434   8.2589814615e+01   5.1329874486e+01    0.4010945    0.2353778  73.21   0.00170983    2.728    0.633
       140  -9.5138     27.0918     36.9982   1.1198826804e+02   6.5039270743e+01    0.1974551    0.1501474   4.25  0.001193203    1.241    0.194
       141  -9.2322    105.6643     35.5952   8.4443794732e+01   5.3142800110e+01    0.2249967    0.2062473  53.04   0.00124195    1.184    0.156
       142  -9.7130     90.7258     35.6114   8.8628710592e+01   5.6091779410e+01    0.2764978    0.1937417  44.74  0.001570905    1.361    0.265
       143  -9.2062    121.1983     34.1685   8.0092740876e+01   5.0003702687e+01    0.4055244    0.1717835  61.06  0.001615399    2.567    0.610
       144 -10.6302     62.7134     33.5901   9.6959222644e+01   6.1143183130e+01    0.4949293     0.229475  45.77  0.002377843    2.471    0.595
       145 -10.7267     51.7116     33.7878   1.0104696862e+02   6.2691971724e+01    0.4150091    0.1985588  40.47  0.002133489    2.279    0.561
       146 -10.4104     75.2612     32.6297   9.2338332392e+01   5.9255207531e+01    0.4926058    0.2087117  48.49  0.002207403    2.554    0.608
       147  -9.3712     13.4042     31.6079   1.1592141637e+02   6.7071943495e+01    0.2190342    0.1707803 -50.10  0.001487759    1.544    0.352
       148  -9.9622    103.3086     30.1420   8.3184251780e+01   5.4296371823e+01    0.3474572    0.1947899  53.04   0.00144301    1.689    0.408
       149  -9.3957     43.9877     30.6725   1.0283093179e+02   6.4138532615e+01    0.3520472    0.1281546  32.92  0.001646818    2.751    0.637
       150  -9.8995    195.7036    248.8783   1.1405148412e+02  -6.4706234643e+00    0.2604469    0.1288655  28.34  0.001225187    2.079    0.519
       151  -9.7585     84.2238     20.3939   8.4966115835e+01   5.9124984504e+01    0.2119949    0.1169459  59.41  0.001038048    2.299    0.565
       152 -10.7327     83.5307     28.9005   8.8348262036e+01   5.8272058667e+01    0.5682377    0.3300864  62.54  0.002661747    2.710    0.631
       153  -9.0372     77.2421     25.4226   8.8994906733e+01   5.9812723020e+01    0.1768589    0.1433327  34.19 0.0004689597    1.169    0.144
       154 -10.5573     93.9980     27.8000   8.4886911356e+01   5.6431571883e+01     0.435835    0.2906792  57.41  0.002402204    1.654    0.395
       155  -9.4035    111.6057     27.6804   8.0231881074e+01   5.2851485192e+01    0.2786114    0.1892477  65.53  0.001488182    1.645    0.392
       156  -9.9490    105.8512     23.6209   8.0262753064e+01   5.4514712954e+01    0.3160695    0.1494381  58.37   0.00144438    2.133    0.531
       157  -9.0035      3.9735     28.3014   1.1895795079e+02   6.8259630285e+01    0.1452132   0.06558448  39.87 0.0007031664    4.143    0.759
       158 -11.3360    174.4776    244.9448   1.1758041029e+02  -2.3251848662e+00    0.4295967    0.2823686  65.84  0.002143598    2.269    0.559
       159  -9.9511     59.0634     23.1843   9.4238112811e+01   6.3049613756e+01    0.3497391    0.2040225 -42.98  0.001176162    2.218    0.549
       160 -10.6821     51.2063     22.5589   9.6870915290e+01   6.4270468734e+01    0.5357972     0.210773  42.36  0.002569833    2.701    0.630
       161  -8.9053     44.0036     25.5113   1.0081952414e+02   6.4849646425e+01    0.1601561    0.1018423  26.66 0.0003796988    1.487    0.327
       162  -8.6331     20.4491     21.9867   1.0927930177e+02   6.7929383967e+01    0.1275831   0.09452654 -58.64  0.000639294    2.396    0.583
       163  -8.7924    123.2055     21.6068   7.5552590214e+01   5.0986874582e+01    0.1940999    0.1008176  48.48 0.0006086397    1.654    0.395
       164  -9.4097     12.9237     21.2386   1.1236220490e+02   6.8690958136e+01    0.1826716    0.1206264   5.82  0.001217861    1.404    0.288
       165  -8.7830    188.7739     20.0455   6.4178611001e+01   3.5692828464e+01    0.2018205    0.1440321  29.99  0.001077568    1.990    0.498
       166 -10.9127     90.2017     18.2889   8.2474402135e+01   5.8217800923e+01     0.555799    0.2268914  51.96   0.00255748    2.238    0.553
       167  -8.9787    107.4461    248.7669   1.3130413304e+02   8.2775180323e+00    0.1501989    0.1189637 -52.46 0.0008825605    1.573    0.364
       168  -9.7940    245.3633    247.7671   1.0463061724e+02  -1.3835924237e+01    0.3682939     0.161368  33.83  0.001901787    2.054    0.513
       169  -9.9410    237.7135    240.1728   1.0471182389e+02  -1.1730079253e+01    0.2904728    0.1825026  30.95  0.001619022    1.429    0.300
       170 -10.2751    107.6485    237.5358   1.2993324093e+02   1.0386854080e+01     0.446031    0.2396865  85.56  0.001815746    3.253    0.693
       171  -9.6435    160.6467    234.8007   1.1879703543e+02   1.7979197889e+00    0.1881899    0.1522143  34.74  0.000467912    1.127    0.112
       172 -10.6734    169.8917    232.3499   1.1653213213e+02   6.0254727081e-01    0.3166244    0.2474342  49.71 0.0009866841    1.234    0.190
       173  -9.7259     40.6528     19.0385   9.9543100902e+01   6.6116101662e+01    0.2414988    0.1439576  37.91  0.001484553    1.836    0.455
       174 -10.1866    109.4970     17.3499   7.7211383115e+01   5.4401269102e+01    0.2273506    0.1063278  56.00  0.001075745    1.890    0.471
       175  -9.7605     31.6199     17.0866   1.0246052632e+02   6.7444145973e+01    0.2888963    0.1437667  41.84  0.001578834    2.719    0.632
       176  -9.1709    236.5031    229.8980   1.0313339825e+02  -1.0093511874e+01    0.1823495    0.1144942 -32.97  0.001032239    1.588    0.370
       177  -8.4571    144.3390    229.2931   1.2130891871e+02   5.6961195230e+00    0.1318662    0.1046526  10.04 0.0003046476    1.649    0.394
       178  -9.1708    114.8472    228.3149   1.2728779963e+02   1.1018432780e+01     0.244645    0.1488078 -50.45  0.001239912    1.905    0.475
       179 -11.1621    164.3714    226.2385   1.1667958589e+02   2.6822497694e+00    0.5234016    0.3788908  31.18   0.00283754    1.339    0.253
       180 -10.9022     97.8895    226.9159   1.3060195996e+02   1.4106748054e+01    0.3923366     0.182825  32.83  0.001465491    2.605    0.616
       181 -10.2574    160.7879    227.5691   1.1763442935e+02   3.0812803735e+00    0.2640381    0.2327034  38.90  0.001208445    1.022    0.022
       182  -9.4141     88.3674    226.8079   1.3253243543e+02   1.5636918072e+01    0.1688518    0.1144859 -58.08 0.0004850926    1.628    0.386
       183 -11.2168    125.7985    221.0275   1.2397200939e+02   1.0604580097e+01    0.3889446    0.2925013  44.02 0.0007596159    1.219    0.180
       184 -10.4689    109.2836    222.2562   1.2763330305e+02   1.3195261177e+01    0.2664945    0.2143255  11.30  0.001453245    1.825    0.452
       185  -9.3622    157.8527    221.8354   1.1732143061e+02   4.6826421316e+00    0.2062284    0.1803348  20.90 0.0006080602    1.208    0.172
       186  -9.1038     20.4866    222.5124   1.4524165516e+02   2.5530366229e+01    0.1173597   0.08732249  81.13 0.0008103414    1.018    0.018
       187  -9.1083    148.7685    220.3046   1.1898852597e+02   6.6305007023e+00    0.2571685    0.1892539 -38.55 0.0009877697    1.603    0.376
       188  -9.3182    114.9929    221.0448   1.2626362363e+02   1.2477197039e+01    0.1934348    0.1685389  -1.52 0.0005173711    1.614    0.381
       189 -11.3234     99.6959    219.6445   1.2930223628e+02   1.5333876074e+01     0.434438    0.2671673  53.47  0.002241383    1.473    0.321
       190  -8.7687    175.9695    216.2425   1.1258812592e+02   2.4179063824e+00    0.1858341    0.1086504  41.14 0.0008722033    1.566    0.361
       191  -9.0627    143.6061    216.2820   1.1944399687e+02   8.3677813708e+00     0.184568    0.1325412 -41.93 0.0009463973    1.610    0.379
       192 -10.0154    131.3105    215.2343   1.2192190953e+02   1.0811630580e+01    0.3093328    0.2353356 -84.69  0.001638401    1.529    0.346
       193  -9.9554    112.5167    214.4659   1.2586130239e+02   1.4282826709e+01    0.2856936    0.2122186 -15.92  0.001368755    2.371    0.578
