#   1 NUMBER                 Running object number                                     
#   2 MAG_AUTO               Kron-like elliptical aperture magnitude                    [mag]
#   3 X_IMAGE                Object position along x                                    [pixel]
#   4 Y_IMAGE                Object position along y                                    [pixel]
#   5 X_WORLD                Barycenter position along world x axis                     [deg]
#   6 Y_WORLD                Barycenter position along world y axis                     [deg]
#   7 A_WORLD                Profile RMS along major axis (world units)                 [deg]
#   8 B_WORLD                Profile RMS along minor axis (world units)                 [deg]
#   9 THETA_WORLD            Position angle (CCW/world-x)                               [deg]
#  10 FWHM_WORLD             FWHM assuming a gaussian core                              [deg]
#  11 ELONGATION             A_IMAGE/B_IMAGE                                           
#  12 ELLIPTICITY            1 - B_IMAGE/A_IMAGE                                       
         1 -14.8766    165.4425     49.9383   6.9789641512e+01   3.7699941755e+01     1.248758    0.9537775  -3.33  0.003863179    1.516    0.340
         2 -15.0279    180.7188     20.4987   5.7321440448e+01   3.7574433735e+01    0.9634652    0.9403625  -6.86  0.004415969    1.043    0.042
         3 -15.5085    142.8793    175.5456   1.0522024076e+02   1.9962474966e+01    0.7240636    0.6168383 -52.88  0.004435004    1.332    0.250
         4 -11.5217    114.8386    250.4229   1.1880157118e+02   1.3051206145e+01     0.126098   0.09330618  48.93 0.0005140695    1.128    0.114
         5 -19.8746     71.1910    165.8562   1.1847661476e+02   3.3040363371e+01     14.33746     5.049975 -68.95   0.06367869    2.902    0.655
         6 -15.2280    138.8539    168.7871   1.0494584197e+02   2.1845276018e+01    0.9087957    0.3843429  36.44  0.002180955    2.712    0.631
         7 -13.9001    186.9370    175.1494   9.6845774765e+01   1.2022155453e+01    0.3757185    0.3357064  40.43 0.0009035631    1.068    0.063
         8 -13.4400    185.5102    169.9977   9.6187417118e+01   1.3049030835e+01    0.3223283    0.2623518 -45.78  0.001504607    1.425    0.298
         9 -13.9150    150.1299    173.2424   1.0344294086e+02   1.9062844866e+01     0.436704    0.2787755  78.68  0.001551165    2.557    0.609
        10 -11.9411     26.0545    172.1687   1.2815891371e+02   3.6992367335e+01     0.236703    0.1525365  55.23 0.0008285034    1.336    0.252
        11 -11.3515     18.2516    173.3069   1.2973129101e+02   3.7518090980e+01    0.1439331    0.1252443  55.94 0.0008442127    1.405    0.288
        12 -13.7262    176.6400    170.0408   9.7837664366e+01   1.4704485978e+01    0.3322186    0.2396671 -20.00  0.001844654    1.754    0.430
        13 -12.5001    193.3489    170.4570   9.4846477403e+01   1.1513698101e+01    0.2227868    0.1996212   2.06 0.0006868991    1.151    0.131
        14 -11.9958     33.9245    169.3516   1.2641157754e+02   3.6747713810e+01    0.2288932    0.1674459  62.98    0.0009443    1.163    0.140
        15 -12.6239    139.9507    218.4890   1.1153742100e+02   1.3734850553e+01    0.3932211    0.1929209 -63.19   0.00140303    2.970    0.663
        16 -12.0148    187.8186    163.8263   9.4625720372e+01   1.3541688217e+01     0.173642    0.1580946  79.17 0.0008046739    1.332    0.249
        17 -14.7958    135.9155    128.6147   9.8145749512e+01   2.9956908172e+01     1.742524    0.3190409 -50.88   0.00405767    7.106    0.859
        18 -11.6138     17.9390    154.3470   1.2854961552e+02   4.1288828219e+01    0.2509317    0.1310618 -89.54  0.001306954    1.562    0.360
        19 -12.2216    151.9905    218.6786   1.0949953501e+02   1.1819703175e+01     0.186046    0.1630391  85.87  0.001009075    1.351    0.260
        20 -15.3350    148.0002    148.6102   9.9545105277e+01   2.3791145590e+01     1.097611    0.6165316  72.99  0.003991098    3.655    0.726
        21 -12.3194    188.1897    153.2066   9.2500404255e+01   1.5106637901e+01    0.1837442    0.1641932  82.09  0.001086776    1.374    0.272
        22  99.0000     24.5207    215.4862   1.3089235923e+02   2.9339648144e+01   0.09940593   0.06957711  69.61 0.0004390678    1.043    0.041
        23 -12.9881    161.6807    149.3705   9.6891000847e+01   2.0992699121e+01    0.2826316    0.2175576  86.34 0.0008719941    1.727    0.421
        24 -12.4290    207.6775    223.5548   1.0093902099e+02   2.3832056516e+00    0.1800292    0.1378796 -31.51 0.0009318936    1.632    0.387
        25 -11.1075      7.4150    149.7182   1.3042914292e+02   4.3119080725e+01      0.18705    0.1248939 -45.27 0.0006786224    2.260    0.557
        26 -12.5254    174.7148    149.1315   9.4259206125e+01   1.8447570414e+01    0.2439262    0.1821964  56.51 0.0007982762    1.368    0.269
        27 -11.3064    135.7304    237.4655   1.1429358597e+02   1.1779178639e+01    0.2314998    0.2135582 -65.85  0.001612158    1.431    0.301
        28 -12.1306     11.3716    206.1436   1.3261391201e+02   3.2192132434e+01    0.2396012    0.1572202  51.66  0.001819993    1.346    0.257
        29 -12.5261    117.1947    233.6078   1.1694263405e+02   1.4993331406e+01    0.1770548    0.1525105 -77.31 0.0008039872    1.416    0.294
        30 -13.1828    160.4138    128.0409   9.2695067299e+01   2.5084778666e+01    0.3667187    0.2715288 -58.80  0.001850813    1.536    0.349
        31 -11.6771    133.0697    195.0280   1.0987441579e+02   1.8391614543e+01    0.1836606    0.1497941  56.18 0.0004156722    1.028    0.027
        32 -11.2298     23.0064    156.0732   1.2762272568e+02   4.0475930954e+01    0.1683847    0.1263133  79.77 0.0005092803    1.020    0.019
        33 -12.0548    101.6033    242.9997   1.2027122748e+02   1.5848324135e+01    0.1847316    0.1359602  83.29  0.001472271    1.412    0.292
        34 -12.3827    168.3106    113.3268   8.7594412839e+01   2.6073991114e+01    0.3789646    0.2903772 -80.23 0.0009318583    1.767    0.434
        35 -15.4172    133.7356    145.6701   1.0201178691e+02   2.7042905345e+01     1.435995    0.4798889 -58.28  0.004429071    4.724    0.788
        36 -12.9446    114.1286    116.9489   1.0074095216e+02   3.6494364633e+01    0.2802257    0.1995309 -62.23 0.0007307598    1.415    0.293
        37 -10.9719    231.1583    113.8379   7.6223194426e+01   1.2127482081e+01    0.2007499    0.1894384 -32.38 0.0007618472    1.167    0.143
        38 -11.2173    205.7998    110.1914   7.9597943234e+01   1.8197640687e+01    0.2043213    0.1649799  17.94 0.0005709592    1.315    0.240
        39 -11.5416    150.6130    229.7993   1.1103648910e+02   1.0549164799e+01    0.2246547    0.1902394 -68.27  0.001751025    1.519    0.342
        40 -11.1570    127.2075    227.9319   1.1472765847e+02   1.4333289413e+01    0.2393896    0.1561441  35.07  0.001591614    1.576    0.366
        41 -12.6449     30.6219    182.4581   1.2797885890e+02   3.4569668893e+01    0.2398892    0.1666174  65.02 0.0006608978    1.126    0.112
        42 -13.7002    153.6336     63.4994   7.6655894607e+01   3.8478426168e+01    0.4398502    0.4003046  54.35 0.0008803949    1.124    0.110
        43 -11.7361     28.0096    179.6830   1.2828596554e+02   3.5358350125e+01    0.2119589    0.1784918   3.70  0.001448643    2.159    0.537
        44 -12.8942    162.8500    181.0712   1.0228117817e+02   1.5511287953e+01    0.1958588     0.163815  67.14 0.0009551906    1.284    0.221
        45 -14.8541    125.6079    172.1406   1.0811831150e+02   2.3544630929e+01    0.7134651    0.4713449  50.32   0.00250209    1.337    0.252
        46 -13.1992    170.5043     41.4771   6.6024085817e+01   3.7623916975e+01    0.4331926    0.4006355  -6.63 0.0008399784    1.101    0.092
