#   1 NUMBER                 Running object number                                     
#   2 MAG_AUTO               Kron-like elliptical aperture magnitude                    [mag]
#   3 X_IMAGE                Object position along x                                    [pixel]
#   4 Y_IMAGE                Object position along y                                    [pixel]
#   5 X_WORLD                Barycenter position along world x axis                     [deg]
#   6 Y_WORLD                Barycenter position along world y axis                     [deg]
#   7 A_WORLD                Profile RMS along major axis (world units)                 [deg]
#   8 B_WORLD                Profile RMS along minor axis (world units)                 [deg]
#   9 THETA_WORLD            Position angle (CCW/world-x)                               [deg]
#  10 FWHM_WORLD             FWHM assuming a gaussian core                              [deg]
#  11 ELONGATION             A_IMAGE/B_IMAGE                                           
#  12 ELLIPTICITY            1 - B_IMAGE/A_IMAGE                                       
         1 -13.8008    226.5252     11.9945   3.9400282788e+01   2.7415999379e+01    0.9182761    0.8754022  26.48  0.002839119    1.340    0.253
         2 -14.2978    211.3361     27.7757   4.4919151890e+01   2.9188387996e+01     2.508164     1.494597  27.39   0.01056613    2.877    0.652
         3 -11.2486      2.0095      4.6925   9.7122954871e+01   7.3675126394e+01    0.5172222    0.1026617 -50.28  0.002044034    4.076    0.755
         4 -10.1241     49.1908      3.1860   7.2048134684e+01   6.8686013852e+01    0.1517439    0.1366934 -12.39 0.0005702493    1.353    0.261
         5  -9.8389     43.7538      1.3796   7.3431233334e+01   6.9705306970e+01     0.161071   0.09421021  26.98 0.0004914993    1.593    0.372
         6 -11.2985    192.7840    193.5875   8.8632440617e+01   4.8237835485e+00    0.6317024    0.4011827 -63.03  0.002821856    2.731    0.634
         7 -15.5551     95.4835    245.0278   1.1499403620e+02   1.2003774512e+01     8.342742     2.081696  36.94   0.02648312    4.046    0.753
         8 -11.3232     76.5188    234.0813   1.1747567611e+02   1.6579201753e+01    0.2555551    0.1706969  77.67 0.0009205927    1.413    0.292
         9 -11.9724     61.7872    181.9519   1.1529046316e+02   2.9176693161e+01    0.4014472     0.284728 -38.08  0.001823333    2.084    0.520
        10 -11.8348     66.9938    176.2520   1.1345142757e+02   2.9777356491e+01    0.2758156    0.2354827 -62.58 0.0005888062    1.275    0.216
        11 -11.0381     48.9709    180.6756   1.1797275625e+02   3.1045072315e+01    0.2276594    0.1853758 -72.47  0.001050218    1.230    0.187
        12 -13.3541     47.2185    222.5074   1.2194427881e+02   2.2509995729e+01    0.8774071    0.4752344 -89.33  0.005210749    1.751    0.429
        13  -8.9625     99.5014    180.5617   1.0660074918e+02   2.4025432686e+01    0.1366603    0.1222793  72.18 0.0001597584    1.008    0.008
        14 -11.0045     40.1979    177.5554   1.1957988372e+02   3.2744430926e+01    0.2418889    0.1689311 -61.55 0.0007790624    1.479    0.324
        15  -8.4756    168.6556    177.3397   9.0542815762e+01   1.2254829476e+01    0.1455768    0.1137795  79.70 -9.293607e-05    1.779    0.438
        16 -10.3460    129.1662    173.8279   9.8689891784e+01   2.0414453467e+01     0.197571    0.1768579  -4.27  0.001091482    1.360    0.265
        17 -13.2155     57.3673    129.6962   1.0920472618e+02   4.2072704543e+01     1.863727    0.6398594 -75.72  0.004770932    6.245    0.840
        18 -13.7676     81.4513    158.8258   1.0760131302e+02   3.1786261074e+01     2.938215     1.075433  56.05  0.001829469    4.435    0.775
        19 -14.3701      4.4353    183.2671   1.2743830818e+02   3.4938295935e+01     3.159677    0.5157959 -79.24   0.01016156    5.637    0.823
        20  -9.4336    174.8199    149.1727   8.3335814781e+01   1.6600212542e+01    0.2087571    0.1772422   2.58 0.0004452829    1.311    0.237
        21 -10.6452    134.0000    146.4658   9.2218078943e+01   2.5544268967e+01    0.6213143    0.1822553 -53.68  0.001770659    3.939    0.746
        22 -10.2904    194.2894    168.0261   8.3304275751e+01   9.0344860735e+00    0.3272035    0.2901452 -15.39  0.001501601    1.105    0.095
        23 -13.3788     68.2118    144.3345   1.0868090437e+02   3.7123582088e+01    0.9236911    0.5818942  89.02  0.002912635    1.840    0.456
        24 -10.8542     98.0325    144.3133   1.0088448587e+02   3.2626305885e+01    0.2978024     0.269937  50.40 0.0008442667    1.141    0.124
        25  -9.7508    101.1822    140.9581   9.9411198783e+01   3.2893508715e+01    0.3604249    0.2392583 -27.28  0.001545847    2.241    0.554
        26 -12.1939     86.2291    143.1319   1.0374957336e+02   3.4807572796e+01    0.2905707    0.2681374 -50.29 0.0004982863    1.170    0.145
        27  -9.9293     81.5276    141.5504   1.0470533832e+02   3.5904237444e+01    0.2773124    0.1800373  73.62 0.0001852163    1.934    0.483
        28 -10.8552     32.4173    144.2865   1.1787824761e+02   4.1256857215e+01    0.2990474    0.1488272  48.57  0.001512251    2.098    0.523
        29 -13.5022     64.1367    162.1768   1.1231847196e+02   3.3407373529e+01    0.5413567    0.3480893 -46.48  0.002569993    1.842    0.457
        30 -10.6774    107.6832    131.7866   9.5785781160e+01   3.3933207325e+01    0.5363747    0.3423132  53.19  0.002403522    1.710    0.415
        31  -8.8958     38.2947    133.6736   1.1501114787e+02   4.3220064703e+01    0.1333868   0.08721666  76.15 0.0004525151    1.625    0.385
        32 -10.9898     27.9954    156.5218   1.2027757225e+02   3.8805805644e+01    0.1954812     0.138571 -81.51 0.0005226245    1.143    0.125
        33 -10.8286     96.5264    128.6778   9.8137596523e+01   3.6624037601e+01    0.2789304    0.2497988 -27.05  0.000571956    1.271    0.213
        34 -10.0153    116.1807    126.1086   9.2239530351e+01   3.3694414423e+01    0.3502001    0.2526407 -70.54  0.001600448    1.593    0.372
        35 -10.5623     44.9648    123.7358   1.1170484526e+02   4.4938286712e+01     0.187629    0.1657748 -79.36  0.001177345    1.059    0.056
        36  -9.6288    106.4778    120.4165   9.3544137937e+01   3.6844943805e+01    0.2327242    0.2224928   8.91 0.0008941562    1.155    0.134
        37  -8.9880    164.1871    205.9048   9.6557429210e+01   7.8077785940e+00    0.1732122     0.147365   6.22 0.0003876852    1.293    0.227
        38 -10.0685    168.0113    113.2614   7.6134502425e+01   2.5475703915e+01    0.3647683    0.2640498 -71.35  0.001363316    1.874    0.466
        39  -9.9316    135.0000    112.9736   8.4037763628e+01   3.2890906674e+01    0.2652733   0.08771377 -45.54 0.0008031207    2.947    0.661
        40 -11.4065     76.7829    166.0863   1.0981774410e+02   3.0763652927e+01    0.2701519    0.2308051 -68.97 0.0003703028    1.151    0.132
        41  -9.8156    205.3439    110.4306   6.7717358172e+01   1.7475066918e+01    0.3057889    0.2314258  47.64 0.0009973478    1.391    0.281
        42  -9.4310     72.3661     83.3234   9.4407201796e+01   5.1137788371e+01    0.2313873    0.1619117  55.22 0.0007234601    1.835    0.455
        43  -9.2417     24.9633     82.5673   1.1057764551e+02   5.6574703329e+01    0.1544073    0.1259253  13.43 0.0003447617    1.504    0.335
        44 -10.9728      2.1821     80.5684   1.1804477170e+02   5.8441475057e+01    0.2335773     0.122235 -79.72  0.001269213    1.757    0.431
        45  -9.4735    159.6725     80.6951   6.8906109991e+01   3.3910376630e+01    0.1602439    0.1234991  14.62 0.0003110692    1.649    0.394
        46  -9.4385     47.7503     62.2299   9.7062516346e+01   5.8953928698e+01    0.1823023     0.162477 -55.44 0.0007357071    1.199    0.166
        47 -10.5315     13.4090     60.1562   1.0998488875e+02   6.2378648128e+01     0.195426    0.1731027 -65.08 0.0003983321    1.202    0.168
        48 -15.9268      8.5167    239.5932   1.2955049279e+02   2.3507919965e+01     7.808915     1.608269 -79.03   0.03408478    4.349    0.770
        49 -12.8876    199.9599     37.0146   4.8838222769e+01   3.0808264006e+01     0.695467    0.5460558  47.70  0.001916136    1.387    0.279
        50 -14.4574      9.4139    207.3844   1.2786659103e+02   2.9518990105e+01     1.023516    0.9168825  20.68  0.003881336    1.753    0.429
        51 -10.8131    142.3009     47.6644   6.2336122412e+01   4.3831815433e+01    0.2950518    0.2204569 -66.74 0.0009840637    1.699    0.411
        52 -11.5030    137.9158     44.3122   6.2187061598e+01   4.5404497502e+01    0.5739012    0.3771685 -78.12  0.001999348    2.535    0.606
        53 -10.8830    144.3822     41.5625   5.9810227831e+01   4.4223489638e+01    0.4995405    0.2830633 -79.01  0.001559096    4.298    0.767
        54  -9.5295     95.1774     41.8599   7.2800999290e+01   5.5310508078e+01    0.2772791     0.149482 -45.43  0.001204552    2.103    0.525
        55 -10.1394      3.5231     38.3824   1.0861267516e+02   6.7460732890e+01    0.2279355    0.1487894  57.70  0.001326977    2.634    0.620
        56  -9.7893    189.4130     15.2730   4.4122876977e+01   3.6090012560e+01    0.1868045    0.1191141 -42.28 0.0006833572    1.555    0.357
        57 -13.4258     34.4122    210.5506   1.2346427225e+02   2.6345954689e+01    0.6303288    0.4747861 -40.12  0.003657941    2.219    0.549
        58 -15.8912     44.1571    200.1439   1.2077619778e+02   2.7387054569e+01     7.873784     2.904054  75.17   0.02639761    5.125    0.805
