#   1 NUMBER                 Running object number                                     
#   2 MAG_AUTO               Kron-like elliptical aperture magnitude                    [mag]
#   3 X_IMAGE                Object position along x                                    [pixel]
#   4 Y_IMAGE                Object position along y                                    [pixel]
#   5 X_WORLD                Barycenter position along world x axis                     [deg]
#   6 Y_WORLD                Barycenter position along world y axis                     [deg]
#   7 A_WORLD                Profile RMS along major axis (world units)                 [deg]
#   8 B_WORLD                Profile RMS along minor axis (world units)                 [deg]
#   9 THETA_WORLD            Position angle (CCW/world-x)                               [deg]
#  10 FWHM_WORLD             FWHM assuming a gaussian core                              [deg]
#  11 ELONGATION             A_IMAGE/B_IMAGE                                           
#  12 ELLIPTICITY            1 - B_IMAGE/A_IMAGE                                       
         1  -8.9481     46.0320     21.3087   1.0100452656e+02   6.5329325263e+01    0.3851255    0.1454254 -32.87  0.001600783    2.467    0.595
         2 -11.6309     80.1059     23.4346   9.0014989536e+01   5.9827040256e+01    0.6905771    0.2508658  37.47  0.002905477    2.754    0.637
         3  -9.3775     28.3619     21.8059   1.0836974958e+02   6.7310793913e+01    0.6077354    0.2977857 -11.93  0.002896418    2.787    0.641
         4  -9.2157     79.3760     12.9571   8.6127165881e+01   6.1102042682e+01    0.4213761    0.2243904  37.43  0.002300972    1.655    0.396
         5  -9.2014     74.4623     13.4979   8.7841792413e+01   6.1913785323e+01    0.3385538       0.2042  18.82  0.001405344    1.702    0.413
         6  -8.6974    231.4792     15.0693   6.0585069811e+01   2.6274962943e+01    0.2819526    0.2017023 -33.35  0.001547445    1.620    0.383
         7  -9.5159     64.4758     13.9881   9.1280594373e+01   6.3526375588e+01    0.3510583    0.2115067  10.81  0.001323282    1.774    0.436
         8  -8.3127     96.1424     13.9498   8.1827742071e+01   5.7830118993e+01    0.3244253    0.1726832   7.11  0.001475042    2.721    0.633
         9  -9.3661    133.9906     13.7002   7.3284673227e+01   4.9684301524e+01     0.256313    0.1902376  42.45 0.0003324174    1.246    0.197
        10  -9.2414     31.8579     10.9860   1.0236855607e+02   6.8356005566e+01    0.3192467    0.1539534  18.20 0.0004201363    2.290    0.563
        11  -8.6774    125.0204     10.4534   7.3975456349e+01   5.2026320808e+01    0.2159327    0.1623731  24.28 0.0004712229    1.397    0.284
        12  -8.0626    156.0279      7.6377   6.7700963198e+01   4.5065644211e+01     0.274966    0.1368614 -23.79  0.001320457    2.377    0.579
        13  -9.8542    130.8482      6.9006   7.1693203684e+01   5.1023756436e+01    0.3392906    0.2882003 -21.56 0.0006124461    1.352    0.260
        14  -7.8720    134.0518      3.0388   6.9886011157e+01   5.0617134939e+01    0.1917628    0.1454289  43.94 0.0003093036    1.205    0.170
        15  -9.7104     46.6224      6.5342   9.4477536260e+01   6.6992272879e+01    0.2809264    0.1752126  23.77 0.0001586376    1.401    0.286
        16  -8.7466     41.2163      6.0866   9.6372113393e+01   6.7770735754e+01    0.3397261    0.1760484  -5.54  0.001636352    2.280    0.561
        17 -10.1000      8.1194      5.2291   1.1055787475e+02   7.1399292863e+01    0.4721452    0.2070283   6.66  0.002517979    2.996    0.666
        18  -9.1956    119.2248      6.8459   7.3936803145e+01   5.3632165004e+01    0.2165173    0.1732391  41.78 0.0002428481    1.090    0.083
        19  -8.1053    100.8240      6.4659   7.7876305913e+01   5.7575042932e+01    0.2313523     0.143702  14.59  0.000808536    1.811    0.448
        20  -9.1346     76.5381      5.8553   8.4111443589e+01   6.2290835695e+01     0.321674     0.253067 -39.08  0.002133087    1.666    0.400
        21  -8.7165     32.0566      6.0608   1.0009944404e+02   6.8914670297e+01    0.1640593    0.1228518  -0.28 0.0003888394    1.018    0.018
        22  -8.9574    110.4297      3.0737   7.4474200039e+01   5.5850566883e+01    0.3540878     0.231035 -41.14  0.001647345    1.902    0.474
        23  -8.2826    105.4859      1.5094   7.4994919061e+01   5.7018626495e+01    0.3219376    0.1331445  44.72  0.001295496    2.008    0.502
        24  -8.2132     91.6278      4.7439   7.9509708822e+01   5.9562002513e+01    0.2053271   0.06677224  47.45 0.0008930034    2.420    0.587
        25  -8.3756    153.7840      3.3786   6.6810905736e+01   4.5978688275e+01    0.1904718   0.09453661  56.99 0.0004453551    1.663    0.399
        26  -8.1680     56.5105      3.0416   8.9340455854e+01   6.5890125633e+01    0.2298169    0.1276946  28.12  0.001346665    1.594    0.373
        27  -8.1369    143.1792      2.1582   6.8086912517e+01   4.8578264764e+01    0.1808441    0.1472135  53.55 0.0003317553    1.083    0.077
        28  -8.0873    175.8829      2.6703   6.3619622683e+01   4.0750519487e+01     0.187138    0.1710337   5.83  0.000730432    1.388    0.279
        29  -7.9810      3.2548      1.5174   1.1128993651e+02   7.2258760010e+01    0.1608163   0.08559956  23.13 0.0006583851    1.938    0.484
        30  -7.6415     76.4953    106.9743   1.1763215102e+02   4.5548171615e+01    0.1967787    0.1057592 -34.37 0.0004333366    2.295    0.564
        31  -9.2583    218.5875    250.2259   1.1290211112e+02  -9.6976126414e+00    0.2278717    0.1315688  45.01  0.001267109    1.709    0.415
        32 -10.4849    196.6724    249.4861   1.1682776655e+02  -6.0648393831e+00    0.5939193    0.1844572  37.08  0.002328882    2.942    0.660
        33  -9.1592     14.1392    105.6493   1.3590105052e+02   5.2570385633e+01    0.2897371    0.1461222 -36.25  0.001491673    2.258    0.557
        34  -8.4484     65.6733    105.6655   1.2054534814e+02   4.7375616794e+01     0.200993    0.1253769  -1.91 0.0005199042    2.790    0.642
        35  -7.7330     94.1100    103.3263   1.1156110834e+02   4.3519928891e+01    0.2704997    0.1360199  31.48  0.001071789    2.410    0.585
        36  -9.5485    247.2956    101.6165   7.7866189335e+01   9.7814285318e+00    0.3393258    0.1810105 -58.29  0.001430721    2.193    0.544
        37  -6.9953    140.3362     99.3174   9.7981343676e+01   3.5065227727e+01    0.1582098    0.1242174   6.94 0.0004712376    1.699    0.412
        38  -7.5426    130.1825     96.6520   9.9816615795e+01   3.7859226446e+01    0.2184238    0.1394274  37.26 0.0006426698    1.695    0.410
        39  -8.9167     21.2124     90.2085   1.3095994284e+02   5.5420476294e+01    0.5780072    0.1412002 -40.40  0.001757176    5.825    0.828
        40  -9.8553     16.0381     95.0384   1.3350121415e+02   5.4757698286e+01    0.3327389    0.2479079 -88.93  0.001153301    1.527    0.345
        41  -9.1930     12.4859     93.5274   1.3431803592e+02   5.5325020840e+01    0.2684245    0.1503855 -59.73 0.0007669344    1.361    0.265
        42  -7.5184     83.1478     93.6051   1.1223588501e+02   4.7453689283e+01    0.1906321    0.1336075  20.38 0.0009378868    1.713    0.416
        43  -8.5420     43.7514     92.4277   1.2425966900e+02   5.2916220199e+01    0.2867875    0.1698161 -28.22   0.00144974    2.009    0.502
        44  -7.3344     56.3373     92.3025   1.2022909142e+02   5.1516699322e+01    0.1364368   0.09249879 -26.06 0.0003714206    1.666    0.400
        45  -7.9293    109.8371     90.7335   1.0363167284e+02   4.3287213463e+01    0.2394123    0.1867765  18.92  0.001182899    1.497    0.332
        46  -8.1698     96.8163     90.1972   1.0721697162e+02   4.5846627602e+01     0.428017    0.2267438  22.74  0.001567129    3.084    0.676
        47 -10.3715     37.2224     81.2686   1.2374507761e+02   5.5937635875e+01    0.6495859    0.3333551 -16.40  0.002763031    3.372    0.703
        48  -7.8119    126.6594     83.7947   9.7061832981e+01   4.1185064677e+01    0.2104557    0.1872701  35.82 0.0008377397    1.133    0.117
        49  -7.8696     66.1734     84.6229   1.1509637786e+02   5.1865886300e+01    0.1777226    0.1262365  16.71 0.0007281326    1.644    0.392
        50  -7.1949     21.2969     84.3671   1.2972804839e+02   5.6653785256e+01     0.130661   0.06965989 -39.37 0.0007030878    1.726    0.420
        51  -8.8531     87.9121     79.1321   1.0668604493e+02   4.9635096100e+01    0.4026375    0.2461175  15.94  0.001500032    2.383    0.580
        52  -9.6528      8.2365     77.3443   1.3258288876e+02   5.8991645578e+01    0.4398622    0.1906068 -33.64  0.001574382    2.463    0.594
        53  -7.7819    184.0525     78.0582   8.2567486613e+01   2.8648901055e+01    0.2271477    0.1826176  21.07 0.0005927043    1.621    0.383
        54  -8.8985     47.9407     77.8779   1.1927746675e+02   5.5520234321e+01    0.3168392    0.1846575  -7.32  0.001473752    2.643    0.622
        55  -7.2295    147.5206     77.4115   9.0047945541e+01   3.7643753461e+01    0.1504648    0.1425966  81.43 0.0001380312    1.078    0.072
        56 -10.0386     36.9967     59.2922   1.1789933095e+02   6.0294718322e+01    0.8713511    0.4117967 -20.26  0.003617796    3.466    0.712
        57  -9.4049     29.3419     68.3463   1.2319388832e+02   5.9272726425e+01    0.3120787    0.1768351 -19.62   0.00166409    2.134    0.531
        58  -9.2166     23.8584     73.9674   1.2652296274e+02   5.8603984047e+01    0.4400315    0.1514794 -40.37  0.001922433    2.719    0.632
        59  -8.4615     24.1312     69.9634   1.2545059366e+02   5.9385958870e+01    0.3436089    0.2337506  50.10  0.001858542    2.139    0.533
        60  -7.6791     74.9745     74.4099   1.0934253953e+02   5.2642014999e+01    0.1882038    0.1297402  32.67 0.0004821463    1.538    0.350
        61  -8.1421    105.3374     68.5600   9.8259299078e+01   4.8424479279e+01    0.4016179    0.2042451 -25.49  0.001546566    2.662    0.624
        62  -7.5776    128.9926     69.4834   9.2173327538e+01   4.3299211728e+01    0.2156291    0.1180283  30.06 0.0008096633    2.533    0.605
        63  -7.5085    116.3470     68.9651   9.5322375757e+01   4.6120208646e+01    0.2365081    0.1192935 -17.79 0.0007046188    4.375    0.771
        64  -8.6994     83.9360     63.9216   1.0321547338e+02   5.3156354619e+01    0.3368085    0.2244446   8.86  0.001304629    1.948    0.487
        65  -9.4081    240.4511     63.7118   7.0296650159e+01   1.7550620672e+01    0.2400261     0.227463  80.59 0.0002663921    1.201    0.168
        66  -7.8112    148.2352     63.7403   8.5863907747e+01   3.9827387556e+01    0.2220313    0.1252091 -21.77 0.0007051351    2.392    0.582
        67  -8.8446     16.1972     64.2285   1.2685533882e+02   6.1106266019e+01     0.221933     0.127398 -29.48  0.001321783    1.687    0.407
        68  -9.6707     62.4980     61.3643   1.0946212170e+02   5.6894702965e+01    0.7506099    0.2634416  27.51  0.002674706    4.091    0.756
        69  -8.9593    245.0657     59.8646   6.8881252843e+01   1.7115518391e+01    0.2160729    0.1593016 -70.58 0.0005466031    1.268    0.211
        70  -8.5380     98.0130     56.1787   9.6370949055e+01   5.1950548175e+01     0.298974    0.1915743  19.97  0.001412613    1.926    0.481
        71  -9.0295     27.3111     60.0847   1.2169342252e+02   6.1041927434e+01    0.1960785    0.1466222  -8.21 0.0009427307    1.379    0.275
        72  -7.7021    111.5005     58.0235   9.3154321319e+01   4.8977601058e+01    0.1932341    0.1208797  -7.51 0.0005932904    2.393    0.582
        73  -7.7489     49.5233     58.5076   1.1311210069e+02   5.9072652253e+01    0.1251749    0.1051197 -25.39 7.131466e-05    1.013    0.012
        74  -8.0708     72.2395     54.0054   1.0373703471e+02   5.6757183686e+01    0.1859473    0.1576006 -22.01 0.0008071408    1.072    0.067
        75  -9.9222     75.0964     50.2391   1.0149809236e+02   5.6927460337e+01    0.2810508    0.2106216  12.96 0.0002771027    1.355    0.262
        76  -8.1118    118.3912     51.0981   8.9059925999e+01   4.8606847013e+01    0.2295023    0.1746172  36.81 0.0005146603    1.268    0.211
        77  -8.0711    106.5971     48.9006   9.1476196629e+01   5.1401275161e+01    0.2918148    0.1533105  20.65   0.00104159    3.480    0.713
        78  -8.8330     46.0311     48.6772   1.1119491845e+02   6.1210450612e+01    0.2832907    0.1888542  10.40  0.001215292    1.607    0.378
        79  -7.4647     91.3015     48.3628   9.5716549572e+01   5.4437167715e+01     0.140492   0.09719508   4.20 0.0007035989    1.726    0.421
        80  -7.9546     53.6124     47.5639   1.0802779886e+02   6.0467246646e+01    0.2611741   0.08648594 -33.26 0.0009519021    3.605    0.723
        81  -9.5721     11.3570     46.2769   1.2387361947e+02   6.4788403952e+01    0.5369388    0.2795813  -6.35  0.002380882    2.352    0.575
        82  -8.9408      1.8834     44.6885   1.2720469420e+02   6.5642355627e+01    0.2326033    0.1221537 -46.36  0.001493347    1.382    0.277
        83  -9.4643      6.6784     33.8492   1.2201358340e+02   6.7239054548e+01    0.3016113    0.1905839 -20.84   0.00155873    1.388    0.280
        84  -9.3550      2.0802     30.0112   1.2275586837e+02   6.8155568873e+01    0.3260041     0.193427 -65.67  0.001965165    2.467    0.595
        85 -10.6202     83.0858     40.2592   9.5381075163e+01   5.7108719730e+01    0.3732978    0.2420296 -11.27 0.0002898971    1.741    0.426
        86  -8.6892     87.7209     38.0050   9.3132804407e+01   5.6598794014e+01    0.2893662    0.2039274  11.47 0.0007970497    1.525    0.344
        87  -9.1981     58.8203     40.5124   1.0364540621e+02   6.0892852255e+01    0.2603064    0.1653525   0.76 0.0008017762    1.840    0.456
        88  -7.8304    113.7721     41.9841   8.7218534556e+01   5.0906624213e+01    0.2594421    0.1254383  26.08  0.000893527    3.626    0.724
        89 -10.2697    137.0216     38.3563   8.0527477835e+01   4.6203018837e+01    0.2991846    0.2174168  42.93  0.000314714    1.306    0.234
        90  -7.5585    124.2646     39.6001   8.3820529137e+01   4.8947150975e+01    0.1949715    0.1143613  43.43 0.0004650036    1.601    0.375
        91  -9.3322     67.8336     37.8436   9.9502845610e+01   5.9967383753e+01    0.3367122    0.2109876 -27.02  0.001900193    1.511    0.338
        92  -8.7408     72.2687     35.0114   9.6949271348e+01   5.9669586127e+01    0.3935637    0.2018525  21.93  0.001783959    2.537    0.606
        93  -8.7945     35.5143     38.4545   1.1170151006e+02   6.4062913543e+01     0.222735   0.09817879 -43.31 0.0005893888    1.988    0.497
        94  -8.8479     38.3737     35.4543   1.0949450100e+02   6.4228705147e+01    0.2421544    0.1705278  16.31 0.0007577012    1.408    0.290
        95  -7.8951    105.9385     36.6728   8.7453530429e+01   5.3252210884e+01    0.2228166    0.1476654  33.04  0.001109995    1.475    0.322
        96  -8.0140     91.9429     36.9962   9.1504087789e+01   5.5956425741e+01    0.2039631     0.141285  12.82  0.000440525    1.589    0.371
        97  -9.0682     56.3906     35.1263   1.0253130156e+02   6.2036257870e+01    0.2596903    0.1696174  -9.53 0.0008335378    1.578    0.366
        98  -7.8327     19.2889     35.6981   1.1732194864e+02   6.6019265319e+01    0.1806359    0.1076615 -37.34  0.001165771    1.316    0.240
        99  -8.9950     22.8265     35.6304   1.1583559535e+02   6.5733076084e+01    0.2480598    0.1661089  26.51  0.001673431    1.707    0.414
       100  -9.0876     21.8676     32.1960   1.1503079004e+02   6.6367243671e+01    0.2704506    0.2007797   4.53  0.001137631    1.312    0.238
       101  -9.0996     42.1466     27.9577   1.0517621551e+02   6.4909029375e+01    0.3077502    0.2205923 -17.71  0.001548006    1.167    0.143
       102  -9.6967    172.1079    248.5705   1.2131833721e+02  -1.7909719351e+00    0.2422835    0.1850124  23.92   0.00147669    1.356    0.263
       103  -9.1370     61.9261     26.8430   9.7357198181e+01   6.2383876175e+01    0.2751914    0.1821817  -4.37   0.00152001    1.535    0.349
       104  -7.6652    109.5013    106.4756   1.0803030457e+02   4.0011359285e+01    0.2610384    0.1442383  30.10  0.001021164    2.311    0.567
       105  -8.8988    167.2644    245.5859   1.2180946306e+02  -4.8681196740e-01    0.1828359    0.1058939  34.86 0.0008703758    1.598    0.374
       106  -8.2047    144.8618     23.5361   7.4320169503e+01   4.6131921442e+01     0.197082    0.1744558  23.95 0.0003397167    1.218    0.179
       107  -7.4297    118.4077     24.4877   8.0127208867e+01   5.2079964929e+01    0.1307243    0.1158693  35.29 0.0001240233    1.021    0.021
       108  -7.8546    128.7814     22.4427   7.7157560038e+01   4.9988346716e+01    0.1907854    0.1063142  47.98  0.000582671    1.580    0.367
       109  -8.2927    140.2751     20.0151   7.4089833531e+01   4.7590944936e+01    0.2213029    0.1661416  59.03 0.0004530985    1.173    0.148
       110  -8.1958      5.5214     18.7609   1.1728706376e+02   6.9703853975e+01    0.1558986     0.082322 -42.61 0.0003035436    1.543    0.352
       111  -8.4200      9.6188     19.7638   1.1579670662e+02   6.9260933018e+01    0.2715427    0.1277262   6.60  0.001472809    2.506    0.601
       112  -8.7623    127.5907     16.9077   7.5587079661e+01   5.0832129843e+01    0.2138491     0.172283  32.28 0.0003751276    1.211    0.174
       113  -7.7380    113.8368    244.8714   1.3192712425e+02   8.7367668028e+00    0.1772325    0.1263404  69.76 0.0004332003    1.334    0.251
       114  -7.8523    119.3059    240.0899   1.3030994462e+02   8.7053666175e+00    0.2337188    0.1083242 -51.10  0.001097809    2.583    0.613
       115  -9.1154    187.8727    233.9312   1.1604794337e+02  -2.2055373543e+00    0.2763861    0.2160829 -64.34  0.001609015    1.735    0.423
       116  -7.3304     44.2753    210.3132   1.4160674572e+02   2.5924393391e+01     0.108047   0.08722077 -58.36 0.0002535272    1.560    0.359
       117 -10.0541    169.8845    207.7276   1.1523984239e+02   5.6645957273e+00    0.2448688    0.2307665  30.54 0.0003711251    1.063    0.059
       118  -8.1932     11.6953    206.6572   1.4739870352e+02   3.0310753174e+01    0.1052858   0.07506125 -59.88 0.0003632539    1.685    0.406
       119  -7.6601    171.1311    192.8663   1.1227399223e+02   8.3030599271e+00    0.1900113    0.1673126   6.85  0.001030185    1.286    0.222
       120  -7.3364    156.7097    181.6692   1.1326287849e+02   1.3494649675e+01     0.145763    0.1191448  -4.53 0.0003990855    1.625    0.385
       121  -8.6686    116.6945    152.0673   1.1675091217e+02   2.8126250356e+01    0.2461201    0.2159991  37.82 0.0003273774    1.232    0.188
       122  -7.3347    133.6664    147.6327   1.1161502940e+02   2.5804348816e+01    0.1594296    0.1248276 -10.44 0.0007032272    1.828    0.453
       123  -9.1313     67.1612    144.5595   1.2796758265e+02   3.8074871779e+01    0.4178633    0.2817734  75.20  0.002081673    1.771    0.435
       124  -8.3273    121.3087     15.3207   7.6370801865e+01   5.2395677458e+01    0.1362188   0.08588231  31.68  0.000703432    1.643    0.391
       125  -7.3389    181.9789    144.9858   9.9859229455e+01   1.5904963218e+01     0.180577    0.1758426 -53.98 0.0003155809    1.020    0.019
       126 -10.0631    228.3257    138.3095   8.9218048582e+01   7.1327370427e+00    0.2619921    0.2542197  76.82 0.0002811835    1.112    0.101
       127  -8.0301    114.7250    136.9406   1.1401191903e+02   3.2055770328e+01    0.2054883    0.1845104 -61.74 0.0002945951    1.069    0.064
       128  -7.8594      5.0026    133.4988   1.4217930355e+02   4.6977104940e+01    0.1501977   0.08530868 -30.09 0.0008106765    2.595    0.615
       129  -7.5956    179.0064    130.3462   9.7035408195e+01   1.9650631430e+01    0.2679468    0.1219221  31.08  0.000703838    4.608    0.783
       130  -7.9184    133.0013    124.7571   1.0646010899e+02   3.1170335755e+01    0.2060974    0.1319647  45.53 0.0005873495    1.587    0.370
       131  -9.0254    246.4635    119.7128   8.2023147532e+01   6.7771170969e+00     0.229996    0.2168909 -85.92 0.0004825546    1.138    0.121
       132  -7.7179    232.3074    119.6233   8.4282704551e+01   9.7530809436e+00    0.1548994    0.1076749 -67.62  0.000702875    1.779    0.438
       133  -7.7438    119.9316    118.5663   1.0830503561e+02   3.5266339370e+01    0.2135417    0.1367555  17.96 0.0008067726    2.550    0.608
       134  -7.6107    100.5102    118.5455   1.1355193316e+02   3.8968039279e+01    0.1474112    0.1395664 -49.94 0.0003114234    1.035    0.034
       135  -7.5451    142.6393    111.7325   1.0073869973e+02   3.1939686694e+01    0.1567124    0.1246123  12.36 0.0004231709    1.644    0.392
       136  -7.4753     39.2320    110.0442   1.2935333799e+02   4.9467822468e+01    0.1747141   0.09022284 -59.97 0.0008672714    1.598    0.374
       137  -8.7978      2.2815    109.5574   1.3984115977e+02   5.2471375759e+01    0.2736925   0.09779128 -46.47  0.001309498    2.572    0.611
       138  -8.0002    133.9505    106.3426   1.0149181772e+02   3.5010147255e+01    0.3106199    0.2039749 -26.65 0.0006633999    1.927    0.481
