#   1 NUMBER                 Running object number                                     
#   2 MAG_AUTO               Kron-like elliptical aperture magnitude                    [mag]
#   3 X_IMAGE                Object position along x                                    [pixel]
#   4 Y_IMAGE                Object position along y                                    [pixel]
#   5 X_WORLD                Barycenter position along world x axis                     [deg]
#   6 Y_WORLD                Barycenter position along world y axis                     [deg]
#   7 A_WORLD                Profile RMS along major axis (world units)                 [deg]
#   8 B_WORLD                Profile RMS along minor axis (world units)                 [deg]
#   9 THETA_WORLD            Position angle (CCW/world-x)                               [deg]
#  10 FWHM_WORLD             FWHM assuming a gaussian core                              [deg]
#  11 ELONGATION             A_IMAGE/B_IMAGE                                           
#  12 ELLIPTICITY            1 - B_IMAGE/A_IMAGE                                       
         1 -13.9053    212.6762      8.6562   4.0216551741e+01   3.0508920357e+01     2.397931      1.28034  46.31   0.01111491    2.305    0.566
         2 -13.0426    174.7094     53.0485   5.7890584985e+01   3.4578429781e+01     1.785941     1.174657  22.21  0.005460348    2.191    0.544
         3 -13.5061    189.7327     39.0461   5.1251738016e+01   3.2691734928e+01     1.146828     1.049095 -12.70   0.00399641    1.232    0.188
         4 -10.0003     45.6176      3.1955   7.3882236460e+01   6.9295823433e+01    0.1752066   0.09613239 -16.36 0.0009602447    1.738    0.425
         5  -7.7141     56.5508    224.4862   1.2102540971e+02   2.1415784224e+01    0.1227109   0.08471178  67.72 0.0008042673    1.148    0.129
         6 -12.1643    247.4439    246.7639   8.8378254590e+01  -1.1214307289e+01    0.6033468    0.4832816  -9.78  0.004573787    1.321    0.243
         7  99.0000     43.8165    211.1940   1.2238142905e+02   2.5587754885e+01     0.292658    0.1216024 -83.87  0.001421409    2.508    0.601
         8 -11.1237     71.8899    245.5948   1.1991865487e+02   1.5559959648e+01    0.3231449    0.1721645 -74.87  0.001963997    2.025    0.506
         9  -9.3154    174.9521    211.5112   9.5920438539e+01   4.9575532217e+00    0.2126566    0.1149165  40.93  0.001035929    1.600    0.375
        10  -9.3958     31.9097    211.3766   1.2464082612e+02   2.6913471259e+01    0.1305249   0.09515151  49.62 0.0004057423    1.336    0.252
        11  -9.3069    184.3539    209.3136   9.3690075814e+01   3.6460462747e+00    0.1381573   0.09537468  11.85 0.0003936552    1.734    0.423
        12 -11.3587     67.2892    206.2090   1.1732471716e+02   2.3618939295e+01    0.2150157    0.1981966  72.85  0.000295416    1.249    0.199
        13  -9.0112     72.4238    203.1593   1.1596591212e+02   2.3540119106e+01    0.3060973    0.1710726  65.15  0.001601105    1.769    0.435
        14 -10.7946    193.2884    195.5458   8.9482795829e+01   4.2696285563e+00     1.004908    0.5062911 -61.34  0.002964055    6.394    0.844
        15 -10.7653     58.3827    202.3408   1.1875603919e+02   2.5593849063e+01    0.3150647    0.2145884 -41.58  0.001193283    2.340    0.573
        16 -11.6715     59.9006    196.7041   1.1789876871e+02   2.6578976848e+01    0.3504588    0.2469069 -44.49  0.001501558    2.043    0.510
        17  -8.0347     75.5748    247.5012   1.1942153622e+02   1.4734188391e+01    0.1247072     0.102525 -76.33 0.0009207139    1.428    0.300
        18  -9.9868    203.8848    199.6276   8.8160293621e+01   1.7036895342e+00    0.2818606    0.1081732  34.81   0.00109747    2.613    0.617
        19 -10.5417    150.2839    196.3494   9.8490173839e+01   1.2087050370e+01    0.3820249    0.1927928 -61.13  0.001569539    2.809    0.644
        20  -9.1566     82.3185    194.8887   1.1295458869e+02   2.3850589513e+01    0.2177664    0.1547005  59.84  0.001086192    1.249    0.200
        21 -19.5141     22.8576    146.9940   1.2116866387e+02   4.1859361231e+01     19.08459     4.630197 -75.13   0.06634223    3.880    0.742
        22  -9.5979     43.7311    221.0211   1.2313048388e+02   2.3661839924e+01    0.1811317    0.1624953  73.83  0.001384459    1.323    0.244
        23  -8.6450     78.2324    192.7512   1.1358077202e+02   2.4902601899e+01    0.1217818   0.08364577  71.68 -0.000275831    1.389    0.280
        24 -10.6616     96.2474    189.7934   1.0926633905e+02   2.2798770940e+01      0.60694    0.3939492  15.77   0.00272259    2.730    0.634
        25  -9.3469    156.6827    190.0169   9.6043434733e+01   1.2091503191e+01    0.1820284    0.1784707  16.25 0.0003689108    1.092    0.084
        26 -10.6417    150.8639    188.5084   9.7031501551e+01   1.3473681374e+01    0.2820005    0.1905127 -69.45   0.00134024    2.005    0.501
        27  -9.9414    141.4051    187.7927   9.8968431365e+01   1.5378856986e+01    0.1917368      0.13221 -38.47 0.0009509865    1.718    0.418
        28  -9.7935    238.4781    185.5143   7.9035086499e+01  -2.1922209267e+00     0.133092    0.1103015   3.26 0.0002095057    1.022    0.022
        29 -10.6766    151.0374    179.9262   9.5459093192e+01   1.5124010209e+01    0.4415359    0.2924813 -77.86  0.001911069    2.407    0.585
        30 -10.7829    145.3678    180.7231   9.6859373845e+01   1.6048776870e+01    0.3496082    0.2960175   4.09  0.001118612    1.444    0.308
        31 -11.6759    141.6413    174.8235   9.6623257191e+01   1.7964916906e+01    0.6907641    0.4605188  74.12  0.002715038    2.169    0.539
        32  -9.8377    189.2405    178.3649   8.7006992660e+01   7.9747099310e+00    0.6298238    0.4013257 -65.92  0.002613848    2.821    0.646
        33  -9.8063    188.4970    174.5315   8.6390389302e+01   8.8063936514e+00    0.4392184    0.2647323 -61.58  0.001787817    2.737    0.635
        34  -9.8649    240.0457    169.4855   7.5503445941e+01  -7.6826512097e-02    0.1932904    0.1254626  37.48 0.0004645314    1.543    0.352
        35 -10.6503     99.3894    180.7305   1.0727741585e+02   2.4250116213e+01    0.2607666    0.2429617  52.34 0.0006300676    1.154    0.133
        36 -10.0609    229.9784    166.0066   7.6563858776e+01   2.2831149262e+00    0.1709128    0.1500958  -0.14 0.0008122275    1.005    0.005
        37  -9.0510     74.8334    250.6931   1.1980198240e+02   1.4293183192e+01   0.08661059   0.07521724 -75.54 0.0001696897    1.456    0.313
        38 -10.9666     90.9541    158.2751   1.0577408891e+02   3.0701321492e+01    0.2594973    0.2475265  78.04 0.0003085626    1.101    0.092
        39 -11.6033     96.6949    151.5639   1.0317062522e+02   3.1331229800e+01    0.6019097    0.4644758 -27.69  0.003024143    1.751    0.429
        40 -10.8516    133.8413    145.6877   9.2662295977e+01   2.5798025519e+01     1.274653    0.3229964 -54.94  0.002959367    6.059    0.835
        41  -9.8678    187.1239    151.6924   8.1807975064e+01   1.3341915493e+01    0.3286008    0.2405023 -72.44  0.001457392    2.062    0.515
        42  -9.4287    113.6121    151.4795   9.8883194735e+01   2.8381698685e+01    0.3469532    0.2157291  86.85  0.001334192    2.672    0.626
        43  -9.5918    174.2712    148.8231   8.3924972903e+01   1.6640440492e+01    0.3082608    0.2715178  87.66 0.0008706019    1.369    0.269
        44  -9.8216    143.7027    145.3498   9.0188597245e+01   2.3854271171e+01     0.288071    0.1908077 -60.55    0.0012535    1.725    0.420
        45 -10.1900    106.7382    144.6169   9.9282100655e+01   3.1221334289e+01    0.3784054    0.2637505 -80.84  0.001740641    1.734    0.423
        46 -10.9088    108.1446    138.1201   9.7591360112e+01   3.2491012908e+01    0.5287601     0.329972 -39.79  0.001997733    1.833    0.455
        47 -11.7310     96.3372    137.4469   1.0058260697e+02   3.4732104149e+01    0.3030717    0.2792493  87.99 0.0004165242    1.043    0.041
        48 -10.7747    105.9048    130.8792   9.6638202380e+01   3.4604555980e+01    0.4288448    0.3338497 -56.93  0.001414964    1.242    0.195
        49  -9.7339    135.7528    128.8826   8.8361613747e+01   2.9171195030e+01    0.3694761    0.1319293 -49.27  0.001164398    2.857    0.650
        50  -9.3336    160.4986    128.0112   8.2130140206e+01   2.3956193699e+01    0.2485296    0.1544798 -43.44  0.001039981    1.611    0.379
        51 -10.4433    102.7762    124.7742   9.6133508695e+01   3.6614444071e+01    0.2953602    0.2523221 -10.84  0.000793246    1.457    0.313
        52  -9.8435    120.1718    123.3867   9.1086718260e+01   3.3625196517e+01    0.3719996    0.2446702 -22.59  0.001480744    2.285    0.562
        53 -10.0353    115.1013    129.0181   9.3758174541e+01   3.3316331887e+01    0.3441383    0.2845731  -2.78 0.0007732367    1.577    0.366
        54  -8.9331     50.3127    216.4880   1.2156066678e+02   2.3749275155e+01     0.314699    0.2295586   0.73   0.00172769    3.130    0.681
        55  -9.4589    110.1215    118.0874   9.2534642309e+01   3.6818460627e+01    0.2228162    0.2116522 -69.53  0.000400931    1.026    0.026
        56 -10.0254    231.2162    113.7229   6.4456290880e+01   1.0760508741e+01    0.2705981    0.2643122  35.82 0.0007064564    1.117    0.105
        57  -9.3041    167.5316    112.3832   7.6509924498e+01   2.5585469849e+01    0.3507893    0.2506362 -75.25  0.001440127    2.022    0.505
        58  -9.7692    134.5632    105.2484   8.2600767050e+01   3.4662410920e+01     0.447899    0.1512686 -44.21  0.001385403    2.916    0.657
        59 -10.9196    118.9531    110.6754   8.8233574823e+01   3.6777855013e+01     0.529751     0.404064  83.31  0.001897505    1.746    0.427
        60  -9.5115    205.2659    110.1596   6.8138066696e+01   1.7159156897e+01    0.3124957    0.2277438  50.01 0.0008894653    1.426    0.299
        61 -11.0963     55.3540    211.7665   1.2020452586e+02   2.4057417496e+01    0.3048558    0.1729316  61.44  0.001775043    1.518    0.341
        62  -9.6229     70.2658     72.1588   9.2367015598e+01   5.4043154091e+01    0.2217799    0.1973426  40.47 0.0004089443    1.276    0.216
        63 -12.2450    249.2488    235.3485   8.6222821088e+01  -1.0229479777e+01    0.7635244    0.2775083 -32.36  0.003787356    2.883    0.653
        64  99.0000     63.1529    221.2998   1.1952378382e+02   2.1171910940e+01    0.3905606    0.1714016  68.66  0.001800002    2.703    0.630
        65  -9.5249    167.7324    231.8438   1.0045666956e+02   2.9961339132e+00      0.23468    0.1726983  27.19 0.0008465932    1.278    0.218
        66 -12.5823    194.4966     33.3141   4.8932716373e+01   3.2218272562e+01     0.573616    0.5447935  55.68  0.001242073    1.131    0.116
