#   1 NUMBER                 Running object number                                     
#   2 MAG_AUTO               Kron-like elliptical aperture magnitude                    [mag]
#   3 X_IMAGE                Object position along x                                    [pixel]
#   4 Y_IMAGE                Object position along y                                    [pixel]
#   5 X_WORLD                Barycenter position along world x axis                     [deg]
#   6 Y_WORLD                Barycenter position along world y axis                     [deg]
#   7 A_WORLD                Profile RMS along major axis (world units)                 [deg]
#   8 B_WORLD                Profile RMS along minor axis (world units)                 [deg]
#   9 THETA_WORLD            Position angle (CCW/world-x)                               [deg]
#  10 FWHM_WORLD             FWHM assuming a gaussian core                              [deg]
#  11 ELONGATION             A_IMAGE/B_IMAGE                                           
#  12 ELLIPTICITY            1 - B_IMAGE/A_IMAGE                                       
         1  -8.1645    203.0000      6.0018   4.5109376428e+01   3.2361383420e+01    0.2310761   0.07700546 -20.54 0.0005593435    2.944    0.660
         2  -8.7168    138.9965      1.7014   5.0920607099e+01   5.0241197667e+01    0.2295561    0.2137861 -14.87  0.001266263    1.124    0.110
         3  -7.5522    180.2399      1.9770   4.5929298812e+01   3.8769596848e+01    0.1940145    0.1812157 -32.39  0.000410502    1.092    0.084
         4  -8.3163    172.0474      1.8510   4.6732594406e+01   4.1024138273e+01    0.2104899    0.2012902 -87.08 0.0004063172    1.013    0.013
         5  -7.2630    119.2798    238.6525   1.1179671924e+02   1.4156177768e+01     0.106047   0.06501213  56.76 0.0002652452    1.640    0.390
         6  -9.0916    239.8477    248.8721   9.2960790063e+01  -2.7249158473e+00    0.2063977    0.1267343  17.49 0.0004763811    1.149    0.130
         7  -8.5577    139.3715    225.1055   1.0679993475e+02   1.3189599951e+01    0.2425228    0.1348269  50.24  0.001077865    1.683    0.406
         8  -7.7561    247.3572    223.2932   8.8354530637e+01  -1.5959495698e+00    0.1111541   0.05734346  16.04 0.0007030487    1.692    0.409
         9  -8.4191    135.2039    220.1896   1.0703952873e+02   1.4446548986e+01    0.1991248    0.1457731  36.74  0.000662395    1.055    0.052
        10  -8.0321     93.8943    219.1361   1.1483425010e+02   2.0303003228e+01    0.1693324    0.1282848  42.83 0.0006904043    1.089    0.081
        11 -10.5866     11.8373    205.1224   1.3002984656e+02   3.1771063026e+01    0.3471177    0.3168848  64.05  0.001962949    1.390    0.281
        12  -8.5545    243.0326    206.6106   8.6501337464e+01   4.3054594458e-01    0.1775758    0.1304084  -1.90 0.0003413233    1.221    0.181
        13 -12.7239     30.1999    223.2797   1.2718857845e+02   2.7001140407e+01    0.7988041    0.3814577  34.84  0.005256013    1.752    0.429
        14  -8.2903     57.9710    201.5020   1.2065151187e+02   2.7701171858e+01    0.1681085   0.08812024  38.91 0.0004244031    1.531    0.347
        15  -8.3674     36.1331    199.6036   1.2500488456e+02   3.0433814964e+01    0.3184957   0.08708222  44.94  0.001594767    2.364    0.577
        16  -9.3610     72.0948    195.5989   1.1726404468e+02   2.7033692531e+01    0.2851256    0.2319643  -3.19  0.001335334    1.943    0.485
        17  -7.3368    124.5809    193.1940   1.0597616027e+02   2.0052790018e+01    0.1372399    0.1163766 -32.29 0.0003151105    1.522    0.343
        18  -9.1470     43.1651    192.4612   1.2315676646e+02   3.0991282361e+01    0.2015669    0.1335381  73.67 0.0007987996    1.329    0.247
        19  -9.4631    241.1778    188.6877   8.3888050049e+01   2.4075721038e+00    0.2585824    0.2297308 -30.14  0.001086925    1.714    0.417
        20  -8.5233     32.5999    188.3233   1.2516156293e+02   3.2859308552e+01    0.1927534    0.1496945  56.20 0.0005843875    1.081    0.075
        21  -6.9524     46.2847    188.3598   1.2223782767e+02   3.1413621537e+01   0.09815667   0.08583417 -42.65 0.0005778532    1.678    0.404
        22 -10.1451    133.1667    234.4077   1.0889598637e+02   1.2838865793e+01    0.1887049    0.1539794  39.55 0.0002239977    1.132    0.117
        23  -7.4172    154.1187    185.8593   9.8946620967e+01   1.6502357736e+01    0.1610142    0.1300506  16.56 0.0003802651    1.268    0.212
        24  -9.0167     79.4802    185.6533   1.1478178796e+02   2.7879275058e+01    0.2284146    0.1578662  49.32  0.001010226    1.159    0.137
        25  -9.1050    229.6673    183.7511   8.4872508148e+01   4.6165693606e+00    0.3066452    0.1778321  40.15 0.0009341552    1.609    0.379
        26  -8.5627     10.0008    179.7298   1.2960495586e+02   3.6569311638e+01    0.3633503    0.1807875  11.87  0.001875774    3.525    0.716
        27  -8.8967    230.1428    178.9310   8.3961715492e+01   5.0676482704e+00     0.189761    0.1421784  15.54 0.0002711517    1.043    0.042
        28  -7.1515     99.6044    176.3012   1.0927741520e+02   2.6772262503e+01    0.1376645   0.07988273  59.92 0.0005990767    1.814    0.449
        29  -8.5044    230.3714    174.0958   8.3069585663e+01   5.5660929395e+00    0.2016924    0.1439418  33.07 0.0002081175    1.274    0.215
        30  -8.5217    151.0111    173.1500   9.7620324995e+01   1.9001305244e+01    0.1861613    0.1697984  20.61 0.0002587231    1.117    0.105
        31  -9.1684     84.3472    172.8427   1.1235454145e+02   2.9632703331e+01    0.2109277    0.1841133  56.83 0.0002955003    1.073    0.068
        32  -7.7505    199.5474    230.9694   9.6947572062e+01   4.0192962748e+00    0.1338349    0.0995961 -18.04 0.0008907468    1.575    0.365
        33 -10.0980    198.3135    171.0800   8.8029232439e+01   1.1164321316e+01    0.2208816    0.1933772  15.77 0.0003166553    1.110    0.099
        34  -7.3928     89.4393    170.4608   1.1090031963e+02   2.9369119989e+01    0.1267532    0.1052856  55.44 0.0001357229    1.010    0.010
        35  -8.2990     91.9051    166.2303   1.0980704689e+02   2.9832232482e+01    0.3661148    0.2406432 -23.53  0.001722656    2.996    0.666
        36  -7.1315    199.0000    227.0256   9.6522581904e+01   4.4964225547e+00    0.1397349   0.06073555 -35.12 0.0007544459    2.887    0.654
        37  -9.2782     83.3654    157.6934   1.1079010712e+02   3.2786605390e+01    0.3271292    0.2551737  11.18  0.001881365    1.763    0.433
        38  -7.2198     28.8165    159.3575   1.2436450083e+02   3.8968256139e+01    0.1493964    0.1066026  20.18 0.0009461568    1.754    0.430
        39  -7.6600    157.0192    157.2529   9.3648473212e+01   2.0539663350e+01    0.1867695    0.1561825  38.13 0.0003854693    1.055    0.052
        40  -7.6085     46.0633    154.8970   1.1978710794e+02   3.8132405038e+01    0.1870603    0.1310585  60.83 0.0003963807    1.204    0.170
        41  -8.8858    218.2401    154.0918   8.1338927362e+01   9.9357914666e+00    0.2042061    0.1593317  32.91 0.0002576736    1.200    0.167
        42  -7.7563    204.1723    152.9713   8.3577600947e+01   1.2564070448e+01    0.2183789    0.1702138 -28.98  0.001317504    1.373    0.272
        43  -7.3270    128.2392    154.1725   9.9491342059e+01   2.6259384104e+01    0.1778549    0.1454134  65.15 0.0003545924    1.303    0.232
        44  -7.4493    101.4266    152.8030   1.0567248502e+02   3.1039288190e+01    0.1724768    0.1228174 -45.57  0.000361915    1.682    0.406
        45  -8.8386     87.3299    151.8594   1.0903761620e+02   3.3410148790e+01    0.2792306    0.2244734 -28.76 0.0007983091    1.737    0.424
        46  -8.4098    182.8749    152.1175   8.7406223559e+01   1.6581010140e+01    0.2875368    0.1603305  44.87  0.001409801    1.664    0.399
        47  -7.2909    146.2452    150.3775   9.4730921377e+01   2.3699777625e+01    0.1868821     0.116337  48.92 0.0002417455    1.525    0.344
        48  -7.7810    151.1380    145.9511   9.2811790654e+01   2.3566829222e+01    0.1965803    0.1773561  73.03 0.0003937256    1.285    0.222
        49  -9.5190     68.2213    143.3625   1.1284851566e+02   3.7926238060e+01    0.6220548    0.2826671  62.49  0.002553033    2.793    0.642
        50  -7.6695      1.3591    143.1967   1.3031366892e+02   4.4638349096e+01    0.1588264   0.08079173  79.00 0.0002371256    1.608    0.378
        51  -7.7946    245.0809    141.9978   7.4633858877e+01   6.8275613968e+00    0.1502475     0.120756  14.73 0.0007210149    1.084    0.077
        52  -7.4285    100.9522    136.7706   1.0322543344e+02   3.4431765223e+01    0.1827548    0.1069731  39.04 0.0008226262    1.602    0.376
        53  -6.9073    104.3144    134.7139   1.0199003187e+02   3.4299324767e+01     0.141592    0.1004755  67.87 0.0001676706    1.583    0.368
        54  -7.4495    239.1384    132.6353   7.3593822484e+01   8.9367525043e+00    0.1703136    0.1016255  32.09 0.0003505618    1.617    0.381
        55  -7.7503     32.4607    132.4939   1.2142176308e+02   4.4471177611e+01    0.1248872    0.1016945  74.04  3.84177e-05    1.016    0.016
        56  -7.7735     10.0375    131.9475   1.2755099760e+02   4.6479080327e+01    0.1679137    0.1268357 -50.95 0.0007248621    1.648    0.393
        57  -7.2185    236.1398    128.8110   7.3237242116e+01   9.9312536159e+00    0.1721829    0.1269764   9.84            0    1.265    0.210
        58  -7.3847    174.9704    128.2421   8.4025177024e+01   2.1898312767e+01    0.1915965     0.166737  32.77 0.0002453983    1.062    0.058
        59  -7.5769     11.9891    128.0051   1.2679264329e+02   4.7218528022e+01    0.1611544    0.1266238 -55.10 0.0003097922    1.514    0.339
        60  -8.8186    161.8413    105.0167   8.1304313154e+01   2.8704000286e+01    0.2438071    0.2025981  38.10   0.00126505    1.163    0.140
        61  -9.6716    218.1543     99.5644   6.9337691910e+01   1.7227190031e+01    0.2677123    0.2169027 -11.14 0.0003332164    1.158    0.136
        62  -7.4450    124.4781    102.5389   8.9755472093e+01   3.7289418057e+01    0.1484443    0.1428614  57.53 9.963914e-05    1.008    0.008
        63  -8.1161    222.9992     95.9332   6.7696910945e+01   1.6709923043e+01    0.2073031    0.1867907  -2.87 0.0003708651    1.013    0.012
        64  -6.9017    213.7527     89.3490   6.7479113855e+01   1.9577086971e+01    0.1392501     0.102686 -50.61 0.0001711074    1.583    0.368
        65  -8.6188    105.9355     84.0090   9.0090840898e+01   4.5047147689e+01      0.21517    0.2115865  87.08  0.001193051    1.008    0.008
        66  -7.5085    245.2512     82.9811   6.1454180713e+01   1.3830090728e+01    0.1675017   0.09995514 -25.38 0.0003620475    1.467    0.318
        67  -7.2499    206.3692     80.7299   6.6400066436e+01   2.2435233045e+01     0.142344    0.1114145 -69.32 0.0006996965    1.668    0.400
        68  -7.5828     14.7631     80.6302   1.2193517035e+02   5.8195018734e+01    0.1619235    0.1075597  38.64 0.0004249421    1.609    0.379
        69  -7.6955    162.9665     78.6794   7.3846094825e+01   3.3077383235e+01    0.2089991    0.1863359  47.49 0.0002289758    1.112    0.100
        70  -8.0278    137.3435     66.7830   7.6059608670e+01   4.1451656846e+01    0.3391722    0.2152019  22.34  0.001051257    2.357    0.576
        71 -10.3349    120.0236     62.5690   7.9240501142e+01   4.6387261672e+01    0.2648178    0.2415049 -38.33 0.0001821095    1.097    0.089
        72  -7.5580    131.4482     59.9563   7.5269668153e+01   4.4137154913e+01    0.2248827    0.1519332 -37.65 7.241076e-05    1.481    0.325
        73  -7.8480    165.0071     55.0000   6.6087678581e+01   3.6427869920e+01    0.2527892   0.08750942  59.11 0.0007963734    2.901    0.655
        74  -9.0853    216.0487     51.0667   5.6875419300e+01   2.4138298275e+01    0.3592847    0.2404143 -18.37  0.001450027    1.483    0.326
        75  -7.3224    190.0107     43.0143   5.8044485202e+01   3.1623899184e+01    0.1734226    0.1617629 -30.38            0    1.042    0.040
        76  -9.0277    178.3202     40.7950   5.9116300746e+01   3.4968783644e+01    0.4414184    0.3189391 -79.32  0.002029643    1.672    0.402
        77  -8.4216    184.0677     33.3377   5.5838038760e+01   3.4402530504e+01    0.2825775     0.246261  14.11 0.0007865152    1.257    0.204
        78  -7.2333    163.4799     32.4592   5.8725971239e+01   4.0041027488e+01     0.152134    0.1464696  36.54 0.0001568711    1.060    0.056
        79  -7.0534    141.9961     12.9733   5.5063329528e+01   4.8285572826e+01    0.1732308    0.1712601 -11.97            0    1.043    0.041
        80 -16.8859     38.2003    243.2264   1.2651943865e+02   2.3115315556e+01     1.913056     1.180035  39.77  0.006678475    1.302    0.232
        81  -9.8596     89.0609    241.8092   1.1747423869e+02   1.7591867795e+01    0.3135163    0.1439171  49.30  0.001331247    1.631    0.387
        82  -9.1571     97.9581    240.6690   1.1579668991e+02   1.6643022320e+01    0.2141073    0.1192654  45.11   0.00146988    1.267    0.211
