#   1 NUMBER                 Running object number                                     
#   2 MAG_AUTO               Kron-like elliptical aperture magnitude                    [mag]
#   3 X_IMAGE                Object position along x                                    [pixel]
#   4 Y_IMAGE                Object position along y                                    [pixel]
#   5 X_WORLD                Barycenter position along world x axis                     [deg]
#   6 Y_WORLD                Barycenter position along world y axis                     [deg]
#   7 A_WORLD                Profile RMS along major axis (world units)                 [deg]
#   8 B_WORLD                Profile RMS along minor axis (world units)                 [deg]
#   9 THETA_WORLD            Position angle (CCW/world-x)                               [deg]
#  10 FWHM_WORLD             FWHM assuming a gaussian core                              [deg]
#  11 ELONGATION             A_IMAGE/B_IMAGE                                           
#  12 ELLIPTICITY            1 - B_IMAGE/A_IMAGE                                       
         1 -14.8067      7.6874    148.9090   1.4642817578e+02   4.2389152098e+01     5.421985     1.471166 -81.37   0.02126914    3.845    0.740
         2 -11.7866      2.4450     38.0743   1.3145460672e+02   6.6323026995e+01    0.7035837    0.1511482 -63.55  0.002458715    4.681    0.786
         3 -12.6021      2.3409     14.3287   1.2395948737e+02   7.0738978753e+01     1.695415    0.1959767 -47.94  0.006582284    3.809    0.737
         4 -10.7362     33.0000      7.4362   1.0615970418e+02   6.9152343858e+01    0.5340135    0.1155471 -38.84  0.001986327    3.964    0.748
         5 -13.2893    191.5279     27.1467   7.2016491206e+01   3.3624099455e+01     1.323717     1.223129  56.29  0.006475679    1.061    0.057
         6 -13.4988    205.2976      9.2937   6.5243823810e+01   3.2067633324e+01     1.584252     1.037829  39.45  0.008076001    1.746    0.427
         7 -10.3821     12.9732    241.5546   1.5108270834e+02   2.4505904512e+01    0.2506716    0.1212427  89.98  0.001788096    1.769    0.435
         8 -10.7144    140.1038    249.7177   1.3107862736e+02   7.1259285496e+00    0.2857375    0.1597869  46.87  0.001776326    1.396    0.284
         9 -11.0866    102.3847    247.7688   1.3727279545e+02   1.2896683510e+01     0.265685    0.1922323  64.25 0.0007151096    1.201    0.167
        10  -9.2905     67.0542    250.5363   1.4327126551e+02   1.7119414738e+01    0.1521384   0.07724327  47.31 0.0007355314    1.524    0.344
        11 -10.5712     33.2350    247.7502   1.4834943895e+02   2.1452412446e+01    0.3786393    0.1316601 -72.57  0.002262276    2.804    0.643
        12 -10.9221     35.0083    244.5072   1.4790411949e+02   2.1781301824e+01    0.2807829    0.1985301  32.56  0.002158676    1.912    0.477
        13 -10.5094      2.6795    248.9266   1.5287147551e+02   2.4299018348e+01    0.3077424    0.1809952  76.62  0.002578326    1.224    0.183
        14 -10.6582      2.1140    240.1000   1.5261579657e+02   2.5756940776e+01    0.3252726    0.1267621 -78.12  0.002060345    2.255    0.556
        15  -9.5870     81.7353    242.8244   1.4029568263e+02   1.6461720051e+01    0.2191191    0.0974668  58.30  0.001101697    2.060    0.515
        16 -13.8719      8.8594    206.8801   1.5004825016e+02   3.0858313287e+01      6.99966      1.35315  41.05    0.0216554    3.508    0.715
        17 -10.1041      8.4230    226.5128   1.5109155515e+02   2.7436694090e+01    0.2476637    0.1374573  34.49  0.001771668    2.128    0.530
        18 -10.2208    139.8531    230.5812   1.2889173938e+02   9.9337829087e+00    0.1739066    0.1472662 -73.54   0.00122359    1.433    0.302
        19 -10.4208    173.0220    222.1477   1.2170316269e+02   5.7903669452e+00     0.302509    0.2524936  40.69  0.002046658    1.071    0.067
        20  -8.4078    177.6375    227.3106   1.2161502405e+02   4.3032815812e+00    0.1191467   0.08692987  62.52 0.0007040378    1.749    0.428
        21  -8.5699    152.5237    213.0320   1.2420164122e+02   1.0598566132e+01    0.1522035    0.1253756 -50.99 0.0003077448    1.438    0.305
        22 -10.5594    126.4202    249.6348   1.3339847430e+02   9.1741399812e+00     0.282885   0.08810685  38.64  0.001256647    2.868    0.651
        23 -11.2599     21.7932    200.8318   1.4747507167e+02   3.0770553543e+01    0.3206188    0.1508088  57.24  0.001628371    1.801    0.445
        24 -10.3476     13.5536    197.6209   1.4872187315e+02   3.2148095587e+01    0.2974417    0.1304839  51.15  0.001465715    1.923    0.480
        25 -11.1706     65.1944    199.6628   1.3939342893e+02   2.6161494564e+01    0.2940708    0.2155256 -51.30  0.001189263    1.741    0.426
        26  -8.0574     51.4862    197.4481   1.4179331262e+02   2.8250955179e+01    0.1153933   0.08819871  73.44 0.0001435836    1.059    0.056
        27  -9.4246    192.2262    193.7762   1.1350464300e+02   6.6558827948e+00    0.3835159    0.2235954 -65.46  0.001389593    4.788    0.791
        28 -11.3500      2.6992    152.5623   1.4776823668e+02   4.1995196133e+01    0.5681117    0.2375256 -80.46   0.00203517    1.913    0.477
        29 -11.5160     70.8827    191.6133   1.3746222327e+02   2.6988697313e+01    0.2449113    0.2082772 -60.65 0.0005942776    1.369    0.270
        30 -12.9398     67.4770    176.7472   1.3649106700e+02   3.0416905682e+01    0.4501195    0.2667871 -45.25  0.001688827    2.239    0.553
        31 -10.5301     80.3708    178.6748   1.3400977908e+02   2.8297295149e+01      0.21539    0.1953465  80.60 0.0003676937    1.085    0.078
        32  -8.0214    171.3318    173.2641   1.1384426122e+02   1.3894712794e+01    0.1383005    0.1024828  15.26 0.0002425876    1.577    0.366
        33 -11.3555     87.4600    169.3266   1.3123225029e+02   2.9214350976e+01    0.5258878    0.5124407  66.77  0.003572188    1.185    0.156
        34 -10.7241     32.6449    156.3014   1.4170909437e+02   3.8667850100e+01    0.4524928      0.11342 -71.22  0.001750263    3.549    0.718
        35 -11.3977     32.7552    144.4612   1.4040862238e+02   4.1210462792e+01    0.7883913    0.1105128 -68.55  0.002327623    5.796    0.827
        36 -10.1722    190.7821    154.2678   1.0603216532e+02   1.3368298746e+01    0.5265574    0.3566675 -80.12  0.002023109    3.412    0.707
        37  -9.5615     99.4986    152.8718   1.2593295018e+02   3.0861354886e+01    0.2602153    0.2346907 -65.50 0.0007044944    1.100    0.091
        38 -11.6670     88.2315    152.3481   1.2848817214e+02   3.2709905462e+01    0.2646795    0.2295546 -40.51 0.0005985053    1.337    0.252
        39 -12.1260     67.2205    143.9088   1.3216970183e+02   3.7480208304e+01    0.6562361    0.4313627  67.01  0.003233203    1.700    0.412
        40  -9.0428    184.0526    147.3912   1.0589910082e+02   1.5953136723e+01    0.2566941    0.2029182 -70.73  0.001166704    1.770    0.435
        41  -8.8215    180.4379    143.3389   1.0574430401e+02   1.7434832768e+01    0.2297517    0.1780076  67.88 0.0007244354    1.649    0.394
        42  -9.3044    110.4206    137.6737   1.2049743748e+02   3.2322435660e+01    0.3390667    0.2189067 -21.37  0.001154586    2.640    0.621
        43  -8.8808    102.1974    148.8131   1.2458827006e+02   3.1298565346e+01    0.1793624    0.1582491 -31.11 0.0003829915    1.330    0.248
        44 -10.3642     97.8303    135.1108   1.2310371568e+02   3.4989745827e+01    0.2402723    0.2196772 -25.32 0.0004879604    1.255    0.203
        45 -11.9195     33.4209    131.2656   1.3865662615e+02   4.4050240456e+01    0.7396111    0.2642799 -75.87  0.003035182    2.977    0.664
        46 -10.0709     86.4268    136.4494   1.2620348266e+02   3.6466452412e+01    0.2468826    0.2016271  79.19 0.0005195387    1.293    0.227
        47  -9.1418    107.4671    124.1761   1.1841188504e+02   3.5770958955e+01     0.187781    0.1823475  62.37 0.0003557751    1.056    0.053
        48 -12.3666     39.8830    234.5820   1.4656114466e+02   2.2881304765e+01    0.2550351    0.2050324 -77.93  0.000760387    1.429    0.300
        49 -10.0711    168.0686    113.1443   1.0113542027e+02   2.5758355200e+01    0.3415158    0.2860656 -82.55  0.000773833    1.541    0.351
        50  -8.8453    203.4042    111.7478   9.3552369474e+01   1.8025581473e+01    0.2063036    0.1397539 -21.37 0.0006078846    1.568    0.362
        51  -9.7899    163.4509    127.8853   1.0581672875e+02   2.3940712829e+01    0.5163453    0.3435546  86.59  0.001907475    3.100    0.677
        52 -14.3290     45.9757    227.0584   1.4507557084e+02   2.3479481870e+01     2.995685     1.345347  36.77  0.005942706    2.292    0.564
        53  -8.9399     33.5537     93.0277   1.3268217811e+02   5.2584161453e+01    0.1597624    0.1536546 -15.12  0.001141555    1.241    0.194
        54  -8.9129     74.6575     87.1409   1.1877238114e+02   4.9140099351e+01    0.3488829    0.1619782  53.83   0.00127484    3.637    0.725
        55 -11.7993     10.6695     64.2846   1.3445871979e+02   6.0523050275e+01    0.4907883     0.212281  35.86  0.002587305    2.927    0.658
        56 -10.1498     30.6942     61.4056   1.2666437555e+02   5.9671642039e+01    0.2996462     0.194771  42.66  0.001157048    2.004    0.501
        57  -9.4688     12.6582     55.2936   1.3175493918e+02   6.2278544571e+01    0.1057133   0.08480532  80.02 0.0004727158    1.657    0.397
        58  -9.6562     47.0271    249.4985   1.4634076154e+02   1.9655334480e+01    0.1452259   0.07607435  46.96 0.0005235441    1.525    0.344
        59  -9.8856    248.2104    248.6015   1.1276958779e+02  -8.9829869641e+00     0.164763   0.07595532  30.17 0.0009579991    1.707    0.414
        60 -10.0802     81.2811    248.5098   1.4082843003e+02   1.5630189648e+01    0.2219283    0.1409545  76.69  0.001552211    1.550    0.355
        61  -9.7571     25.8802    247.4614   1.4943955864e+02   2.2270147349e+01    0.1372585    0.0734781  47.24 0.0004606184    1.533    0.348
