#   1 NUMBER                 Running object number                                     
#   2 MAG_AUTO               Kron-like elliptical aperture magnitude                    [mag]
#   3 X_IMAGE                Object position along x                                    [pixel]
#   4 Y_IMAGE                Object position along y                                    [pixel]
#   5 X_WORLD                Barycenter position along world x axis                     [deg]
#   6 Y_WORLD                Barycenter position along world y axis                     [deg]
#   7 A_WORLD                Profile RMS along major axis (world units)                 [deg]
#   8 B_WORLD                Profile RMS along minor axis (world units)                 [deg]
#   9 THETA_WORLD            Position angle (CCW/world-x)                               [deg]
#  10 FWHM_WORLD             FWHM assuming a gaussian core                              [deg]
#  11 ELONGATION             A_IMAGE/B_IMAGE                                           
#  12 ELLIPTICITY            1 - B_IMAGE/A_IMAGE                                       
         1 -14.9776    163.4047     48.7481   7.4126762854e+01   3.8154511306e+01     1.191111     1.079504 -22.36   0.00382613    1.280    0.219
         2 -15.1085    177.4106     19.2327   6.4061319365e+01   3.8377296116e+01     1.056222    0.9853826  56.16  0.004475487    1.221    0.181
         3 -14.9068    190.6318     15.6419   6.1500667310e+01   3.5593301814e+01     1.584317    0.7111831 -85.81  0.006047127    3.314    0.698
         4 -10.6968    109.4934    244.5552   1.2946102937e+02   8.6341713438e+00      0.13798    0.1266513 -66.09 0.0008877483    1.296    0.228
         5 -20.2475     74.3084    174.2670   1.2774975449e+02   2.9885880396e+01     17.55838     7.573775 -64.33   0.07069305    2.235    0.553
         6 -11.6690     20.0697    196.3170   1.4282771071e+02   3.1379638526e+01    0.2216429    0.1522188 -59.83  0.001376366    1.538    0.350
         7 -10.6718    134.1687    196.8370   1.1701108641e+02   1.4201895667e+01    0.2194798    0.1903531  78.71 0.0004175237    1.208    0.172
         8 -10.8776     13.3794    238.4268   1.4716805690e+02   2.3104236051e+01    0.1158846   0.09603843  62.45 0.0004818454    1.308    0.235
         9  -9.7332    125.4350    235.4313   1.2498273167e+02   7.7142061658e+00    0.1354764    0.1164108  52.72 0.0002946416    1.010    0.010
        10 -12.7370    162.5995    181.1504   1.0742675104e+02   1.2022147062e+01     0.382556    0.2655586 -69.48  0.001669387    1.899    0.473
        11 -13.6820    187.9302    175.6803   1.0063680216e+02   7.9900951444e+00    0.8383046    0.4789647 -55.36  0.001764853    2.098    0.523
        12 -11.8921    186.9907    166.1955   9.8811020427e+01   1.0150841960e+01    0.4878983    0.3138013 -55.45  0.001770846    1.760    0.432
        13 -12.1310    117.0464    234.4888   1.2661941750e+02   9.3403283434e+00    0.2274147    0.1855415 -60.79 0.0005891177    1.378    0.274
        14 -12.7246    176.8896    169.5894   1.0176930881e+02   1.1552158393e+01    0.3953858    0.2329129 -56.16   0.00160788    1.977    0.494
        15 -12.2215    194.4921    172.1072   9.8476064057e+01   7.3820652765e+00    0.3772068     0.288211 -56.07  0.001217497    1.456    0.313
        16 -10.9111    240.3088    169.3343   8.8957058989e+01  -8.9317997411e-01    0.1418943    0.1022181  -5.94 0.0002662632    1.674    0.403
        17 -12.7318    160.6165    165.4239   1.0460263051e+02   1.5897636160e+01    0.4971281    0.2393016 -58.50  0.001700121    2.734    0.634
        18 -10.5712    150.5147    231.5213   1.1909919988e+02   4.0392242440e+00    0.3255772    0.1732945 -64.49   0.00137369    2.773    0.639
        19  -9.6905      4.4091    157.4863   1.4267975663e+02   4.1646983893e+01    0.1219083   0.09133264 -69.48 0.0007999602    1.137    0.120
        20 -10.8327     22.9492    156.1104   1.3806546007e+02   4.0438910128e+01    0.1904583    0.1569663 -78.26 0.0005117389    1.021    0.020
        21 -12.1749    188.2476    154.0655   9.5855292262e+01   1.2428228650e+01    0.7232853     0.406766  40.85  0.002966353    1.839    0.456
        22 -10.6553     17.4948    154.1517   1.3918078176e+02   4.1381987633e+01    0.1871023    0.1392955 -56.45 0.0004753637    1.298    0.229
        23 -12.5350    164.1977    152.3942   1.0087729166e+02   1.8031570471e+01    0.3540057     0.342525  44.90 0.0009062168    1.031    0.030
        24 -12.9991     27.3187    146.0485   1.3566816509e+02   4.2429941654e+01    0.5313742    0.3368615 -60.40  0.002578355    1.334    0.250
        25  -9.8911      8.2586    149.2978   1.4090506790e+02   4.3254575240e+01    0.1183369   0.07475717 -53.42 0.0002616663    1.504    0.335
        26 -11.3880    174.3563    148.7560   9.7708651913e+01   1.6598899499e+01    0.3627116    0.2861258 -77.41  0.001132199    1.576    0.366
        27 -11.1321    152.0000    228.0264   1.1823542756e+02   4.4346861405e+00    0.3661258    0.2182942 -53.47  0.001192547    1.925    0.481
        28  -9.6847    131.2366    230.3116   1.2302747145e+02   7.7064607272e+00    0.1218399    0.1063926  -8.67 0.0002240169    1.497    0.332
        29 -11.4255    126.8341    228.6056   1.2372356741e+02   8.8214731536e+00    0.3286938     0.247612  23.90  0.001752956    1.575    0.365
        30 -10.6215      6.5761    227.6876   1.4769544657e+02   2.5981413068e+01    0.1053071   0.08265746  79.01 0.0003023844    1.134    0.118
        31 -10.2856    147.4959    223.9291   1.1855396153e+02   6.0447153325e+00    0.1914792    0.1410639 -53.95 0.0006164673    1.524    0.344
        32 -12.8145    160.2580    127.6233   9.5926375888e+01   2.4395420033e+01    0.4755721    0.3613926 -59.72  0.001318067    1.418    0.295
        33 -10.6501    126.9097    220.3811   1.2249531423e+02   1.0485354460e+01    0.3455891     0.179922 -59.31  0.001136879    2.166    0.538
        34 -10.6669     22.1656    222.3251   1.4450025030e+02   2.5470635135e+01    0.1048919   0.06911106 -69.27 0.0002017214    1.487    0.328
        35 -10.5143     23.7053    123.5491   1.3336568905e+02   4.8062007556e+01    0.1975261    0.1285963   8.68  0.001100121    2.032    0.508
        36 -11.6589    152.3533    219.2628   1.1674018877e+02   6.0719171105e+00    0.2582084    0.2344488  34.49 0.0003209367    1.061    0.058
        37 -11.1175    115.0284    249.9808   1.2900313962e+02   6.6951737019e+00    0.1638695    0.1521424 -38.03  0.001070825    1.414    0.293
        38 -11.0806    231.2726    113.7782   7.8505923626e+01   1.1119123250e+01    0.2421219    0.2334175  77.99 0.0007172509    1.116    0.104
        39 -10.8410    167.7177    112.7127   9.0448441783e+01   2.5831680046e+01     0.323372    0.2268801 -83.09  0.001311471    2.067    0.516
        40 -11.6829    157.3504    217.6381   1.1537854551e+02   5.4659950581e+00    0.2966399    0.2091718  51.17  0.001280172    1.386    0.278
        41 -10.9232    205.3366    110.2409   8.2161075223e+01   1.7506235124e+01    0.3106193    0.2092561  48.95 0.0009876812    1.553    0.356
        42 -12.0132     24.5880    215.4310   1.4350941942e+02   2.6680993463e+01    0.1904314    0.1535974  75.06  0.001324439    1.102    0.093
        43 -13.5878     11.7046    205.8491   1.4527090104e+02   3.0097329848e+01    0.4385938    0.3548235  14.02  0.002525845    1.936    0.483
        44 -11.1676      3.3946    245.3738   1.4924163002e+02   2.2776528155e+01    0.1518779    0.1026638  17.56 0.0009396879    2.904    0.656
        45 -10.7275     99.4762     81.0244   9.9468268014e+01   4.7272475181e+01    0.2069422    0.1874398  27.10 0.0001435196    1.082    0.076
        46 -14.3795    151.8437     63.1721   8.0500408376e+01   3.8823291049e+01     1.159326    0.9060283  32.90 0.0009703513    1.416    0.294
        47 -11.1996     29.9576    245.9134   1.4477016282e+02   1.9747429644e+01    0.2026952    0.1255119 -89.52  0.001003382    1.366    0.268
        48 -13.4623    167.9430     40.5215   7.1074649482e+01   3.8153519930e+01     0.452764    0.4288853  72.14 0.0008805192    1.094    0.086
        49 -11.0529     13.4939     59.9381   1.2378738664e+02   6.2458890936e+01    0.1719611    0.1567594  19.72 0.0004357437    1.396    0.284
        50 -11.2426    135.7526    237.5306   1.2310947095e+02   5.5157575819e+00    0.3577504    0.2967806 -62.98  0.001922306    1.376    0.273
        51 -10.5256    128.1958    245.2886   1.2574043852e+02   5.3618603694e+00    0.1081151   0.09874094 -12.31 0.0001853345    1.422    0.297
