#   1 NUMBER                 Running object number                                     
#   2 MAG_AUTO               Kron-like elliptical aperture magnitude                    [mag]
#   3 X_IMAGE                Object position along x                                    [pixel]
#   4 Y_IMAGE                Object position along y                                    [pixel]
#   5 X_WORLD                Barycenter position along world x axis                     [deg]
#   6 Y_WORLD                Barycenter position along world y axis                     [deg]
#   7 A_WORLD                Profile RMS along major axis (world units)                 [deg]
#   8 B_WORLD                Profile RMS along minor axis (world units)                 [deg]
#   9 THETA_WORLD            Position angle (CCW/world-x)                               [deg]
#  10 FWHM_WORLD             FWHM assuming a gaussian core                              [deg]
#  11 ELONGATION             A_IMAGE/B_IMAGE                                           
#  12 ELLIPTICITY            1 - B_IMAGE/A_IMAGE                                       
         1 -11.3679     79.8120     54.5288   1.0072799754e+02   5.7768697560e+01     1.121593    0.7004746  15.11  0.001326582    2.498    0.600
         2 -11.5351     21.3984     29.4077   1.2305337005e+02   7.1918471993e+01     1.520714     1.077193  24.18  0.007309994    1.519    0.342
         3 -10.9503     40.0786      3.1755   9.4066382118e+01   7.4615155299e+01    0.5138204    0.3351844  36.47  0.001415219    1.451    0.311
         4 -11.9337     26.4128      5.7167   1.0643188234e+02   7.6283403019e+01     1.222955    0.7868322  47.57  0.005450346    2.193    0.544
         5 -11.1822      6.1797     17.6792   1.3079136805e+02   7.5494169423e+01     1.069079    0.4542941 -43.15  0.005199909    1.896    0.473
         6 -10.4757     10.4439     10.2809   1.2381240740e+02   7.6905659527e+01    0.4281137    0.2751062 -42.12 0.0006772488    1.285    0.222
         7 -10.6988     16.8716     10.0186   1.1766879492e+02   7.6484392400e+01    0.3806768    0.2691453 -27.41 0.0003645567    1.242    0.195
         8 -11.7236      9.0174      3.4259   1.2156091973e+02   7.8420957413e+01    0.9865464    0.3247259  17.59  0.004206334    3.087    0.676
         9 -10.7793     26.7774     15.1882   1.1216865498e+02   7.4455775340e+01    0.5435725    0.4165387 -54.22  0.002081921    1.435    0.303
        10 -11.1634     20.3103     14.6261   1.1718203268e+02   7.5233994840e+01    0.7786924    0.4334909 -21.78   0.00383458    1.956    0.489
        11  -9.6617     45.7173     33.0109   1.0840270037e+02   6.8353478599e+01    0.3300045    0.2414727 -57.33 0.0009082987    1.540    0.351
        12  -9.6958     58.4435     18.3299   9.3242116399e+01   6.8882355336e+01    0.3995693    0.2662256  19.02  0.001095415    1.705    0.414
        13 -12.2642     68.8233     11.7003   8.4291128514e+01   6.7644351139e+01    0.4063307    0.2885386  43.03  0.000291751    1.287    0.223
        14  -8.9563    161.2314     10.3979   6.2341894741e+01   4.3129165022e+01    0.3030471    0.2138219  38.72 0.0007737514    1.660    0.398
        15  -9.0215     48.7492     10.1679   9.3517142694e+01   7.2014551561e+01    0.2442882    0.2143209  -1.96 0.0003937927    1.050    0.048
        16 -10.5218     80.5794      6.3490   7.6627549949e+01   6.5484002035e+01    0.5351348    0.3817695  79.18   0.00106035    1.685    0.407
        17  -8.7196    144.7597      4.3824   6.2225364124e+01   4.8251691359e+01    0.3330105     0.190752  41.04  0.001456485    1.986    0.496
        18  -9.4696    158.1195      1.4169   5.9618381115e+01   4.4812014681e+01    0.4404337    0.1310817  77.14  0.001233976    3.175    0.685
        19  -8.0913     55.7591      1.5963   8.3713167924e+01   7.1764085598e+01    0.1832352    0.1270819  60.19 0.0008457163    1.622    0.384
        20  -8.5776    191.3572    241.6691   1.1188616797e+02   9.1680887026e-01    0.2113142    0.1917272  34.51  0.001192862    1.648    0.393
        21  -9.0182    250.0166    250.4326   1.0312442333e+02  -6.7789491859e+00    0.1416643   0.08358894  17.90 0.0004110263    1.210    0.173
        22  -8.5702    232.0234    250.7404   1.0604198494e+02  -4.8881448238e+00    0.2174902   0.06744272  31.68 0.0009302896    2.504    0.601
        23  -9.0353    202.5454    250.0450   1.1097538387e+02  -1.4103301025e+00    0.2610227    0.1171132  26.13 0.0007542474    1.674    0.403
        24  -9.0302    198.0036    250.5863   1.1185392740e+02  -9.1771238245e-01    0.1611381   0.07907022  29.42 0.0003600652    1.498    0.332
        25  -8.3196    190.0623    249.6790   1.1317027050e+02   1.6129042921e-01     0.192565    0.1032117  20.03  0.001187617    1.493    0.330
        26  -8.5770    183.2247    250.6872   1.1455137027e+02   9.0232526867e-01    0.1512373   0.07509547  25.95 0.0002807667    1.502    0.334
        27  -8.6027    166.2223    250.1738   1.1767859910e+02   3.1343964612e+00    0.1644389    0.1151042  45.69  0.001100959    1.702    0.412
        28  -7.9672    147.7537    245.2557   1.2070138420e+02   6.1980777875e+00     0.205241    0.1498454 -31.44  0.001415981    1.740    0.425
        29 -10.0199    156.8965    246.1991   1.1900984317e+02   4.8577929760e+00    0.3977803    0.2219306   9.01  0.000542605    2.273    0.560
        30  -9.3255    151.8336    244.4868   1.1980537681e+02   5.7565667475e+00     0.205149    0.1862559  24.86 0.0003594905    1.311    0.237
        31  -8.1062    150.1937    249.8303   1.2073439364e+02   5.2681245987e+00    0.1502643     0.106102  15.45 0.0003931744    1.277    0.217
        32  -8.6399    135.6306    250.5868   1.2368530420e+02   7.0789866714e+00     0.404025   0.09245654  30.94  0.001464833    3.778    0.735
        33 -10.1920    124.9548    248.5048   1.2561081554e+02   8.7713687573e+00    0.2184211    0.1988352  53.35 0.0005391247    1.359    0.264
        34  -8.4036    114.7061    249.7380   1.2779727837e+02   9.9311189252e+00    0.3484511    0.1731117  12.79  0.001478655    3.751    0.733
        35  -8.3315    108.4612    249.6482   1.2905364412e+02   1.0750183007e+01    0.1193051    0.1087555  -7.20  0.000914108    1.420    0.296
        36  -8.6315     89.2617    249.3522   1.3293162747e+02   1.3220328260e+01    0.3182785    0.1083399  41.71  0.001590992    2.039    0.510
        37  -9.7506     71.6468    250.0168   1.3654791615e+02   1.5243924449e+01     0.314201    0.1401259  46.71 0.0006133477    1.663    0.399
        38 -10.3818     61.8521    248.9344   1.3845691356e+02   1.6551997040e+01    0.2190496    0.1761843  28.73 0.0004222208    1.311    0.237
        39 -10.5420     47.4931    250.2426   1.4138586284e+02   1.7928888478e+01     0.382448     0.129112  30.29  0.001922538    2.349    0.574
        40 -10.1142     16.3511    249.1472   1.4737731358e+02   2.1227660855e+01    0.2551393    0.1822825  19.42  0.001190515    1.710    0.415
        41  -9.8381      8.9658    248.5331   1.4875300260e+02   2.1999544177e+01    0.2098457    0.1408603  38.27 0.0004560511    1.243    0.196
        42  -7.9752      1.6883    250.6826   1.5013515136e+02   2.2279003709e+01    0.1435728   0.06015591  38.73 0.0006946342    1.575    0.365
        43 -10.1582     94.8101    245.0445   1.3145815198e+02   1.3196420143e+01    0.2328217    0.1700262  30.32 0.0003732232    1.167    0.143
        44  -8.8491     90.5329    245.4694   1.3237417852e+02   1.3668980271e+01    0.1923845    0.1303417  39.48 0.0008168698    1.065    0.061
        45  -7.7822     66.5799    245.9290   1.3732367547e+02   1.6496808761e+01    0.1227017   0.09004533 -33.68 0.0005532595    2.207    0.547
        46  -8.4191    249.0193    245.4682   1.0258020773e+02  -6.2267203176e+00    0.1429739   0.07446451  24.42 0.0003481032    1.474    0.322
        47 -10.9850    234.2494    243.1879   1.0462267180e+02  -4.4064028343e+00    0.3108969    0.1759479  -1.96 0.0006256518    1.559    0.358
        48  -9.2458    240.7070    239.0898   1.0298408364e+02  -4.7265456261e+00    0.2102693    0.1099944  21.81 0.0003668741    1.445    0.308
        49  -9.0720    163.3793    244.5634   1.1755315850e+02   4.2107195759e+00    0.2006045    0.1501182  29.27 0.0005308449    1.138    0.121
        50  -8.6911    133.5833    245.0509   1.2351688714e+02   8.1190257085e+00    0.1688898    0.1223765  31.54 0.0003653445    1.017    0.017
        51  -9.6365    113.8439    244.0904   1.2744829969e+02   1.0880269225e+01    0.1947805    0.1660599  14.39 0.0003720802    1.288    0.224
        52  -8.4393     48.1279    244.3335   1.4098333117e+02   1.8838875170e+01    0.1734363    0.1405366 -44.13  0.001272513    1.880    0.468
        53  -9.8063     41.2685    244.4400   1.4236654748e+02   1.9553471241e+01     0.200619    0.1555386  36.15 0.0005348483    1.238    0.192
        54  -8.7260    219.6381    244.0266   1.0718645532e+02  -2.8140639349e+00    0.2028937    0.1181657  35.76  0.001338343    1.770    0.435
        55  -8.5571     19.6241    243.9265   1.4661544574e+02   2.1797920335e+01     0.169261    0.1160635  35.17 0.0004998207    1.292    0.226
        56  -8.6878     18.3273    239.2138   1.4673937581e+02   2.2728315239e+01    0.2969481    0.1288779  75.05  0.001750227    2.205    0.546
        57  -8.0488    177.1661    242.8520   1.1469455574e+02   2.6105517160e+00    0.1587243    0.1032242  14.65 0.0005008625    1.298    0.230
        58  -7.5282     87.3374    243.2500   1.3286332490e+02   1.4422343198e+01     0.108398   0.07874933  15.97 0.0003479481    1.564    0.361
        59  -8.7326     88.7547    240.7079   1.3236932985e+02   1.4654537060e+01    0.2518212    0.1024968  49.00  0.001261723    2.147    0.534
        60  -9.6988    170.2376    239.9398   1.1565034995e+02   3.8905469174e+00    0.2940071    0.2017251  36.67  0.001562759    1.352    0.260
        61  -7.6315    142.2705    242.6827   1.2150733393e+02   7.2860213187e+00    0.1099186   0.07681112  48.50 0.0002202504    1.560    0.359
        62  -9.5493    111.6575    237.8550   1.2730697693e+02   1.2127145134e+01    0.3911631    0.2510165  10.52  0.001609017    1.975    0.494
        63 -10.4839    104.1690    241.1184   1.2917983503e+02   1.2606440721e+01    0.2919799    0.2333137  41.26 0.0005332291    1.106    0.096
        64  -8.9855     98.1206    238.6620   1.3023105969e+02   1.3784890169e+01    0.3383051     0.177094 -74.65  0.001840282    2.875    0.652
        65  -9.6386    214.7886    238.9416   1.0730955594e+02  -1.6991417657e+00    0.1892388    0.1503585  -3.06 0.0004149976    1.301    0.231
        66 -10.8110    222.5350    203.3789   1.0047993003e+02   1.4061840624e+00    0.7855898    0.4264639  38.86   0.00410547    1.931    0.482
        67 -12.9626    188.7364    191.3479   1.0474472188e+02   7.9488257271e+00    0.8409567    0.7139932  24.04  0.004696277    1.185    0.156
        68 -10.6043    201.5867    238.9879   1.0965632217e+02  -7.2118206323e-02    0.6147753    0.4663813 -64.21  0.000883107    3.670    0.728
        69 -11.5187    199.5347    201.3745   1.0433699073e+02   4.8960210111e+00    0.5752979    0.3996292  26.21  0.002227232    1.209    0.173
        70 -11.4157    207.9446    232.3858   1.0758086680e+02  -1.2287287804e-01    0.8276957    0.3841313  20.94  0.002975955    1.920    0.479
        71 -10.2679    221.9421    225.6263   1.0411906360e+02  -1.1179027215e+00    0.6495015    0.2804132  14.23  0.003005854    2.992    0.666
        72 -10.2332    206.9091    205.9698   1.0371252969e+02   3.2314137582e+00    0.3254012    0.2271223   6.97 0.0003076204    1.213    0.176
        73 -13.3276    205.7330    194.1270   1.0194510828e+02   4.9728876703e+00     1.682568    0.9895466  23.36  0.009462525    1.498    0.332
        74 -11.1945    211.6470    217.3123   1.0465701518e+02   1.1683178100e+00    0.6971128    0.4138396  21.94   0.00263983    1.346    0.257
        75 -11.3089    227.1860    215.8006   1.0169576018e+02  -6.6836457240e-01    0.7442269    0.4788695  17.00  0.003652491    1.206    0.171
        76 -10.5437    233.6310    210.5013   9.9756086844e+01  -8.7975111045e-01    0.3849266     0.238931  -7.37  0.001032661    1.408    0.290
        77  -7.7953    155.3925    241.1804   1.1871174654e+02   5.7213713222e+00    0.1174704    0.1151308  49.12 0.0003456179    1.488    0.328
        78  -9.6643    126.5147    240.4010   1.2447029556e+02   9.7412365303e+00    0.2138258    0.1820715  25.71   0.00155723    1.162    0.139
        79  -9.8856     69.1906    240.1260   1.3641996851e+02   1.7151677735e+01    0.2127914    0.1503559  33.57 0.0004111907    1.196    0.164
        80 -10.0297     34.7456    239.5156   1.4347490442e+02   2.1070915639e+01    0.4181507    0.1227252  46.01  0.001669894    2.145    0.534
        81 -10.6272     35.5894    231.9638   1.4299335707e+02   2.2314767579e+01    0.3569869    0.2024525 -79.10  0.001215859    2.003    0.501
        82 -10.3124     25.2589    239.4820   1.4537556981e+02   2.2021700559e+01    0.2100055    0.1923281   8.78 0.0006583979    1.568    0.362
        83  -9.5208    135.8011    239.2676   1.2244001745e+02   8.6475729187e+00    0.3361812    0.1798003  44.15  0.001905724    1.687    0.407
        84  -9.2202    118.3353    239.3283   1.2605521234e+02   1.1004360903e+01    0.1973005    0.1501902  36.43 0.0003230195    1.056    0.053
        85  -9.4597     61.9088    239.7661   1.3791389678e+02   1.8066311591e+01    0.1849834    0.1580055  32.98 0.0004395151    1.267    0.211
        86 -10.2888     10.5548    239.0243   1.4825377428e+02   2.3470578390e+01    0.2527181    0.1606925  42.49 0.0004558222    1.167    0.143
        87  -9.4897      3.5095    235.5474   1.4955137292e+02   2.4690494421e+01    0.2422453    0.1427732  38.49  0.001716762    1.309    0.236
        88  -9.5175    149.4616    238.1953   1.1954079960e+02   6.9344386905e+00    0.2106823    0.1631835  20.87 0.0004564874    1.093    0.085
        89  -8.8110    148.8760    232.7050   1.1899694403e+02   7.7904925256e+00    0.2087799    0.1920193 -67.48  0.001472923    1.597    0.374
        90  -9.7661     41.7672    236.8132   1.4192826266e+02   2.0810488747e+01    0.2409093    0.1707199  67.58  0.001370819    1.299    0.230
        91  -9.4805    220.5250    237.9849   1.0618219896e+02  -2.2877385591e+00    0.2096084    0.1188497  25.94 0.0004758728    1.355    0.262
        92  -8.0872    225.3272    236.2178   1.0510920451e+02  -2.6730160128e+00    0.1614595    0.1061589  15.30 0.0003950939    1.085    0.079
        93  -7.6520     48.4738    238.5201   1.4062793112e+02   1.9791652536e+01     0.115268    0.0837741  46.42 4.443075e-05    1.021    0.021
        94  -8.1474    183.6877    237.0856   1.1270359511e+02   2.4623627171e+00    0.1545824    0.1186426  13.39 0.0004554489    1.091    0.083
        95  -7.9947     89.6461    224.7538   1.3083499080e+02   1.7234689509e+01    0.1358733     0.123688 -28.40 0.0004001344    1.458    0.314
        96 -10.1397     91.4640    236.3574   1.3144335587e+02   1.5021269582e+01    0.2158246     0.187329  29.11 0.0003578081    1.217    0.178
        97 -11.1015     93.3624    228.4976   1.3035308804e+02   1.6095369376e+01      0.37633    0.3147646   2.96 0.0009750811    1.495    0.331
        98  -9.8406     78.2893    235.9959   1.3421637665e+02   1.6744823434e+01    0.4482814    0.1399677  39.74  0.000520171    2.158    0.537
        99  -7.6306     51.6436    237.7139   1.3993066255e+02   1.9581918230e+01    0.1015386   0.08324696   6.17 0.0004015704    1.674    0.403
       100  -9.6117    140.4424    234.9217   1.2099308448e+02   8.6417812905e+00     0.223611    0.1699781  20.90 0.0004429895    1.139    0.122
       101  -8.8957    129.9361    235.3486   1.2321883797e+02   1.0029160694e+01    0.1782032     0.157989  12.06 0.0002640844    1.236    0.191
       102 -10.1974    171.7566    233.5318   1.1452337107e+02   4.5154877457e+00    0.2797105    0.2135631  32.21  0.001933656    1.241    0.194
       103  -8.1286    119.6365    234.1516   1.2525243661e+02   1.1626492181e+01     0.198631    0.1195334 -73.62  0.001092765    2.726    0.633
       104  -8.5938     64.9615    234.3846   1.3693771859e+02   1.8633775899e+01    0.1604718    0.1295511  50.24 0.0003448061    1.107    0.097
       105 -10.2552    192.2270    233.2749   1.1057834887e+02   1.8028021591e+00    0.2289633    0.1699289  14.08 0.0004430629    1.044    0.042
       106  -8.9647    153.2134    233.1885   1.1817334533e+02   7.1180698361e+00    0.1904798    0.1432496  25.94 0.0004194546    1.009    0.009
       107  -9.1665    108.5485    233.3332   1.2752590948e+02   1.3263053199e+01    0.2086584    0.1602943  29.50 0.0003525217    1.118    0.106
       108  -8.7407    231.0513    232.9646   1.0367051788e+02  -3.0084819308e+00    0.1637203     0.117496  12.83 0.0006027585    1.118    0.106
       109  -8.5352    176.8746    232.8843   1.1344141729e+02   3.9036282443e+00    0.1721319    0.1230222  14.45 0.0003818809    1.147    0.128
       110  -8.0145    166.2175    232.8222   1.1551983678e+02   5.3687716504e+00    0.1591997    0.1096331  15.08 0.0003880585    1.265    0.209
       111 -10.0673     10.4323    231.6678   1.4811262088e+02   2.4776695325e+01    0.2164053    0.1820254  36.49 0.0007564045    1.339    0.253
       112 -10.0868    250.3306    231.5686   1.0034188583e+02  -5.0569001278e+00    0.1764941    0.1154973 -14.08  0.001327641    1.340    0.254
       113  -9.6152    123.4058    231.0359   1.2412076478e+02   1.1594624608e+01    0.2532468    0.1493077  33.73 0.0004200604    1.281    0.219
       114  -9.8666    100.5985    231.2183   1.2903109391e+02   1.4676056078e+01    0.2318284    0.1915223  13.09  0.000410976    1.364    0.267
       115  -9.3871     85.4160    231.1273   1.3230730114e+02   1.6677558363e+01    0.2681105    0.2156584 -15.39  0.001520776    1.786    0.440
       116  -9.1139     55.4276    231.1738   1.3877052832e+02   2.0305108347e+01    0.1843307    0.1542727  24.63 0.0005529358    1.360    0.265
       117  -9.5966    132.9622    230.2265   1.2200674544e+02   1.0386020784e+01     0.365242    0.1842132  32.53  0.001970368    1.514    0.340
       118  -8.2866    226.3090    230.1145   1.0404554355e+02  -2.1433664048e+00    0.1464003    0.1067607   7.33 0.0004167765    1.078    0.072
       119  -9.0388    158.9519    229.6301   1.1655855826e+02   6.8172635032e+00    0.2180436    0.1692298  -7.25 0.0002652253    1.396    0.284
       120  -9.7687    162.2653    224.2559   1.1517371016e+02   7.1084955871e+00    0.4065674    0.2559935  52.87  0.001748955    2.240    0.554
       121  -9.7979    113.9985    228.9523   1.2591337571e+02   1.3229894102e+01    0.3102734    0.2110615  37.55  0.001080196    1.124    0.110
       122  -9.8843     45.2398    229.2137   1.4083469628e+02   2.1790314695e+01    0.2517305    0.1783692  26.09  0.000508493    1.445    0.308
       123  -8.5486    144.5590    229.2778   1.1946628933e+02   8.8955334133e+00    0.2310588    0.1331155  31.37  0.001327804    1.326    0.246
       124  -9.2227     79.1954    228.7291   1.3346658354e+02   1.7883831370e+01    0.1993721    0.1652278  30.44 0.0003421264    1.209    0.173
       125  -9.0039     29.5963    228.9798   1.4412064793e+02   2.3460434322e+01    0.1787665     0.165238   3.42 0.0003951901    1.543    0.352
       126  -8.8770     32.9769    226.0898   1.4329385843e+02   2.3649734213e+01    0.3368823    0.0583739  39.38  0.001438607    2.838    0.648
       127 -10.4401      7.9473    216.1617   1.4825899056e+02   2.7859306279e+01    0.3740811    0.2651873 -30.21  0.000600327    2.451    0.592
       128 -10.3046      7.5572    226.0759   1.4856492457e+02   2.6040075140e+01    0.3138524    0.2834865 -28.23  0.001146812    1.723    0.420
       129 -10.3172      1.8549    226.7753   1.4972413632e+02   2.6395587461e+01    0.4698178    0.1558363 -82.13   0.00131219    3.097    0.677
       130 -10.3960    236.3434    226.4337   1.0181260939e+02  -2.9490966278e+00    0.2549731    0.1884234   9.80  0.001123808    1.146    0.128
       131  -9.5301    160.4336    218.5583   1.1476723023e+02   8.1984630743e+00    0.3401235    0.2650531  69.44  0.000899347    2.195    0.545
       132  -8.6350    153.0151    228.0751   1.1756829927e+02   7.8754971584e+00    0.1835816    0.1407917  26.01 0.0003745699    1.018    0.018
       133  -8.2733    107.2485    228.2675   1.2730506371e+02   1.4269000664e+01    0.1722641    0.1329691  30.00 0.0006367022    1.114    0.102
       134  -8.0705     64.0260    227.1446   1.3666185633e+02   2.0026208027e+01    0.2395672    0.1397702 -37.16  0.001224203    3.135    0.681
       135 -10.1412     19.6184    226.8683   1.4611852747e+02   2.4809796764e+01    0.2240295    0.1944646  50.63 0.0005701791    1.251    0.201
       136  -8.7610    175.5909    227.1853   1.1291252142e+02   4.8275871750e+00    0.1952138    0.1297147  26.10 0.0003446891    1.146    0.128
       137  -7.6640    139.0379    227.4560   1.2039880529e+02   9.9510937142e+00    0.1745348    0.0961244  31.85  8.57452e-05    1.397    0.284
       138  -9.7386    229.4115    225.7993   1.0287091441e+02  -2.0535884989e+00    0.1950364    0.1380179   8.12 0.0003870477    1.013    0.013
       139  -9.6114    200.1586    225.2298   1.0795124992e+02   1.7327676714e+00    0.1862446    0.1460356   6.58 0.0003448799    1.122    0.109
       140  -8.5038    185.1667    226.1690   1.1091068774e+02   3.6396218057e+00    0.1746601    0.1260756  10.29 0.0004241294    1.166    0.142
       141  -9.8857    129.5981    223.8435   1.2197742004e+02   1.1860750484e+01    0.3067245    0.2041759  19.01 0.0003816847    1.465    0.317
       142  -9.0855    120.9091    224.8009   1.2396806176e+02   1.2941695118e+01    0.1851179    0.1705967  45.28 0.0002687156    1.228    0.186
       143  -8.6178    109.9334    224.3892   1.2632125208e+02   1.4547968526e+01    0.1870956    0.1482031  49.31  0.000503676    1.205    0.170
       144 -10.4913    249.0180    223.0891   9.9254165076e+01  -4.0699696244e+00    0.2407214    0.1689405  -5.79 0.0004810734    1.163    0.140
       145  -9.1869    191.6618    224.1284   1.0937767597e+02   3.0132766448e+00    0.2048365     0.132201  22.15 0.0004797977    1.194    0.163
       146  -8.0187    170.7977    223.9778   1.1341570420e+02   5.9347081114e+00    0.1582202    0.1280491  16.57 0.0003236549    1.089    0.082
       147  -8.5150    155.9778    223.9814   1.1642466672e+02   8.0479519440e+00    0.1809671    0.1410026  25.68            0    1.033    0.032
       148  -8.5743    104.6042    223.9186   1.2744638471e+02   1.5364284951e+01    0.1938279    0.1419388  26.51 0.0004450086    1.231    0.188
       149  -8.7876    135.9249    223.0967   1.2052818648e+02   1.1070651009e+01    0.2250287    0.1446833  31.97 0.0007294451    1.204    0.169
       150  -8.9562     83.0198    223.0315   1.3215679041e+02   1.8405842294e+01    0.1822686    0.1435592  39.21 0.0003508485    1.059    0.056
       151  -8.4901     75.3590    222.6662   1.3383452498e+02   1.9449609118e+01    0.1979604    0.1385202  49.64 0.0005587939    1.162    0.139
       152 -10.8053     50.0799    219.2160   1.3923182396e+02   2.3107262017e+01    0.6571035    0.3819596  62.12  0.003937036    1.549    0.354
       153  -9.1583     59.8750    220.7892   1.3715033448e+02   2.1683976393e+01    0.1871939    0.1682398  40.71 0.0004485273    1.226    0.184
       154  -9.5831     40.3325    220.7929   1.4146711992e+02   2.3873746308e+01     0.192282    0.1664045  47.80 0.0004117567    1.196    0.164
       155  -8.6637    175.0429    221.4286   1.1221075894e+02   5.6839799730e+00    0.2013524    0.1797927  31.94 0.0006610537    1.373    0.272
       156  -8.6255    115.1802    221.8883   1.2489776837e+02   1.4233664203e+01    0.1835718    0.1484288  29.50 0.0004995596    1.087    0.080
       157  -8.7791     97.8050    221.9689   1.2876154423e+02   1.6631544095e+01    0.1739323    0.1456488  21.59 0.0003932832    1.245    0.197
       158  -8.2875     92.7167    221.9898   1.2989945270e+02   1.7314442400e+01    0.1602671    0.1357032  44.70 0.0003157208    1.101    0.092
       159  -9.7455     15.9896    221.2852   1.4670520986e+02   2.6180442033e+01    0.2123509     0.196794  39.28 0.0005907539    1.372    0.271
       160  -9.6364    186.0413    220.1976   1.0987593270e+02   4.2987352509e+00    0.1911615    0.1689337 -17.88 0.0004521235    1.398    0.285
       161  -8.4422    181.0176    221.0389   1.1097653272e+02   4.8918559600e+00     0.186897    0.1390832  15.72 0.0004437773    1.065    0.061
       162  -9.3405    141.2832    220.4352   1.1904823337e+02   1.0711477212e+01     0.208536    0.1761019  29.99 0.0007962612    1.110    0.099
       163  -8.2735    124.8211    221.2217   1.2270538399e+02   1.2970217261e+01    0.1653512    0.1275959  15.45 0.0004103062    1.304    0.233
       164  -8.3747     68.3243    221.0196   1.3527963270e+02   2.0625287121e+01    0.1569221    0.1320536  52.45 0.0004815068    1.113    0.102
       165  -7.5162    166.2990    220.2977   1.1380772724e+02   7.0944960485e+00    0.1232614   0.08133755   7.94 0.0006993418    1.575    0.365
       166  -8.8482    109.0206    219.6674   1.2602217525e+02   1.5480794493e+01    0.1778818    0.1602767  12.53 0.0004909044    1.249    0.199
       167  -8.1073     87.9645    220.4557   1.3082332655e+02   1.8221380260e+01    0.1857549   0.09863928  34.02 3.323718e-05    1.482    0.325
       168  -8.9676    130.0256    218.9855   1.2130008325e+02   1.2583958080e+01    0.1995965    0.1519839  31.38 0.0005381656    1.028    0.027
       169  -8.4636    104.4653    219.0331   1.2697448242e+02   1.6229097460e+01    0.1496846    0.1272992 -67.11 0.0003923612    1.484    0.326
       170 -10.2895    194.6732    216.7620   1.0770713795e+02   3.5441536059e+00    0.2747508    0.2000978   1.92  0.000248282    1.218    0.179
       171  -8.8704    137.0363    218.2088   1.1967794284e+02   1.1685170509e+01    0.1890316    0.1406128  19.41 0.0003940392    1.230    0.187
       172  -8.6360    120.1042    217.4302   1.2330075098e+02   1.4282766913e+01    0.1807157    0.1635766  -0.39 0.0003690395    1.276    0.217
       173  -7.5339     95.9935    218.0467   1.2878354221e+02   1.7574017459e+01    0.1481715    0.1177645  40.82  0.000342113    1.021    0.020
       174  -8.2209     72.6034    217.2083   1.3402108035e+02   2.0803389474e+01    0.1403857    0.1141286 -57.73 0.0003388091    1.570    0.363
       175  -8.5506     56.1502    216.6566   1.3771157431e+02   2.2900198253e+01    0.1899659    0.1437459  85.90 0.0007420922    1.415    0.293
       176  -8.7352     21.8691    216.8228   1.4530991954e+02   2.6482176963e+01    0.1539949    0.1358434  45.88 0.0004650468    1.261    0.207
       177  -9.5611    180.2005    216.0177   1.1039888418e+02   5.6923486184e+00    0.1750889    0.1440118  30.12 0.0006193186    1.264    0.209
       178  -8.4482    124.8753    215.8330   1.2204984324e+02   1.3858950023e+01    0.1840193    0.1460233  23.70 0.0003374599    1.138    0.122
       179  -8.1215     91.0498    216.3404   1.2974035649e+02   1.8555050431e+01     0.178175     0.129881  40.01 0.0004902171    1.070    0.066
       180  -9.0636     83.0409    215.8978   1.3152881305e+02   1.9704935112e+01    0.1849826    0.1498259  38.00 0.0003420447    1.084    0.077
       181  -9.3439    171.9683    214.3936   1.1180724945e+02   7.1166012695e+00    0.2010071    0.1612703  -3.60 0.0004596876    1.238    0.192
       182  -8.7818    144.0339    215.0055   1.1774671864e+02   1.1163146911e+01    0.1942514     0.151561  25.90 0.0004356945    1.035    0.034
       183  -7.5612    101.3994    215.4377   1.2729069689e+02   1.7295072426e+01    0.1293737   0.09862749  44.88 0.0007964158    1.107    0.097
       184  -9.8490    248.6666    212.8375   9.7689137904e+01  -2.9679453842e+00    0.2542334    0.1507628  -9.90  0.000554484    1.412    0.292
       185  -9.1189    132.7425    213.7697   1.2004951182e+02   1.3044067700e+01    0.2031781    0.1616364  16.94 0.0003202168    1.205    0.170
       186  -8.7365    111.7093    213.4109   1.2472257972e+02   1.6191863278e+01    0.1843619    0.1458913 -20.54 0.0002973891    1.655    0.396
       187 -10.5381    193.9132    208.4900   1.0656493938e+02   4.7466446358e+00     0.330572    0.2573166  17.11 0.0009545844    1.052    0.049
       188 -10.7495    184.5812    206.5539   1.0807901114e+02   6.3766711590e+00    0.4046781    0.2135184  27.61  0.001502374    1.608    0.378
       189 -10.5297    187.0734    212.6969   1.0854617637e+02   5.1597411870e+00    0.3008869    0.2011324   8.76 0.0001785195    1.397    0.284
       190  -8.1216    155.0448    213.4447   1.1517851511e+02   9.7653035610e+00    0.1946178    0.1021979  31.77 0.0004670585    1.530    0.346
       191  -9.0123    117.9919    212.9943   1.2325001917e+02   1.5352660159e+01    0.1963034    0.1586727  30.58 0.0004377176    1.058    0.055
       192  -8.0389     74.9031    212.8563   1.3313570228e+02   2.1334162208e+01    0.1722667    0.1483863  27.25 0.0002875489    1.242    0.195
       193  -7.9525     63.5117    213.4960   1.3581347123e+02   2.2632002574e+01    0.1244646    0.0987344  45.81 -6.621318e-05    1.038    0.037
       194  -8.7368     41.8420    212.8603   1.4071670900e+02   2.5235908023e+01    0.1621263     0.141935  42.54 0.0003843623    1.214    0.176
       195  -7.6373     32.7227    213.2894   1.4278523073e+02   2.6104178512e+01    0.1230424   0.06362095  54.85 0.0002836842    1.519    0.342
       196  -9.1959    176.9859    211.2660   1.1032596353e+02   6.8278304626e+00    0.3161483    0.1410995 -24.35  0.001303109    3.576    0.720
       197  -9.1357     98.7206    211.4836   1.2748847390e+02   1.8389495459e+01    0.2721278    0.2034749   5.40  0.001380413    1.699    0.411
       198  -9.6044     25.0810    210.8929   1.4438296185e+02   2.7328680267e+01     0.270034    0.1865568  70.04  0.001154971    1.257    0.205
       199  -9.6514     17.6255    211.3765   1.4604534741e+02   2.7931311404e+01    0.2116916    0.1733736  61.71 0.0003584878    1.132    0.117
       200  -9.5257     16.2087    207.2161   1.4622008953e+02   2.8880895457e+01    0.2433796    0.2113385  -0.79  0.001274508    1.631    0.387
       201  -9.2541    125.0856    211.0907   1.2141648780e+02   1.4636427066e+01    0.1968971    0.1542374  32.10 0.0003672812    1.025    0.024
       202  -8.6852    200.9216    209.7262   1.0543170802e+02   3.5852075234e+00    0.1671898    0.1235341  17.63  0.000271423    1.058    0.055
       203  -8.6162    162.0767    209.4847   1.1312464426e+02   9.3168027683e+00    0.1782074    0.1550468   7.78 0.0004565814    1.146    0.128
       204  -8.5056    141.0234    210.0729   1.1773543105e+02   1.2413268461e+01    0.1958675    0.1388157   6.34 0.0007635578    1.601    0.375
       205  -8.7928    107.3513    210.1561   1.2534919631e+02   1.7404180592e+01     0.211617    0.1483049  26.71 0.0004309643    1.293    0.226
       206  -9.8749     67.2995    208.1708   1.3452116747e+02   2.3202881350e+01    0.2613825    0.2191295 -84.98 0.0008984005    1.349    0.259
       207  -8.3797     93.8023    209.1658   1.2838906780e+02   1.9508015410e+01    0.1653317    0.1386597  13.89 0.0003739293    1.344    0.256
       208  -9.1417    149.8043    207.9038   1.1551457650e+02   1.1430684161e+01    0.1872368    0.1472064  12.14  0.000323685    1.212    0.175
       209  -9.0176    134.0220    208.4895   1.1907349479e+02   1.3738949562e+01    0.1974803    0.1068813  32.93 0.0009991785    1.496    0.332
       210  -8.9118    114.9674    207.5598   1.2328626533e+02   1.6761470343e+01    0.1821203    0.1608353  36.87 4.811188e-05    1.097    0.088
       211  -8.6268     78.9897    208.2190   1.3177391447e+02   2.1695217864e+01    0.1804561    0.1531865  25.38 0.0004643407    1.247    0.198
       212  -8.0523     72.5126    208.1097   1.3328958001e+02   2.2556827743e+01    0.1582087    0.1225885 -80.67 0.0004556932    1.479    0.324
       213  -9.2687    120.1873    206.7688   1.2198644661e+02   1.6126084884e+01    0.2160854    0.1694141  46.46 0.0004772893    1.195    0.163
       214  -9.0340    127.2576    206.3261   1.2031270911e+02   1.5138143124e+01    0.2129066    0.1702551  40.86 0.0003873775    1.125    0.111
       215  -9.4555    124.0335    206.0195   1.2100866711e+02   1.5680402534e+01    0.1909734    0.1547376  31.73   0.00117675    1.021    0.021
       216  -7.9730    104.1413    205.7942   1.2559796521e+02   1.8672338390e+01    0.1665233    0.1367416  16.98 0.0002420587    1.292    0.226
       217  -8.2264     47.9549    206.3585   1.3892856787e+02   2.5854215778e+01    0.1754327     0.123583  38.93 0.0003914982    1.186    0.157
       218  -7.9706     39.6154    206.0062   1.4084890563e+02   2.6834385636e+01     0.160676    0.1296175  61.31  0.000416952    1.087    0.080
       219  -9.3233    247.1146    204.6532   9.6596386879e+01  -1.8985806150e+00    0.1899831    0.1304882 -14.93 0.0004405272    1.251    0.200
       220 -10.2909      7.4798    203.7539   1.4805286139e+02   3.0326179067e+01     0.236536    0.2079051   6.10 0.0006684155    1.565    0.361
       221 -10.9683    179.1131    201.9975   1.0845056774e+02   7.8562588378e+00     0.369906    0.2972139 -45.04  0.002330374    1.653    0.395
       222  -8.8625     98.7887    202.1042   1.2644458378e+02   2.0146164783e+01     0.250449    0.1627664  29.19 0.0006409379    1.376    0.273
       223  -8.0147     56.9532    202.6969   1.3654975653e+02   2.5557336721e+01     0.174048    0.1320069  40.22 0.0003440147    1.123    0.110
       224  -7.9184     43.4338    203.5217   1.3981313579e+02   2.6927391389e+01     0.123299   0.09757594  52.84 0.0001926202    1.021    0.021
       225  -8.9950     21.4979    197.8065   1.4466971835e+02   3.0313038168e+01     0.285716    0.1865564  16.47  0.001312996    1.836    0.455
       226  -9.2228     21.3561    202.5890   1.4489376615e+02   2.9343255134e+01    0.2195811     0.169912  52.54  0.001525168    1.050    0.047
       227  -8.7670     16.7917    201.0018   1.4587711800e+02   3.0082002569e+01    0.2729904    0.1768141  30.53  0.001735224    1.462    0.316
       228  -9.5157    187.1938    201.6588   1.0677654014e+02   6.6837026005e+00    0.1848019    0.1593722 -13.70 0.0005356742    1.262    0.208
       229 -10.5523    132.6001    199.5998   1.1817564715e+02   1.5501886887e+01    0.5015516    0.2860149 -22.31 0.0009366113    3.053    0.672
       230  -8.7355    121.3854    202.2262   1.2112590371e+02   1.6763057802e+01    0.1551502    0.1290297 -81.99 0.0004331881    1.573    0.364
       231  -8.2109    110.4784    202.5014   1.2371572869e+02   1.8356959382e+01    0.1340982    0.1099741  35.67 6.563743e-05    1.021    0.020
       232 -10.0527     81.6854    200.7978   1.3042291638e+02   2.2796000919e+01    0.3817429    0.1924575  49.83     0.001387    1.770    0.435
       233  -9.8968     69.3011    200.8421   1.3342766630e+02   2.4415030701e+01    0.3917107    0.2413083  41.62  0.002196521    1.294    0.227
       234 -11.0598     64.0984    195.4716   1.3423454753e+02   2.6177247710e+01    0.5207913     0.323098  51.60  0.001169232    1.367    0.269
       235  -8.2631    125.7027    201.3051   1.2000172614e+02   1.6267810386e+01    0.1308464   0.09185063  55.45 0.0002935898    1.586    0.369
       236  -7.8527     34.5259    201.5393   1.4179453701e+02   2.8273912513e+01    0.1227601   0.09561904  53.75 0.0001296786    1.013    0.013
       237  -9.4251    250.3731    199.2089   9.5170067401e+01  -1.6956044741e+00    0.1687587    0.1208889 -12.54 0.0005976885    1.188    0.159
       238  -9.3788    243.3675    198.3656   9.6138869796e+01  -7.2696736503e-01    0.1913902    0.1459478   1.86 0.0005551676    1.095    0.087
       239  -9.7306    138.7331    198.7070   1.1664596129e+02   1.4695580042e+01    0.2092364    0.1449799  31.55  0.001164111    1.194    0.162
       240  -9.6024    141.3068    196.7274   1.1576960966e+02   1.4633567150e+01    0.2049634    0.1630607  37.08 0.0003807302    1.120    0.107
       241  -8.0332    103.8842    199.1341   1.2487645222e+02   1.9974863442e+01    0.1657179    0.1430452  16.03 0.0002971612    1.245    0.197
       242  -8.2447     42.1559    199.3436   1.3986230538e+02   2.7924723366e+01    0.1719248    0.1443526  18.45 0.0009356959    1.420    0.296
       243  -8.4879    230.9350    197.8219   9.8098033686e+01   9.5463944028e-01    0.1736426    0.1209534   4.21 0.0003209241    1.147    0.128
       244  -8.8468      7.0457    197.9840   1.4799898043e+02   3.1531529336e+01    0.1527632    0.1339099 -41.35 0.0004729695    1.637    0.389
       245  -9.1183    141.0623    203.9709   1.1687762534e+02   1.3425997052e+01    0.1984515    0.1619196  24.66 0.0003504992    1.046    0.044
       246  -8.6857    150.5364    197.4418   1.1380518842e+02   1.3041295857e+01    0.1347309    0.1101495  26.57  4.65785e-05    1.012    0.011
       247  -8.3468     89.7390    197.2282   1.2808884900e+02   2.2396320760e+01    0.1658599    0.1473813   5.37 0.0004695397    1.341    0.254
       248  -9.1404    238.1387    196.0506   9.6593490098e+01   2.1478541470e-01    0.1828929    0.1301438  11.95 0.0003098692    1.121    0.108
       249  -8.9501     93.8275    203.5439   1.2778843914e+02   2.0576220985e+01    0.2940672    0.1735345  45.90   0.00156463    1.431    0.301
       250  -9.8335    113.8704    194.9718   1.2194888932e+02   1.9269139884e+01    0.2347905    0.1683492  34.90 0.0003394027    1.162    0.139
       251  -9.1566     28.9577    201.8379   1.4310941880e+02   2.8771029532e+01    0.1622389    0.1487805  50.73  0.000518157    1.244    0.196
       252  -9.0594      5.8234    193.8488   1.4816833197e+02   3.2483643760e+01    0.1683574   0.09768044  56.21 0.0003717176    1.304    0.233
       253 -10.3711    226.1747    192.1198   9.7926067215e+01   2.3055268714e+00     0.258549    0.1731609  -0.81 0.0007693438    1.309    0.236
       254 -12.0392    154.9260    187.8302   1.1130058867e+02   1.3968791501e+01    0.5922644    0.5371329  50.34  0.002934466    1.309    0.236
       255  -9.0693    125.2195    191.5807   1.1876120485e+02   1.8135059287e+01    0.1978105    0.1162528  25.72 0.0008279503    1.651    0.394
       256  -9.6233      9.0731    190.6808   1.4732412711e+02   3.2885376753e+01    0.2654661    0.1474098  26.50  0.001550283    1.764    0.433
       257  -8.3969    173.2712    190.3791   1.0774545525e+02   1.0550190628e+01    0.1356305   0.09161291  -1.34 0.0006996167    1.693    0.409
       258  -9.0449     27.6826    192.9987   1.4298737510e+02   3.0738646770e+01    0.3276823    0.1362578  55.06 0.0009784693    1.970    0.492
       259  -7.6969     31.3122    190.2958   1.4196589904e+02   3.0960766834e+01    0.1082239   0.09418868 -33.46 0.0004760732    1.597    0.374
       260  -8.8993     94.4708    188.8766   1.2595012190e+02   2.3410592756e+01    0.2595354     0.178289  54.86 0.0006409062    1.406    0.289
       261  -9.7735     13.6102    188.3339   1.4617098812e+02   3.3007539489e+01    0.3881845    0.1365498  52.57  0.001107176    2.149    0.535
       262  -8.6899      1.4525    188.0054   1.4903551455e+02   3.4046462037e+01    0.1613749    0.0974994  87.56 0.0003417474    1.507    0.336
       263 -10.3131    231.4233    185.7559   9.5905699503e+01   2.3760943073e+00    0.3114902    0.2113906   4.92  0.001102119    1.269    0.212
       264 -10.2914    229.6659    182.6799   9.5648736413e+01   3.0141896120e+00    0.2507113    0.1692662   9.43 0.0007548525    1.298    0.230
       265 -10.0559    233.0226    181.4980   9.4869460931e+01   2.6900377313e+00    0.4182397    0.2338152  36.71  0.002393894    1.799    0.444
       266  -7.7126     57.5248    187.4772   1.3520191860e+02   2.8687621326e+01      0.13038    0.1100751  51.46 3.363413e-05    1.040    0.039
       267 -10.2187    141.1262    185.2033   1.1403007222e+02   1.6727004032e+01    0.3823185    0.1729919  27.74  0.001542417    2.306    0.566
       268  -9.0044    130.0076    185.4985   1.1671165047e+02   1.8511662820e+01    0.2157589    0.1192575  35.41 0.0005019326    1.537    0.350
       269 -10.3460    239.3427    217.6340   9.9954330281e+01  -2.3710123489e+00    0.2899736    0.1686329  21.83 0.0004509762    1.379    0.275
       270 -10.7580    177.8045    183.4810   1.0560262291e+02   1.0911449599e+01     0.354143     0.231817 -20.23  0.001378499    1.695    0.410
       271  -9.2644    134.9751    183.9679   1.1528503328e+02   1.7980267049e+01    0.2063919    0.1561984  58.98 0.0004885917    1.570    0.363
       272  -7.8704     27.4777    184.5552   1.4260909564e+02   3.2580055499e+01    0.1883568    0.1323674 -38.55 0.0008032809    2.074    0.518
       273  -9.2919     32.6661    182.3099   1.4117382749e+02   3.2569324480e+01    0.2806711    0.2402046 -88.87  0.001869192    1.226    0.184
       274 -10.0088     28.2812    179.8441   1.4215100171e+02   3.3545691138e+01     0.521744    0.2702654  43.08  0.002800892    1.556    0.357
       275 -10.0641    224.6432    183.0484   9.6576415260e+01   3.6865158042e+00    0.1728578    0.1301554 -10.21 0.0003739341    1.139    0.122
       276  -8.2958     14.6670    169.6678   1.4516894477e+02   3.7050125087e+01     0.221144    0.1132652 -32.86 0.0009404289    3.710    0.730
       277 -10.4273      7.9700    182.8034   1.4734465343e+02   3.4659426115e+01     0.363203    0.2163404  65.35  0.001754439    1.353    0.261
       278  -8.4941      3.2496    182.6003   1.4847741785e+02   3.5065748886e+01    0.1920675     0.113692  19.48 0.0006191501    1.889    0.471
       279 -10.4244     10.1572    176.9236   1.4660976318e+02   3.5776932972e+01    0.4353934    0.2331476  29.84  0.002451426    1.736    0.424
       280 -10.3991     10.1162    172.4778   1.4645928107e+02   3.6773999601e+01    0.4105157    0.1890564  47.90  0.001934277    1.714    0.417
       281  -9.2300    216.8360    220.9062   1.0428949948e+02   6.5156115168e-02    0.2474327    0.1532338  13.40 0.0003261821    1.312    0.238
       282 -10.0588    231.8970    203.5105   9.8896126585e+01   1.5004213390e-01     0.549894    0.2841262  22.57  0.003170477    1.712    0.416
       283  -9.6001    120.1237    193.1592   1.2020205404e+02   1.8642834893e+01     0.210911    0.1741602  13.74  0.001236716    1.265    0.210
       284  -9.1025    122.0035    182.0000   1.1812667668e+02   2.0504870513e+01    0.2892619    0.1608486  30.89 0.0008997616    1.632    0.387
       285 -11.5084    116.7115    178.8818   1.1897429437e+02   2.1997673341e+01    0.7010068    0.4515293  37.04  0.002566696    1.333    0.250
       286  -7.6989     55.7200    181.6437   1.3516694514e+02   3.0186163025e+01    0.1223819   0.09914687 -35.25 0.0003661854    1.660    0.398
       287  -8.1325     43.0231    180.1934   1.3836499621e+02   3.1962425036e+01    0.1766925    0.1319695 -57.62  0.001038772    1.593    0.372
       288  -8.2963     14.7121    180.3972   1.4560325241e+02   3.4638121538e+01    0.1457296    0.1112517  18.89 0.0004011284    1.527    0.345
       289 -10.4321    184.2191    183.0954   1.0420949878e+02   9.9225745502e+00    0.2934525    0.1669772  38.31 0.0008759627    1.618    0.382
       290  -8.7690    145.5071    179.5084   1.1206760572e+02   1.7036716674e+01    0.1412523    0.1213824  28.45 8.242909e-06    1.020    0.019
       291 -11.1710    203.5569    216.5536   1.0601299448e+02   2.3481483385e+00    0.5125262    0.3187219 -32.36  0.001518978    1.783    0.439
       292 -12.4680    193.2261    163.5950   9.8721282153e+01   1.1489037390e+01     1.993228    0.4545732 -34.65  0.005662095    5.449    0.816
       293 -10.7213    180.3915    167.7872   1.0216283407e+02   1.3037137844e+01    0.3455009    0.2349684 -28.37  0.001322106    1.521    0.342
       294 -12.4345    186.0359    166.1478   1.0067419963e+02   1.2323774393e+01     0.880744    0.5515137 -31.80  0.004523852    1.635    0.388
       295  -9.7324    198.8907    175.8959   9.9974870273e+01   8.6388988903e+00    0.2097023    0.1546974   5.71 0.0004945124    1.255    0.203
       296  -8.6258    100.9373    175.9701   1.2260017843e+02   2.5138990113e+01    0.2076245    0.1790806  45.91  0.001195564    1.032    0.031
       297  -9.1593    141.6366    190.8239   1.1479764184e+02   1.5624449108e+01    0.1705087    0.1322273 -66.29 0.0007303644    1.770    0.435
       298  -8.7046    129.5334    173.4904   1.1490861945e+02   2.0932062552e+01    0.1440009    0.1260196  29.30 4.738709e-05    1.026    0.025
       299  -7.7148     77.2281    172.9855   1.2853603909e+02   2.9331649328e+01    0.1658556    0.1142759 -71.45 0.0003476857    1.586    0.369
       300  -9.8479     40.8347    171.1592   1.3827115403e+02   3.4255777774e+01    0.3239899    0.2199902 -73.77  0.001327682    1.511    0.338
       301 -11.8774    148.4195    167.1988   1.0920838309e+02   1.8836677997e+01    0.7788667     0.442802  21.66  0.003317298    2.092    0.522
       302 -11.3509      6.7116    162.7842   1.4699367421e+02   3.9240346379e+01    0.7173148    0.4016384 -54.72  0.003408552    2.164    0.538
       303 -10.7722    217.0939    161.3611   9.3790923641e+01   7.8264283509e+00    0.6359076    0.3631285  41.48  0.002753469    1.829    0.453
       304  -8.6838     40.4863    162.0369   1.3764178224e+02   3.6437226219e+01    0.2666542    0.1658812  -0.33  0.001246516    2.478    0.596
       305 -11.8126    172.1567    158.6859   1.0213668597e+02   1.6077650895e+01    0.6145915    0.4663284 -71.42  0.002988343    2.200    0.545
       306  -8.3732    100.5323    157.2379   1.1986650087e+02   2.9350033372e+01    0.1961014    0.1373915 -44.45 0.0008190127    1.637    0.389
       307  -8.2400    228.7646    156.0640   9.0729445061e+01   6.7088615128e+00    0.1766801    0.1390181  -7.55 0.0004077382    1.059    0.056
       308  -9.9517    217.2811    156.9522   9.2877052320e+01   8.4350372351e+00     0.270279    0.2172845  -8.50  0.001398087    1.072    0.067
       309  -9.9393    149.1758    155.8901   1.0686534958e+02   2.0885327098e+01    0.3781374     0.189704  58.56   0.00122233    3.800    0.737
       310  -8.6821     84.0838    154.8630   1.2418810936e+02   3.2528419094e+01    0.2665166    0.1959776  28.65  0.001163108    1.355    0.262
       311  -8.5920    223.1215    153.1147   9.1086373917e+01   8.0314561184e+00    0.2069292     0.155846  -1.25  0.001232142    1.205    0.170
       312  -9.8956    160.2086    159.6244   1.0500417550e+02   1.8112261873e+01    0.2142962    0.1760301  25.85 0.0007361923    1.100    0.091
       313  -8.5560    159.2835    153.6584   1.0402063202e+02   1.9405077389e+01    0.1376323    0.1175857  81.60 0.0001726808    1.635    0.388
       314  -8.9700    245.5097    149.9767   8.6855947283e+01   4.9479760355e+00    0.2241425    0.1477261  20.16 0.0006248123    1.530    0.346
       315  -9.4534    134.0294    148.2503   1.0913023893e+02   2.5318201346e+01    0.2535444    0.2247807 -41.86 0.0007703191    1.217    0.178
       316 -11.2077     84.3669    146.0688   1.2274172066e+02   3.4595997664e+01    0.6189726    0.5052651  35.62  0.001718758    1.172    0.147
       317  -9.4457     26.6895    148.5502   1.4060058132e+02   4.1052030884e+01    0.2694264    0.2032787 -56.47  0.001130914    1.484    0.326
       318 -10.1264     11.8260    146.3280   1.4486247831e+02   4.2781111035e+01    0.3576988    0.2545157 -83.34  0.001352053    1.289    0.224
       319 -10.3584    123.5095    155.6738   1.1332700425e+02   2.5692924773e+01    0.4215282    0.3069342  30.92  0.001224273    1.297    0.229
       320  -7.9996    236.1968    145.6368   8.7415251827e+01   6.9704625826e+00    0.1621651    0.1065663  26.30 0.0003345555    1.544    0.352
       321  -9.8887    177.1651    144.1394   9.8007907090e+01   1.7724584951e+01    0.2889443    0.1889931 -43.25  0.001386926    1.638    0.389
       322  -9.4156     48.5018    143.5614   1.3346202166e+02   4.0093680303e+01    0.3755871    0.2534727  27.37  0.001268884    1.516    0.340
       323  -9.3013    200.5069    141.2055   9.2650746594e+01   1.3790563447e+01    0.2605994    0.1891356  36.49  0.001398776    1.364    0.267
       324  -8.3957    150.9503    141.5307   1.0345060985e+02   2.3394707096e+01    0.2296817    0.1406271  38.70 0.0008341167    1.537    0.349
       325  -9.9402     98.8496    137.7733   1.1691419505e+02   3.4200298078e+01    0.3886653     0.347273 -80.78  0.001085501    1.189    0.159
       326  -8.8368    224.9835    138.7303   8.7780905358e+01   9.8002087011e+00    0.3013013    0.2030972 -11.06  0.001638238    1.478    0.324
       327  -8.2252    144.6156    136.7179   1.0396609725e+02   2.5651334703e+01    0.1597711    0.1165786   8.82   0.00041146    1.732    0.423
       328  -9.4917     42.2192    134.3098   1.3442806168e+02   4.3138671749e+01    0.2991225    0.2622252  62.65 0.0007975021    1.047    0.044
       329  -9.2302    248.6842    134.4236   8.3232861486e+01   6.5128227293e+00    0.2484698    0.1187518  45.20  0.001255907    2.380    0.580
       330  -7.6566    234.3332    133.2453   8.5118687042e+01   9.0009132454e+00    0.1270224   0.08815314   9.11 0.0002607773    1.549    0.354
       331  -9.3308    162.1930    131.5909   9.8533586874e+01   2.3069265679e+01    0.2214429    0.1362709  32.60 0.0009533003    1.676    0.403
       332  -9.1314    173.5144    129.6433   9.5531438199e+01   2.1094488930e+01    0.2653061    0.1690542  24.52 0.0007413148    1.833    0.455
       333  -9.4037    149.7937    129.6230   1.0105082962e+02   2.6046568815e+01     0.289024    0.1376606  42.27  0.001096103    2.010    0.502
       334  -8.1719    242.3155    125.8521   8.2347869140e+01   8.6970171778e+00      0.18025    0.1350202 -19.23 0.0005613799    1.126    0.112
       335  -7.8549    222.7372    126.3528   8.5458375660e+01   1.2022123176e+01    0.1284455   0.09893981 -51.31 0.0002002805    1.617    0.382
       336  -8.9084    150.8212    123.3865   9.9311367481e+01   2.7104333901e+01    0.2224049    0.1405313  33.55 0.0005614739    1.638    0.390
       337  -8.5311    119.9611    123.0000   1.0750395676e+02   3.3682018134e+01    0.2693638    0.0867409  40.23  0.000805419    2.963    0.663
       338  -9.1374    165.6883    120.1886   9.5004461282e+01   2.4531260906e+01    0.3009984    0.1761088  35.10  0.001254002    1.803    0.445
       339 -10.7453    100.7343    116.8144   1.1191457542e+02   3.8938222079e+01    0.5573485     0.438868 -50.72 0.0007889424    1.313    0.238
       340 -10.7440     18.1334    115.3891   1.4077104688e+02   5.0156348567e+01    0.4636592     0.317466 -84.67  0.001025763    1.301    0.231
       341  -8.5378    231.7953    116.4246   8.1831865680e+01   1.1843996160e+01    0.2301665    0.1327238  55.51  0.001138998    2.180    0.541
       342  -9.2354    135.0200    115.1884   1.0136786955e+02   3.2255798925e+01    0.2663433    0.1864484  70.38  0.001088117    1.992    0.498
       343  -9.9529    129.5706    109.3618   1.0136797132e+02   3.4725769467e+01    0.4200773    0.2842909 -38.22  0.001816237    1.572    0.364
       344  -8.9429     34.1287    109.4266   1.3424202073e+02   5.0449797331e+01    0.3152502    0.1785378 -61.43   0.00128021    1.634    0.388
       345  -9.2482    144.6976    106.2514   9.6479269968e+01   3.1996551015e+01    0.2826441    0.2243125  39.90   0.00119269    1.238    0.192
       346  -8.9383    250.6186    102.7874   7.6225756116e+01   1.0424963177e+01     0.184262   0.09636121 -37.38 0.0008943214    1.635    0.388
       347 -10.5412      7.9206     99.3776   1.4325737326e+02   5.4922618085e+01    0.3689318    0.3457359 -19.62  0.001247454    1.251    0.201
       348  -8.1302     61.6985     99.6826   1.2188130696e+02   4.9848862461e+01    0.1535457    0.1127817 -30.77 0.0003288237    1.620    0.383
       349  -8.6356    142.1634     98.3559   9.4961464428e+01   3.4218230873e+01    0.2305715    0.1477286  57.36 0.0004830418    1.708    0.414
       350  -8.1711     72.1948     98.5497   1.1757457718e+02   4.8567174060e+01    0.2089602    0.1511824  15.81 0.0004642386    1.644    0.392
       351 -10.6371    243.3505     94.4586   7.5282015050e+01   1.2835966835e+01    0.4351682    0.1557296 -37.21   0.00183842    2.310    0.567
       352  -8.9323    114.4087     95.8177   1.0213814250e+02   4.1113356110e+01    0.3835735    0.2799261   9.71  0.001439152    1.928    0.481
       353  -9.5218      2.1912     94.5235   1.4515255587e+02   5.6425557656e+01     0.288479    0.2191144 -79.49  0.001732886    1.126    0.112
       354  -8.9304    237.2034     95.4040   7.6290237463e+01   1.3840786713e+01    0.1562952     0.129342  77.60 0.0001880786    1.583    0.368
       355  -8.1396     54.4918     95.5536   1.2387222599e+02   5.1905490422e+01    0.1471606    0.1393187 -52.52 7.978885e-05    1.068    0.064
       356  -8.8983    158.2777     91.3570   8.9041141505e+01   3.1771994154e+01    0.2621586    0.2460505 -15.47 0.0004502654    1.088    0.081
       357  -8.7483     16.8441     89.8649   1.3872019090e+02   5.6941175132e+01      0.38952    0.2589113 -46.58  0.002063004    1.517    0.341
       358  -8.8864     16.4956     86.0269   1.3841227669e+02   5.7972822798e+01    0.5708885    0.2971658  15.91  0.002699733    2.155    0.536
       359  -8.2686     33.9569     89.0581   1.3125068116e+02   5.5880706449e+01     0.207682    0.1890437 -63.53 0.0003861824    1.046    0.044
       360 -11.2063    244.1476     83.5750   7.2701924603e+01   1.4162739526e+01    0.4725331    0.3975134 -33.69  0.002459159    1.034    0.033
       361  -9.9622    154.8208     82.2060   8.7153799884e+01   3.4343098556e+01    0.4117616    0.3588898  30.99  0.001063926    1.210    0.173
       362 -10.0836    156.9376     78.0296   8.5416265693e+01   3.4585474227e+01    0.4188713    0.3335155  18.47 0.0007500219    1.516    0.340
       363 -10.2462    220.7762     79.9177   7.4785629829e+01   1.9310097702e+01    0.3657503    0.2710249  71.25   0.00058143    1.617    0.381
       364 -12.8038     79.9307     76.0596   1.0833420593e+02   5.2853197038e+01     0.434131     0.410789  63.15 0.0004427259    1.104    0.094
       365 -10.5234    238.7525     72.7450   7.0805470674e+01   1.6648430222e+01    0.3614976    0.2311656  42.78  0.001940509    1.888    0.470
       366 -11.0273    244.7352     71.3370   6.9812471011e+01   1.5673249185e+01    0.4993839    0.1817783 -43.39  0.002095365    2.459    0.593
       367 -10.5822    244.7783     76.1743   7.0926381850e+01   1.5029520624e+01    0.4535903    0.2427872  41.97  0.001747573    2.370    0.578
       368 -12.2319     22.2986     74.4813   1.3408355569e+02   6.0648980995e+01    0.4826941    0.4336579  47.15  0.001875274    1.210    0.174
       369  -8.1729    184.4825     77.5289   7.9795321237e+01   2.7878829336e+01    0.1484604     0.142834 -41.19 6.605777e-05    1.005    0.005
       370 -11.1417    115.8338     74.3438   9.5037824550e+01   4.5507815196e+01    0.5721361    0.4697731  74.56  0.001813356    1.410    0.291
       371  -9.7153     45.0505     75.2949   1.2338516777e+02   5.8361976759e+01    0.3547473    0.2802411  68.63  0.001002115    1.451    0.311
       372 -10.8337    227.3162     70.8170   7.1689689957e+01   1.9226140060e+01    0.4348263    0.3156338 -56.45 0.0006566354    1.442    0.306
       373  -9.5520    101.5579     73.1331   9.9294628442e+01   4.9069848408e+01    0.3301421    0.2981878 -48.53 0.0009745836    1.132    0.117
       374 -10.6949     89.7306     72.5579   1.0337491746e+02   5.1744005126e+01    0.5833212      0.37195 -18.57  0.002172741    2.497    0.599
       375 -10.8737    143.8158     63.8948   8.3916166838e+01   4.0488906873e+01    0.6060559    0.4260066 -19.03   0.00164047    1.709    0.415
       376  -8.5123     51.9116     65.0475   1.1727534133e+02   6.0099745765e+01    0.3450157    0.2344333  59.22  0.001001611    1.892    0.471
       377 -10.0021    236.7836     64.4509   6.9052122417e+01   1.8140181461e+01    0.3209708    0.2204205   3.52  0.001652488    2.025    0.506
       378  -9.1922     58.1642     61.2379   1.1301406680e+02   6.0125846828e+01    0.3776504    0.2992066 -33.09  0.001522538    1.281    0.219
       379  -8.8876    243.0573     61.4896   6.7692141852e+01   1.7272755223e+01    0.1637415    0.1281653  68.90 0.0004587073    1.492    0.330
       380 -10.1555    225.2825    247.9100   1.0676954452e+02  -3.8588536225e+00    0.2044889    0.1589393  -3.40 0.0004276242    1.344    0.256
       381  -8.4337     27.6471     55.5005   1.2729773950e+02   6.5141725891e+01    0.2473706    0.1210104 -66.88 0.0009896994    1.901    0.474
       382  -8.6756     33.9986     54.2012   1.2336828794e+02   6.4893482521e+01    0.2227958    0.1296104 -43.11  0.001041697    1.620    0.383
       383  -7.7355    113.3079     53.3118   8.8246332084e+01   5.0276042794e+01    0.1623224    0.1239284  17.92 0.0004038825    1.622    0.383
       384  -9.2521    249.8506     51.1868   6.4659199523e+01   1.7229866801e+01    0.1624862    0.1421401  -3.29 0.0008286333    1.340    0.254
       385  -7.9119    171.9814     49.9827   7.3778310145e+01   3.5327899424e+01    0.1717271    0.1636217 -64.95            0    1.014    0.013
       386  -9.4527    246.4832     46.9324   6.3970882572e+01   1.8404571734e+01     0.195613    0.1057075 -31.61 0.0005134578    1.552    0.356
       387 -10.1640     13.5906     26.8545   1.2794951107e+02   7.3038295056e+01    0.9543931    0.4121733   4.11  0.004205758    2.674    0.626
       388  -8.0035    221.4677    248.4603   1.0748701591e+02  -3.4775271853e+00     0.142039   0.07968719  32.02 4.951521e-05    1.579    0.367
       389  -8.6906    120.0856    248.1374   1.2655888867e+02   9.4629041024e+00    0.2641443    0.1512879 -44.43  0.001612161    2.390    0.582
       390 -10.3917     33.0106    248.1763   1.4414542072e+02   1.9778095510e+01    0.2104691    0.1707873  41.46 0.0004590072    1.238    0.192
       391  -8.8723     24.5201    249.0118   1.4581653977e+02   2.0477428558e+01    0.1733393    0.1247987  26.50 0.0004781147    1.486    0.327
       392 -11.1223    211.4495    246.7913   1.0897808626e+02  -2.1333542907e+00    0.3063615    0.1693761  28.04 0.0005008503    1.376    0.273
       393  -8.4539    210.3925    241.9177   1.0849476535e+02  -1.4864936508e+00    0.1672023    0.1143441  22.79 0.0003781081    1.172    0.147
       394  -9.6763    140.7203    247.0530   1.2229920034e+02   6.8902247273e+00    0.2167275    0.1812419  39.87 0.0004330903    1.283    0.220
       395  -7.9644    171.3433    246.7093   1.1628478203e+02   2.8962864650e+00    0.1263923     0.095815 -10.66 0.0004853555    1.437    0.304
       396  -8.9018     76.1139    246.0772   1.3538332832e+02   1.5343939712e+01    0.2815424    0.1566306 -48.27  0.001657168    2.690    0.628
       397 -12.6540     19.6962     41.1499   1.2816479780e+02   6.9275630021e+01    0.7978204    0.3861352 -21.80  0.002063755    2.501    0.600
       398 -12.4015     13.1579     39.0462   1.3189538927e+02   7.0167654649e+01    0.6814828    0.4083357 -12.40  0.001954135    1.817    0.450
       399  -7.8025    179.6965     43.3076   7.0511512504e+01   3.4262809845e+01    0.1557494     0.105007 -62.86 0.0005252318    1.604    0.376
       400  -9.2051     14.8994     56.5719   1.3471125992e+02   6.5715268320e+01    0.4309746    0.2113316 -28.22  0.001931377    2.283    0.562
       401  -9.9319    106.6367     66.1390   9.5137240151e+01   4.9397836086e+01    0.3240358    0.2348728  39.74  0.001441571    1.383    0.277
       402  -8.3497     32.2239     40.6012   1.1995474995e+02   6.8348126468e+01     0.180549    0.1271954   1.45 0.0005947562    1.550    0.355
       403  -8.7826     45.1674     37.9361   1.1097361078e+02   6.7380295538e+01    0.3762743    0.2162986 -12.92  0.001365076    2.765    0.638
       404  -9.8976     81.1549    244.4639   1.3423379369e+02   1.4992304221e+01    0.2152083    0.1596766  32.29 0.0004015171    1.173    0.148
       405  -9.7025      4.7220     32.5156   1.3613572585e+02   7.2076595209e+01    0.4115145    0.2512357  15.11   0.00227957    1.842    0.457
       406  -9.4252     76.4465     31.9461   9.2114086285e+01   6.2858577592e+01    0.6538453    0.2325349  43.52  0.002115096    2.738    0.635
       407  -8.3204    205.5058     31.0701   6.3805033120e+01   2.9344138436e+01    0.2089282    0.1261091 -31.26  0.001020512    1.554    0.357
       408  -8.9471     66.6967     30.4741   9.5784058306e+01   6.5169020415e+01    0.2649562    0.2463802 -10.07 0.0005543891    1.054    0.051
       409  -7.5122    111.6588     30.2910   7.9259979338e+01   5.4470301788e+01    0.1568802    0.1186075 -75.50 0.0007025564    1.650    0.394
       410  -9.3530     53.6944     36.3545   1.0539491528e+02   6.6415550796e+01    0.3534051    0.2469586   8.91  0.001193008    1.696    0.410
       411  -9.5502    145.5789     34.5076   7.3247661045e+01   4.4636929668e+01     0.452419    0.3080185  58.37   0.00132717    1.390    0.281
       412  -9.6268     66.5917     25.2311   9.3078488049e+01   6.6102030891e+01    0.4301902    0.2516632  25.08  0.001810916    2.120    0.528
       413  -8.7656    248.3958     25.2082   5.8814661276e+01   2.0521559961e+01    0.1819988   0.08665359 -39.53  0.000941911    1.624    0.384
       414  -9.2534    243.9918     23.6738   5.8754424882e+01   2.1582850880e+01    0.2577815    0.1312273 -15.74  0.001206559    2.477    0.596
       415  -7.6428    128.5218     22.5302   7.2001647838e+01   5.0897477082e+01    0.1525027    0.1415989  75.60 0.0003230444    1.022    0.021
       416  -8.7295     83.8443     19.3469   8.2698971785e+01   6.3099976683e+01    0.2353454    0.2014387 -36.46 0.0005219671    1.268    0.211
       417  -9.5255     75.0631     18.1982   8.5450452696e+01   6.5336367002e+01    0.3490904    0.2155925 -22.73  0.001362231    1.754    0.430
       418  -9.9975    243.2211    245.1789   1.0345501566e+02  -5.5827183088e+00    0.2206471    0.1310849 -10.51 0.0004015825    1.437    0.304
       419  -9.1052    245.1164    229.8732   1.0091170081e+02  -4.3110514095e+00    0.2407309    0.1387647   3.15 0.0003526638    1.421    0.296
       420 -10.2036    247.8149    238.5885   1.0177756112e+02  -5.4569279938e+00    0.2536565     0.136307  23.51 0.0007959577    1.438    0.305
       421  -9.3998    243.6367    234.8994   1.0189928717e+02  -4.6426817038e+00    0.2433041    0.1973609  41.63 0.0009552165    2.384    0.580
       422  -8.4714    238.8267    234.2778   1.0258362710e+02  -4.0403381625e+00    0.1709553    0.1397786 -18.60  0.001075091    1.663    0.399
       423  -8.7854    187.3812    245.3224   1.1310083319e+02   9.9773107607e-01    0.3158358    0.1734345  -4.48  0.001635804    2.370    0.578
       424  -9.3579    194.1449    244.2054   1.1171311914e+02   2.7077074988e-01    0.1706039    0.1207331   2.76 0.0004166423    1.250    0.200
