#   1 NUMBER                 Running object number                                     
#   2 MAG_AUTO               Kron-like elliptical aperture magnitude                    [mag]
#   3 X_IMAGE                Object position along x                                    [pixel]
#   4 Y_IMAGE                Object position along y                                    [pixel]
#   5 X_WORLD                Barycenter position along world x axis                     [deg]
#   6 Y_WORLD                Barycenter position along world y axis                     [deg]
#   7 A_WORLD                Profile RMS along major axis (world units)                 [deg]
#   8 B_WORLD                Profile RMS along minor axis (world units)                 [deg]
#   9 THETA_WORLD            Position angle (CCW/world-x)                               [deg]
#  10 FWHM_WORLD             FWHM assuming a gaussian core                              [deg]
#  11 ELONGATION             A_IMAGE/B_IMAGE                                           
#  12 ELLIPTICITY            1 - B_IMAGE/A_IMAGE                                       
         1 -13.7478     30.6855     59.7697   1.1647200346e+02   6.2605289139e+01     1.420059    0.8041494  37.64  0.004005582    2.113    0.527
         2 -11.1890    104.3083     30.2561   7.7655396914e+01   5.5179611006e+01    0.5970156    0.3036586  63.86  0.002532121    2.236    0.553
         3 -12.4653    216.5426     14.7247   5.5147169501e+01   2.9323373126e+01    0.6512718    0.4692744  85.02  0.002470491    1.221    0.181
         4 -10.5189    134.0495     17.9957   6.6549999693e+01   4.9395778257e+01    0.2114784    0.1815013  67.74 0.0004973346    1.046    0.044
         5 -13.5076    189.9999      8.9854   5.6244390750e+01   3.6263677804e+01    0.7763383    0.3563096  76.65  0.003596076    1.948    0.487
         6 -12.9043    183.3086      4.8923   5.5870375871e+01   3.8304893161e+01    0.5751245    0.4141325  70.11  0.003388693    1.235    0.190
         7 -11.9038     43.9043      8.8025   8.9226382749e+01   6.9404222483e+01    0.3041864    0.2552305  23.38   0.00134096    1.209    0.173
         8 -12.1303     57.7432      8.1678   8.3062299838e+01   6.7166081558e+01     0.439302    0.2993586  27.52  0.002498712    1.260    0.207
         9 -12.7714     42.4590     20.4629   9.5702233203e+01   6.8134099835e+01    0.6569226    0.3876823  23.13  0.003703556    1.635    0.388
        10 -12.0605    166.6048      1.8510   5.6840330302e+01   4.2722769867e+01    0.6450784    0.1476801  70.18  0.002189854    3.456    0.711
        11 -10.6903    149.2781    222.2842   1.1480764151e+02   7.0464299540e+00    0.3730602    0.2315029 -53.73  0.001911514    1.922    0.480
        12 -10.1416    211.4005    218.2086   1.0142506300e+02  -2.6354857220e+00    0.1660579    0.1194752 -44.75 0.0009489392    1.706    0.414
        13 -12.1694    221.8827    213.9915   9.8700148827e+01  -3.6347852174e+00    0.4964222    0.2490355  43.64  0.002418653    2.169    0.539
        14 -10.9636    231.8211    210.6780   9.6280764585e+01  -4.6579003363e+00    0.2578413    0.2030024  54.68  0.001531593    1.928    0.481
        15 -10.4278    115.7164    208.8922   1.2027002952e+02   1.5405114484e+01    0.3015955    0.1278304 -60.36  0.001205625    2.760    0.638
        16  -9.8864     41.4750    201.9855   1.3642707310e+02   2.7787107390e+01     0.184105    0.1108269 -77.92 0.0005129828    1.542    0.352
        17 -11.3403      5.0516    199.6571   1.4409388371e+02   3.2062711547e+01    0.3201188    0.1598915  51.30  0.001122245    1.704    0.413
        18 -10.6305    149.1830    198.3527   1.1095053693e+02   1.1628926542e+01    0.2955815    0.1745761 -75.27  0.001090549    3.418    0.707
        19 -10.3732    112.4686    197.9555   1.1941400364e+02   1.8282088130e+01    0.1995294    0.1215016  89.55 0.0008096898    2.595    0.615
        20  -9.8233    133.2346    195.9585   1.1421077110e+02   1.5033700287e+01    0.1807106    0.1227414 -54.96 0.0008768358    1.619    0.382
        21 -12.4295    159.9490    191.8570   1.0736455813e+02   1.0922722353e+01    0.7372959    0.5369543  80.35  0.003011579    2.168    0.539
        22 -11.1306    224.1308    183.4900   9.2540491989e+01   7.7993399097e-01    0.2151977    0.1823597 -44.34  0.001116881    1.374    0.272
        23 -10.3340    183.4157    182.8644   1.0050688765e+02   8.2301852424e+00    0.3444041     0.127947 -35.16  0.001145015    3.383    0.704
        24  -9.6383    210.3223    182.3324   9.4923928209e+01   3.3717244581e+00    0.1450713    0.1010456   0.57 0.0003409596    1.702    0.412
        25  -9.8766    243.6754    180.3322   8.8453417269e+01  -1.9128553659e+00    0.1184838    0.1028273 -63.83  0.000705075    1.707    0.414
        26 -10.0340    215.3084    193.7896   9.6202687271e+01   5.7966195314e-01    0.2615975    0.1135341 -46.04  0.001072889    2.697    0.629
        27 -10.0107    191.8121    178.0170   9.7772567907e+01   7.5493354532e+00    0.2268149    0.1727102 -72.22  0.001085112    2.004    0.501
        28 -10.0500    193.0259    188.5189   9.9603613914e+01   5.4006236886e+00    0.1975166    0.1202637  60.45 0.0008103337    2.639    0.621
        29 -11.1025     34.4894    173.6103   1.3539710912e+02   3.5147731407e+01    0.2782784    0.1425152  72.00   0.00128125    2.154    0.536
        30 -11.4413     55.6199    167.7244   1.2932153097e+02   3.4084295741e+01    0.5214632     0.276953 -81.74  0.002321709    2.035    0.509
        31 -11.8243    121.0042    167.8012   1.1218205632e+02   2.3535052266e+01    0.5461072    0.1804185 -55.15  0.001734496    3.275    0.695
        32  -9.7280     88.3199    167.9999   1.2072829544e+02   2.9256524038e+01    0.2367019    0.1172519 -85.23 0.0007043339    4.230    0.764
        33  -9.8925    138.3269    164.0036   1.0707615175e+02   2.1030467309e+01    0.2455915    0.1287405 -71.82 0.0007048785    4.293    0.767
        34 -10.9197     51.3058    159.3470   1.2936046590e+02   3.6684495087e+01    0.3724585    0.1749594  61.17  0.001468081    2.724    0.633
        35 -11.1603     24.5385    159.4536   1.3648202253e+02   3.9554484237e+01    0.2258952    0.1538223 -46.51 0.0007219131    1.714    0.416
        36 -11.8122    106.1759    157.6311   1.1411608290e+02   2.8691559086e+01    0.6222472    0.4276522  88.35  0.002691597    1.955    0.488
        37 -10.7378    167.6109    157.4283   9.8703331517e+01   1.6453136666e+01    0.3397889    0.2503552  78.44  0.001482943    1.997    0.499
        38 -11.3137    118.5467    156.9073   1.1068553481e+02   2.6551002010e+01    0.3656782    0.3126277  52.67  0.001669256    1.140    0.123
        39 -11.4681     22.9970    151.0335   1.3600846028e+02   4.1740337024e+01    0.3773662    0.1617365 -74.14  0.001719856    2.010    0.503
        40 -10.5115    189.7644    150.3147   9.2291964394e+01   1.3275408200e+01    0.3575131    0.1961295 -54.67  0.001403451    2.285    0.562
        41  -9.7288    162.3043    150.6359   9.8421216451e+01   1.9005631630e+01    0.1586291    0.1242697 -87.83 0.0003874995    1.737    0.424
        42 -11.2316    233.5302    147.4719   8.3430585050e+01   5.1865480121e+00    0.2973313    0.1237295 -37.32  0.001123241    2.184    0.542
        43 -10.0476     12.4944    147.9865   1.3851264249e+02   4.3359867417e+01     0.183768   0.07148628 -54.39 0.0006495425    2.458    0.593
        44 -11.2031    107.2531    145.6482   1.1141748989e+02   3.1387407342e+01    0.4074322     0.248215  69.54  0.001531051    2.495    0.599
        45 -10.1130    148.4959    145.0026   1.0044989089e+02   2.3181233378e+01    0.3211029    0.1965902  76.82  0.001035868    3.431    0.709
        46 -10.6430    218.1854    156.0531   8.7981822061e+01   6.5481947979e+00    0.3417005    0.1750959 -44.21  0.001484574    1.944    0.486
        47 -10.1818    181.6869    141.5650   9.2003122891e+01   1.6731327637e+01    0.2694605    0.1874623 -61.43  0.001181897    1.783    0.439
        48 -11.3072     82.5430    129.8461   1.1524108300e+02   3.9612304543e+01    0.5592505    0.1474013 -57.94  0.001599903    3.833    0.739
        49 -12.0354     98.8833    128.7714   1.1011599142e+02   3.7039578887e+01    0.5178229    0.3471785  87.86  0.002076808    2.276    0.561
        50  -9.9363     27.0986    128.8907   1.3212804358e+02   4.6815226610e+01    0.1880293    0.1560105  81.03 0.0003157746    1.182    0.154
        51 -10.5835     43.4065    123.5156   1.2622514094e+02   4.6534933525e+01    0.4578298    0.2264684  74.14  0.001539877    4.072    0.754
        52 -10.3137    249.4833    123.9857   7.5879428354e+01   6.2012327023e+00    0.1967641   0.09698511 -53.75 0.0007098573    2.542    0.607
        53 -10.7484     58.4987    123.5112   1.2142589567e+02   4.4725161557e+01    0.2705903    0.1347486 -74.75  0.001039338    2.493    0.599
        54 -11.1892     26.7560    120.3516   1.3100249082e+02   4.8948066778e+01    0.4773822    0.2203988  82.31  0.001708757    3.761    0.734
        55 -11.5957    193.1057    118.3543   8.4104891313e+01   1.8798075562e+01    0.6202273    0.4460456 -65.01  0.002444667    1.696    0.410
        56 -10.4348     15.4514    120.7690   1.3460687987e+02   4.9744895037e+01    0.2973523    0.1400179  35.22  0.001466154    2.315    0.568
        57 -10.4267     98.3861    119.7572   1.0813987639e+02   3.9306572643e+01    0.2182639    0.1402973 -43.88  0.000942498    1.580    0.367
        58 -11.2446    140.8144    117.2069   9.5597475299e+01   3.1047550570e+01     0.417702    0.2392334 -52.33  0.001641108    1.865    0.464
        59 -10.3852      2.4053    115.2250   1.3797070419e+02   5.1916345047e+01    0.1726441   0.09921537 -84.70 0.0004029745    1.560    0.359
        60 -10.7048    108.3914    112.4103   1.0329654286e+02   3.9101910538e+01    0.5996546    0.2649311 -61.54  0.001808657    3.545    0.718
        61 -10.7513     78.6304    112.7130   1.1260979576e+02   4.4444179753e+01    0.3853221    0.2448022  84.62  0.001472733    2.768    0.639
        62 -11.3522    121.7568    111.5984   9.9232056351e+01   3.6506448962e+01     0.511902    0.2091357 -53.07  0.001661856    2.785    0.641
        63 -10.6251     91.8801    111.9434   1.0820472466e+02   4.2362928599e+01    0.4222416    0.2022512 -63.87  0.001443354    2.841    0.648
        64 -10.8298    174.2202    110.8638   8.6082537709e+01   2.4617808726e+01    0.4073168    0.2568427 -39.37  0.001749497    1.583    0.368
        65 -12.4457    160.0993    110.4616   8.9118282362e+01   2.8024220134e+01    0.8012686    0.5109918 -64.85  0.003152622    2.125    0.529
        66 -12.5196    141.1644    100.4423   9.0981713051e+01   3.4556275376e+01    0.4938121    0.4501171  46.09  0.002514054    1.090    0.082
        67 -11.9754     44.5734    101.4578   1.2158543698e+02   5.1811126310e+01    0.6475805    0.3747305  85.26  0.002583452    3.032    0.670
        68 -11.3734     14.1051    109.9048   1.3355223053e+02   5.2468403743e+01    0.5657886    0.2750329 -85.92  0.002585316    2.283    0.562
        69 -10.3900     25.1941    103.9667   1.2886794695e+02   5.3068795253e+01    0.1959253    0.1651489  85.99 0.0006819135    1.255    0.203
        70 -12.2839    127.4474    100.3203   9.4559749557e+01   3.7733894795e+01     0.667105    0.3058552 -52.25  0.002312161    2.501    0.600
        71 -10.5150     63.5009     96.9871   1.1384092353e+02   5.0486539949e+01    0.2014217    0.1261268 -82.44 0.0008104283    2.567    0.610
        72 -12.9111    170.2569     90.9260   8.1621025380e+01   2.9428098069e+01     0.481198    0.3978308  79.01  0.001283274    1.308    0.235
        73 -10.8981     82.0192    100.5351   1.0842875496e+02   4.6770490359e+01    0.2781625    0.2129386 -71.97 0.0007583238    1.529    0.346
        74 -11.7304     42.4946     87.6022   1.1917591371e+02   5.5303797632e+01     0.696448    0.3653102  -5.75  0.002655416    3.515    0.716
        75 -11.4675     86.7822     87.0219   1.0303011446e+02   4.8973360011e+01    0.5174662    0.3607185 -87.87  0.002128286    2.541    0.607
        76 -10.5159     45.3764     82.1623   1.1669840482e+02   5.6222835046e+01    0.2736807    0.1871694 -63.23 0.0007657491    1.490    0.329
        77 -11.2710    104.4934     83.3417   9.6201296043e+01   4.6292327138e+01    0.4176689    0.2534414 -63.90  0.001617292    2.452    0.592
        78 -10.1899    140.5260     83.0241   8.6108160271e+01   3.8185215488e+01    0.2415191    0.1537187 -41.22  0.001033554    1.602    0.376
        79 -10.9369      9.8639     80.7120   1.3027411363e+02   5.9589693538e+01    0.2297246    0.1563836 -69.91 0.0004185606    1.316    0.240
        80  -9.9725      1.8890     77.8319   1.3286232992e+02   6.0656378647e+01    0.1955746    0.1277648 -46.90 0.0007256347    1.282    0.220
        81  -9.6235    127.6934     76.3551   8.7357747462e+01   4.2504070756e+01     0.158489    0.1219161 -78.19 0.0007041717    1.719    0.418
        82 -11.0216     82.8501     73.4461   1.0015096458e+02   5.2535175835e+01    0.4156736    0.3302051  68.19   0.00209417    1.692    0.409
        83 -10.9005     62.4838     70.4888   1.0666223298e+02   5.6505608764e+01    0.2541644    0.1272357 -47.74  0.001116366    1.887    0.470
        84 -12.8458    109.5877     99.6531   9.9476302391e+01   4.1748212420e+01     1.157168    0.6213241  64.53  0.003708657    3.470    0.712
        85 -11.2713    223.3890     71.4568   6.7677085504e+01   2.0110610813e+01    0.2931642    0.2407299 -80.36 0.0006072469    1.202    0.168
        86 -10.4949     51.9651     70.2158   1.1070506899e+02   5.8027829691e+01    0.2485483    0.1861265 -45.82 0.0009796512    1.231    0.188
        87 -10.4839    195.5461     67.7136   7.0771096180e+01   2.7234615312e+01    0.3268373    0.2339813  79.39  0.001607659    1.476    0.322
        88 -11.2062     28.5005     52.4849   1.1518575920e+02   6.4288712660e+01     0.374575    0.2313929  -8.94  0.001764576    1.830    0.454
        89 -11.5883     19.4627     59.4497   1.2137971140e+02   6.3628116933e+01    0.2932861      0.22308 -35.71 0.0009381206    1.108    0.098
        90 -11.6734    221.7952    248.8324   1.0455309081e+02  -8.4085500244e+00    0.4542368    0.1964805  34.80   0.00237143    1.967    0.492
        91 -12.2481    237.3913     63.8649   6.4198983775e+01   1.8186990769e+01    0.3678721    0.2602229 -72.53  0.002034893    1.429    0.300
        92 -12.0620    232.1746     61.0537   6.4166533213e+01   1.9734855482e+01    0.3679435    0.2745914  89.54  0.002084289    1.364    0.267
        93 -11.8872      9.7284     58.5010   1.2551262438e+02   6.4479556292e+01    0.5001066    0.3429097  81.93  0.002832647    2.219    0.549
        94 -11.7862     40.0612     51.2085   1.0950240750e+02   6.3319726361e+01    0.6118183    0.1722392 -43.94  0.002296689    3.088    0.676
        95 -10.2461    162.1670     53.3733   7.2503344563e+01   3.7817900269e+01    0.2198828    0.1352944  73.17 0.0009564613    1.739    0.425
        96 -11.8510    149.3311     52.3062   7.4689692571e+01   4.1236350644e+01    0.3865325    0.2475198  59.28 0.0004817984    1.460    0.315
        97 -10.5779     82.3868     47.3542   9.1067615927e+01   5.7387524371e+01    0.2537816    0.2045881 -87.17  0.001020916    1.992    0.498
        98 -10.6500    157.0267     45.0147   7.0951047048e+01   4.0330502650e+01    0.2713872    0.1902481  62.97 0.0004879652    1.319    0.242
        99 -11.6840     71.4694     42.5124   9.3123727537e+01   6.0193705278e+01    0.6119645    0.3214941  56.48  0.002502051    2.962    0.662
       100 -11.3639      7.3950     43.2023   1.2244678626e+02   6.7739361187e+01    0.4947015    0.2496179  34.45  0.002692511    2.528    0.604
       101 -12.3270     42.5376     37.3632   1.0312780228e+02   6.5514238092e+01     0.591767    0.3690108   8.75  0.001529741    1.780    0.438
       102 -11.6771     46.8918     35.8293   1.0051327891e+02   6.5183450040e+01    0.4038085    0.2268639  19.65 0.0006695394    1.951    0.488
       103 -10.6781     82.3256     37.7071   8.7299828125e+01   5.8880205365e+01    0.3985434    0.2302347  57.99  0.001816467    2.167    0.539
       104 -11.0821    120.0059     34.2922   7.5172172666e+01   5.0995923652e+01    0.3069066    0.2578237  67.90 0.0007390366    1.198    0.165
       105  -9.9881     63.1671     34.3606   9.2986833753e+01   6.2897705170e+01    0.1742217    0.1169509  46.49  0.000434961    1.646    0.393
       106 -10.4692     73.9116     32.7811   8.8232420688e+01   6.1205898481e+01    0.2463435    0.1870985  58.76  0.001360464    1.660    0.398
       107 -12.5506     22.4877    239.4756   1.4289056047e+02   2.2106927733e+01    0.5381495    0.2433573  71.92  0.002962501    2.006    0.501
       108 -12.2940    202.5831     20.7106   5.7884761916e+01   3.1946090311e+01    0.4175552    0.2039619 -87.28  0.001813787    2.329    0.571
       109 -10.8137      7.8650    240.8040   1.4560821565e+02   2.3374747982e+01    0.1557925    0.1294111  76.20 0.0008940905    1.251    0.201
       110 -11.0938    239.7730     20.5749   5.4518671237e+01   2.3453368411e+01    0.2332697    0.1863313 -83.17 0.0004675805    1.106    0.096
       111  -9.7872      2.6356    240.2980   1.4651069922e+02   2.3985006894e+01    0.1208544    0.0527337  60.65 0.0007032896    1.721    0.419
       112 -10.9392     12.7727    227.4294   1.4406908470e+02   2.5508013684e+01    0.2119635    0.1553175  76.53 0.0006009158    1.067    0.063
       113 -10.0366    104.4542    224.9947   1.2491806052e+02   1.3981532096e+01    0.1843431    0.1300761 -66.75   0.00103076    1.599    0.374
       114 -10.4256     95.4905    225.0017   1.2686617142e+02   1.5382731241e+01    0.1830848    0.1039601  81.66 0.0008103729    2.559    0.609
       115 -11.4461    226.1242    221.2587   9.9198700127e+01  -5.3292147702e+00    0.2019263    0.1659812 -59.88  0.001096549    2.059    0.514
       116  -9.9939    184.8286    223.1819   1.0751551640e+02   8.8141163569e-01     0.299654   0.08292416  43.11  0.001021477    3.494    0.714
