#   1 NUMBER                 Running object number                                     
#   2 MAG_AUTO               Kron-like elliptical aperture magnitude                    [mag]
#   3 X_IMAGE                Object position along x                                    [pixel]
#   4 Y_IMAGE                Object position along y                                    [pixel]
#   5 X_WORLD                Barycenter position along world x axis                     [deg]
#   6 Y_WORLD                Barycenter position along world y axis                     [deg]
#   7 A_WORLD                Profile RMS along major axis (world units)                 [deg]
#   8 B_WORLD                Profile RMS along minor axis (world units)                 [deg]
#   9 THETA_WORLD            Position angle (CCW/world-x)                               [deg]
#  10 FWHM_WORLD             FWHM assuming a gaussian core                              [deg]
#  11 ELONGATION             A_IMAGE/B_IMAGE                                           
#  12 ELLIPTICITY            1 - B_IMAGE/A_IMAGE                                       
         1 -13.1354    177.9190     57.8992   4.6466276991e+01   3.3342700118e+01     1.639675    0.9984848  30.78  0.005345087    2.588    0.614
         2 -13.3919    193.6612     44.9588   4.0879607196e+01   3.1514449048e+01    0.9088765     0.847336 -49.05  0.003545649    1.173    0.148
         3 -13.7959    220.1513     15.5143   3.1415166903e+01   2.9255310933e+01    0.8961222    0.8280311 -72.49  0.003814975    1.240    0.194
         4 -12.4145    237.3206      3.6238   2.7801080189e+01   2.7022172268e+01     1.539149    0.3823889  79.78  0.005843024    4.534    0.779
         5 -12.0539    200.4892     24.6054   3.5241312286e+01   3.2502579923e+01    0.3828407    0.2987036 -82.45  0.002424874    1.122    0.109
         6 -10.3806    189.7237     14.9338   3.4103112107e+01   3.5995911661e+01    0.2818385    0.1904653 -57.05 0.0009840799    1.414    0.293
         7  -8.9585    167.6552    200.3017   8.1999475558e+01   7.7313664700e+00    0.1381793    0.1134765  66.47  0.000703871    1.682    0.406
         8 -12.4323    247.3004    246.4559   7.4287183869e+01  -1.1062882681e+01    0.7644627    0.4910975 -14.11  0.005072666    1.269    0.212
         9 -12.2296    248.3794    233.7078   7.1972334266e+01  -9.4913997973e+00    0.4173332    0.3274647 -22.89  0.002943191    1.298    0.230
        10 -19.5077     17.6899    144.8784   1.1286701766e+02   4.2850922424e+01     19.80703     5.742118 -75.39   0.06826156    3.390    0.705
        11 -10.5352    192.4870    194.3206   7.5488599198e+01   4.7121784197e+00    0.8157321     0.438498 -63.54  0.002525908    5.328    0.812
        12 -10.5093     60.3554    197.9626   1.0768443688e+02   2.5211518487e+01    0.1902562    0.1608293  66.79 0.0002612817    1.095    0.086
        13  -9.5927     32.0276    195.6716   1.1430744757e+02   2.9030552470e+01    0.1841469    0.1235968  54.94  0.000747906    1.393    0.282
        14 -11.0869    153.8922    195.2528   8.4217036112e+01   1.1117220412e+01    0.3756079    0.1935505  38.20  0.001592906    1.852    0.460
        15  -9.6582     83.0626    194.7210   1.0159553839e+02   2.2875919752e+01    0.3087433    0.2170357  20.20  0.001082214    1.647    0.393
        16  -9.1640    163.2961    192.3113   8.1495093191e+01   1.0085618393e+01    0.1481694    0.1088674  -6.86 0.0001938194    1.596    0.374
        17 -11.6630     55.7732    189.4328   1.0782550439e+02   2.7832439880e+01    0.4570103    0.3091164 -34.73  0.001303107    1.970    0.492
        18  -8.3847    185.2619    189.3141   7.6046976826e+01   6.8763043294e+00    0.1430875    0.1031556  -9.94 0.0002552271    1.539    0.350
        19  -9.5200     72.1401    188.3980   1.0351127951e+02   2.5942654137e+01    0.1972148    0.1715017 -86.53 0.0004158203    1.118    0.105
        20  -9.9018     91.7313    185.1555   9.7949481610e+01   2.3862266619e+01    0.4958037    0.2514409 -81.31  0.001653919    3.600    0.722
        21 -10.6339     89.9273    179.2733   9.7488199839e+01   2.5568055323e+01    0.5087136    0.3418786 -20.91  0.001694054    2.214    0.548
        22  -9.6754     85.5203    186.2987   9.9743819371e+01   2.4529153847e+01    0.3344758    0.2098654  76.61  0.001122747    2.203    0.546
        23 -10.7913     78.3809    183.4779   1.0119210135e+02   2.6261572336e+01    0.4776191    0.3941165 -37.05  0.002490274    1.382    0.276
        24 -10.8726    145.4677    182.6969   8.3857911494e+01   1.5293906363e+01    0.3079647    0.2577173  63.89 0.0009493596    1.435    0.303
        25 -10.1233     83.5914    177.0866   9.8832543921e+01   2.7067848397e+01    0.5171121    0.2938827  65.09  0.001594559    2.492    0.599
        26 -12.6303    238.2141    172.5451   6.2476890674e+01   1.2906971145e+00    0.6835437    0.3627113  30.29  0.003338443    2.188    0.543
        27 -10.0939    179.7478    173.9088   7.4147148492e+01   1.0900292885e+01     0.267653    0.2096332 -59.57  0.001210249    1.562    0.360
        28 -10.1055     47.2640    172.5767   1.0798318105e+02   3.3007194469e+01    0.3471018    0.2560018 -46.89  0.001110999    1.462    0.316
        29 -11.6443    229.8981    168.2079   6.3052379715e+01   3.3306947514e+00    0.6300888    0.2034064 -40.13  0.002376143    2.729    0.634
        30 -10.0300    186.7661    168.0361   7.1403571425e+01   1.0800358861e+01    0.2987746    0.2068033 -35.72 0.0007043371    1.381    0.276
        31  -9.5705    186.4977    164.4842   7.0708138634e+01   1.1562221863e+01    0.2861235     0.241134 -53.96  0.001139848    1.329    0.247
        32  -9.7163    120.3756    165.5506   8.6863142374e+01   2.3782712071e+01    0.2666439    0.2305035 -60.75 0.0005400699    1.205    0.170
        33  -9.1146    191.9018    165.5311   6.9792048754e+01   1.0358204619e+01    0.2170986    0.1420463  37.11  0.001027598    1.582    0.368
        34  -8.7143    164.6758    161.3107   7.4887134244e+01   1.6364187035e+01    0.1493057    0.1238702  84.39 0.0004945664    1.655    0.396
        35 -11.0439     88.3621    154.5880   9.3592506023e+01   3.1960985960e+01    0.3096602    0.2815407 -44.03  0.001654357    1.106    0.096
        36 -11.2098    134.2963    147.6062   7.9362218669e+01   2.5399568520e+01     1.054868    0.3126934 -54.18   0.00275999    4.392    0.772
        37 -10.3804    133.0000    141.0013   7.8191169430e+01   2.7194609117e+01     0.513965    0.2119119 -51.56  0.001588781    2.540    0.606
        38 -10.3633    111.6405    150.0708   8.6051464375e+01   2.9108973444e+01    0.6502808    0.3927984  77.57   0.00205666    3.778    0.735
        39 -11.9323     94.4960    148.1921   9.0554753336e+01   3.2568861046e+01    0.7382303    0.5424178 -38.21  0.002579975    1.439    0.305
        40  -9.5310    174.7310    148.8755   6.9845044082e+01   1.7035721106e+01    0.2805458    0.2067209 -59.17 0.0008105424    1.589    0.371
        41  -9.0203    179.4878    141.4979   6.7120576218e+01   1.7616860444e+01    0.1503372    0.1436918 -44.39 2.283603e-07    1.080    0.074
        42 -11.0343    107.0094    134.7421   8.3971965035e+01   3.3697979375e+01    0.5886052    0.3519467 -23.08  0.001924217    2.638    0.621
        43 -10.8978    105.8701    130.6411   8.3348050161e+01   3.4903532699e+01    0.8678656    0.4425637 -63.34  0.003037428    2.620    0.618
        44  -9.6389    117.8865    135.0892   8.0935144894e+01   3.1560642801e+01    0.3328283     0.236126  82.66  0.001330326    2.240    0.553
        45 -11.7688     94.5205    134.8116   8.7693401415e+01   3.5903628371e+01    0.3134215    0.2923549  -5.88 0.0007783232    1.120    0.107
        46  -9.4858    167.0108    224.2882   8.6317536690e+01   3.2952431011e+00    0.2180402    0.1875273 -32.50 0.0006344984    1.245    0.197
        47  -8.4138    149.2898    133.6929   7.2272278308e+01   2.5526254430e+01     0.153566    0.1264164 -87.71 0.0003030785    1.575    0.365
        48 -10.2781    135.6084    128.8736   7.4595110278e+01   2.9456024575e+01    0.4065546    0.1515916 -49.06  0.001301612    2.745    0.636
        49  -9.7421     38.0420    223.5287   1.1530108979e+02   2.2054984850e+01    0.1490867    0.1071509 -10.45  0.000716878    2.369    0.578
        50 -10.2089    113.9542    127.7987   8.0308627205e+01   3.4055992194e+01    0.3556713    0.2924333  14.27  0.000867962    1.359    0.264
        51  -9.2610    110.3396    126.7066   8.1091268297e+01   3.5009861877e+01    0.2466484    0.2206685  83.34  0.001230928    1.295    0.228
        52 -10.1279     57.5832    211.0535   1.0978377587e+02   2.2520179395e+01    0.2492502    0.1466447  47.71  0.000831418    1.553    0.356
        53 -10.1188    101.6623    123.1879   8.2812643058e+01   3.7476463653e+01    0.3053798    0.2509607  -0.72  0.001082585    1.408    0.290
        54  -9.9632    120.0900    122.8258   7.7324364031e+01   3.4013539574e+01    0.2930207    0.2200831  33.12  0.001347055    1.373    0.272
        55 -10.5724    134.7545    113.0884   7.0793647934e+01   3.3155472914e+01    0.6385329    0.1313383 -46.56   0.00152108    5.035    0.801
        56  -9.8454    134.4121    105.9968   6.8987719124e+01   3.4755273669e+01    0.5150898    0.1479457 -47.58  0.001437234    3.755    0.734
        57  -9.3995    109.6771    117.2017   7.8906815648e+01   3.7378126356e+01    0.2428591    0.2071703  49.12  0.000328635    1.236    0.191
        58  -8.6095    167.6310    112.3023   6.2653101781e+01   2.6112693430e+01    0.1577656    0.1217566 -85.73 0.0007033227    1.744    0.427
        59  -9.7502    205.3241    110.4194   5.4816520942e+01   1.8376820285e+01    0.2650142    0.2363339  43.76 0.0008290322    1.230    0.187
        60 -11.7090    117.7687    108.0505   7.4125504798e+01   3.7841012115e+01    0.6551073    0.4688014 -39.03  0.002996552    1.402    0.287
        61  -8.4692    191.3932    209.4346   7.8542296822e+01   2.1330762275e+00    0.1344619    0.1176801  -1.02  6.16471e-05    1.034    0.033
        62  -9.4202     74.3510    207.6356   1.0542551772e+02   2.1098710250e+01    0.2726943    0.1487208 -85.41 0.0008202004    2.412    0.585
        63 -10.2743     87.3010    205.5466   1.0202189878e+02   1.9737274827e+01    0.3670569    0.2383184 -41.23 0.0005735517    1.866    0.464
        64 -11.8899     52.9111    245.4419   1.1391533910e+02   1.5749411280e+01    0.2043022    0.1512419 -80.10 0.0007357932    1.389    0.280
        65 -11.8800     45.4450    244.6112   1.1536825245e+02   1.6804222207e+01    0.2321991    0.1197839 -66.25  0.001276484    2.031    0.508
        66 -12.7475    198.9381     39.4987   3.8900065551e+01   3.1034024661e+01    0.5435793    0.4681737 -56.07  0.001447512    1.129    0.115
        67  -9.9656     45.3102     46.0061   8.0068537293e+01   6.2945575618e+01    0.2854121     0.172991  33.15 0.0008684533    1.681    0.405
        68 -11.4197     54.2261    239.2917   1.1314567377e+02   1.6830997896e+01    0.1919123    0.1524367  73.46 0.0002741674    1.137    0.121
        69 -11.8774     47.9736    238.6946   1.1439940688e+02   1.7705619360e+01    0.1940932    0.1537562  89.17 0.0006402059    1.216    0.178
        70 -10.3644     61.8529    237.1925   1.1135313170e+02   1.6313143025e+01    0.1529906    0.1365925 -51.44  0.000650178    1.388    0.279
        71 -10.3028     60.6312     21.0813   6.3295804276e+01   6.4254532506e+01    0.2044468    0.1590959  39.83 0.0004889858    1.279    0.218
        72  -7.9353     76.7883    230.0640   1.0739830088e+02   1.5837359873e+01    0.4189037    0.1678387 -55.65  0.001531822    2.685    0.628
        73  -9.5591    196.5061     14.5129   3.3320514409e+01   3.4507957645e+01    0.1243752     0.102492 -82.88 2.968945e-05    1.010    0.010
