#   1 NUMBER                 Running object number                                     
#   2 MAG_AUTO               Kron-like elliptical aperture magnitude                    [mag]
#   3 X_IMAGE                Object position along x                                    [pixel]
#   4 Y_IMAGE                Object position along y                                    [pixel]
#   5 X_WORLD                Barycenter position along world x axis                     [deg]
#   6 Y_WORLD                Barycenter position along world y axis                     [deg]
#   7 A_WORLD                Profile RMS along major axis (world units)                 [deg]
#   8 B_WORLD                Profile RMS along minor axis (world units)                 [deg]
#   9 THETA_WORLD            Position angle (CCW/world-x)                               [deg]
#  10 FWHM_WORLD             FWHM assuming a gaussian core                              [deg]
#  11 ELONGATION             A_IMAGE/B_IMAGE                                           
#  12 ELLIPTICITY            1 - B_IMAGE/A_IMAGE                                       
         1 -14.8665    167.3323     40.6546   7.6154658475e+01   3.8472750980e+01     1.249489       1.0715   1.09  0.004239841    1.397    0.284
         2 -14.7734    185.4643      7.7679   6.4468656152e+01   3.7821619370e+01     1.914428    0.8111293  62.86  0.007098205    1.967    0.492
         3 -11.9305    125.0000    247.1358   1.3095196501e+02   6.6222416027e+00    0.2530988    0.1552207 -59.49   0.00143868    1.889    0.471
         4 -20.0171     66.8539    172.0033   1.3309724840e+02   3.1407397905e+01     18.45159     6.733127 -65.53   0.07362004    2.560    0.609
         5 -12.1844    206.7718    178.0954   1.0303616719e+02   4.0870344110e+00    0.5676125    0.3713115  15.59  0.002497142    2.107    0.525
         6 -12.1583    203.5056    172.0584   1.0242294873e+02   5.8740530004e+00    0.7041817    0.4195251 -38.45  0.003185486    1.691    0.409
         7 -12.5163    152.0900    183.4911   1.1563424315e+02   1.4041231667e+01    0.4170052    0.2892194 -81.21  0.001858681    2.028    0.507
         8 -10.5702    133.5970    249.0054   1.2958162464e+02   4.8714146972e+00    0.2433897    0.1187098 -51.13 0.0009717428    2.460    0.594
         9 -11.0742    219.2096    224.6037   1.0955761734e+02  -6.0020127765e+00    0.2381618    0.1754556 -49.96 0.0009953527    1.760    0.432
        10 -13.1003    195.6406    169.4013   1.0345387605e+02   7.9969692218e+00    0.5970041    0.4493025 -50.74  0.000610913    1.414    0.293
        11 -12.0415    193.4871    164.4793   1.0283955443e+02   9.4136836764e+00    0.4621835    0.3385612  38.81   0.00186708    1.373    0.271
        12 -11.0772      7.8926    175.8458   1.4621272960e+02   3.7059487851e+01    0.1772101    0.1307676  67.91 0.0003978678    1.271    0.213
        13 -13.7263    165.8741    188.6981   1.1363142732e+02   1.0226980022e+01    0.7492945    0.4912768  39.80  0.002726479    1.475    0.322
        14 -13.3773    136.7987    171.0370   1.1668498347e+02   1.9770082754e+01    0.7044618    0.5287478  63.30  0.002524863    1.410    0.291
        15 -13.5838    143.5255    167.6854   1.1447583717e+02   1.9173003577e+01    0.9036742    0.5310858 -80.88  0.003046027    3.469    0.712
        16 -12.0659    126.3050    172.4259   1.1937116949e+02   2.1489177010e+01     0.459607    0.3122563  66.74  0.002115817    1.702    0.413
        17 -11.3999     34.4657    168.9189   1.3996408574e+02   3.6060430119e+01    0.3556905    0.2089858 -83.99  0.001664703    1.518    0.341
        18 -10.5085    110.1764    222.9852   1.3078083175e+02   1.3576703597e+01    0.1840856    0.1589835  79.71 0.0004527767    1.081    0.075
        19 -10.3382    112.2862    196.6170   1.2662593569e+02   1.8681921532e+01    0.4111024    0.2703819   8.65  0.001587599    3.627    0.724
        20 -10.3724    111.9996    214.2259   1.2924460461e+02   1.5028975739e+01    0.1776251     0.141582  75.82 0.0003193757    1.184    0.156
        21 -11.2546    200.5806    162.9124   1.0104770277e+02   8.2355571440e+00    0.4588774    0.3821616 -53.56  0.002387522    1.285    0.222
        22  -9.9516    116.4659    211.8933   1.2800041204e+02   1.4740779550e+01    0.3188199    0.1546976 -64.37  0.001160209    2.351    0.575
        23 -11.1637    165.6219    172.5494   1.1049976978e+02   1.3597464892e+01    0.2788219    0.1851053 -51.66 0.0006335865    1.577    0.366
        24 -10.5487    189.9564    158.4632   1.0225638111e+02   1.1365352292e+01     0.232711    0.1475434  45.99  0.001025711    1.577    0.366
        25 -10.4596     15.6608    156.8743   1.4277737542e+02   4.0596122644e+01    0.1658443    0.1579285 -51.35 0.0006239417    1.388    0.279
        26  -9.8606    176.8684    154.8587   1.0424656369e+02   1.4927152037e+01    0.2038743    0.1795898 -89.14  0.001029386    1.288    0.224
        27 -11.8478    161.4677    153.4697   1.0735776327e+02   1.8551162523e+01    0.2780015    0.2702002  71.76  0.000731572    1.016    0.015
        28  -9.3776      7.3071    154.2812   1.4434944708e+02   4.1861690153e+01    0.1104794   0.07370749 -53.52 0.0003485582    1.559    0.359
        29 -10.9699    153.1282    151.1948   1.0876407310e+02   2.0833605627e+01     0.212135    0.1810834  87.99 0.0002953496    1.312    0.238
        30 -11.4091    174.2778    148.5591   1.0339025868e+02   1.6818279891e+01    0.3956878    0.2862165 -64.61  0.001294435    1.646    0.392
        31 -12.7418    107.7556    207.7881   1.2922610494e+02   1.7078531685e+01    0.5258933    0.3341827 -79.87  0.002223799    1.803    0.445
        32 -11.4906     25.9420    140.1332   1.3838515774e+02   4.3500246948e+01    0.1937812    0.1846385  -7.27 0.0007074178    1.391    0.281
        33 -12.3074    163.7696    203.0744   1.1670784183e+02   7.8052057946e+00     0.364508    0.2843133  86.19 0.0009584986    1.659    0.397
        34 -12.1925    160.4835    127.7623   1.0156059801e+02   2.4349427231e+01    0.4652615    0.3276648 -61.90   0.00172094    1.623    0.384
        35 -10.7169     18.7469    128.7357   1.3863706122e+02   4.6716053122e+01     0.273358    0.1337539 -50.96  0.001450335    1.848    0.459
        36 -12.2850    160.8513    198.0538   1.1642778925e+02   9.3474558793e+00    0.3594348     0.263105 -74.81  0.001551586    1.775    0.437
        37 -11.8954    156.9646    200.2640   1.1764157683e+02   9.6602715886e+00    0.6331403    0.4045719  83.49  0.002549222    2.854    0.650
        38 -10.8098    167.9753    112.9744   9.6121679373e+01   2.5746436972e+01    0.3880546    0.2605835 -82.82  0.001480241    2.419    0.587
        39 -10.9641    153.8116    194.9957   1.1737783641e+02   1.1324474329e+01    0.2937883    0.2208541  63.14  0.001085186    1.419    0.295
        40 -13.2471    117.6838    109.1850   1.0747029068e+02   3.7606988729e+01    0.4695475    0.2917143 -52.35  0.002061115    1.613    0.380
        41 -11.3396      4.4107    112.0649   1.4007138313e+02   5.1457565062e+01    0.2933075     0.194953  -7.04  0.001868385    2.145    0.534
        42 -10.8733    205.4150    110.1963   8.7753936695e+01   1.7491425487e+01    0.3176927     0.253341  50.87 0.0008886044    1.299    0.230
        43 -10.9971     14.9907    109.8208   1.3684976994e+02   5.1248288453e+01    0.3059238    0.1522915  -3.85  0.001412465    3.766    0.734
        44 -10.2613    140.0483    200.6603   1.2130258527e+02   1.2793686108e+01    0.2775017    0.1839524  32.11 0.0008584915    1.686    0.407
        45 -10.2527     11.1438    241.5900   1.5018345842e+02   2.3362542819e+01    0.1862399    0.1049459 -85.56   0.00129008    1.410    0.291
        46 -12.8986    180.5611    193.3120   1.1141562977e+02   6.4151298361e+00    0.4442165    0.3923967 -69.42  0.001978216    1.309    0.236
        47 -11.9436    169.8405    195.1845   1.1400820126e+02   8.1588040517e+00    0.2645638    0.2403457 -50.29 0.0008405505    1.178    0.151
        48 -14.4029    155.2649     55.6523   8.2868060857e+01   3.9277545249e+01     1.311443     1.132089  62.61 0.0009911107    1.123    0.110
        49 -11.8295    170.2013    184.1371   1.1182621484e+02   1.0279079978e+01    0.3815562    0.3011603 -84.31   0.00189164    1.640    0.390
        50 -12.9419    171.4356     32.9177   7.3253232242e+01   3.8459384349e+01    0.3993931    0.3483462  44.48 0.0008988488    1.190    0.160
        51 -13.9797    174.9893    187.7740   1.1151660511e+02   8.5934232756e+00     1.317982    0.4942859 -43.80  0.004763545    2.825    0.646
        52 -10.5358     14.0000    240.5750   1.4967959555e+02   2.3250633695e+01    0.2437601    0.1087915 -77.18  0.001239809    1.886    0.470
        53 -10.6096     13.4139     59.8793   1.2732862469e+02   6.1791725825e+01    0.1590326    0.1473713 -30.79 0.0004305376    1.242    0.195
        54  -9.9439    137.4088     31.4303   7.9120693730e+01   4.6826165143e+01    0.2496297    0.1297828  70.96  0.001024049    2.443    0.591
        55 -12.8352    210.2360    187.5608   1.0428602594e+02   1.6911699378e+00    0.8324445    0.4000808 -60.84  0.002208263    6.692    0.851
