#   1 NUMBER                 Running object number                                     
#   2 MAG_AUTO               Kron-like elliptical aperture magnitude                    [mag]
#   3 X_IMAGE                Object position along x                                    [pixel]
#   4 Y_IMAGE                Object position along y                                    [pixel]
#   5 X_WORLD                Barycenter position along world x axis                     [deg]
#   6 Y_WORLD                Barycenter position along world y axis                     [deg]
#   7 A_WORLD                Profile RMS along major axis (world units)                 [deg]
#   8 B_WORLD                Profile RMS along minor axis (world units)                 [deg]
#   9 THETA_WORLD            Position angle (CCW/world-x)                               [deg]
#  10 FWHM_WORLD             FWHM assuming a gaussian core                              [deg]
#  11 ELONGATION             A_IMAGE/B_IMAGE                                           
#  12 ELLIPTICITY            1 - B_IMAGE/A_IMAGE                                       
         1 -13.0629    208.9079      1.9534   6.1565393921e+01   3.2190858397e+01     1.615069    0.7723587  75.56  0.004945705    1.919    0.479
         2 -14.2071    186.1939     24.7566   7.0611193057e+01   3.5653423580e+01     1.892946     1.419113  -8.68  0.005845738    1.619    0.382
         3 -13.8965    193.0973     18.2075   6.7775500758e+01   3.4586585321e+01     1.680956     1.045147 -43.22    0.0059049    1.602    0.376
         4 -13.0554    199.5782     10.5732   6.4848388365e+01   3.3717473638e+01    0.7656589    0.6597817  48.52  0.001376442    1.270    0.213
         5 -11.6112     32.9942      4.8680   1.0380860352e+02   7.1056768416e+01    0.4973303    0.1086927 -38.55  0.001869727    4.071    0.754
         6 -13.9753     11.0751    206.6078   1.4934715618e+02   3.1282584438e+01    0.9455815    0.6016917  32.37  0.004192536    2.012    0.503
         7 -11.3862    246.0023    249.7630   1.1180657064e+02  -9.9449654673e+00    0.2644064    0.1501714  36.75  0.001733342    1.437    0.304
         8 -11.2217    162.9021    249.4221   1.2584460615e+02   2.8607122214e+00     0.332955    0.1766583  53.47  0.001863415    1.811    0.448
         9 -14.5866    102.8843    246.2192   1.3604641565e+02   1.2699221412e+01      6.25733     2.821165  28.42  0.001162267    5.388    0.814
        10 -12.9882      2.3724    224.1361   1.5161082488e+02   2.8872161363e+01    0.6958067    0.2447229 -73.97  0.002431551    2.517    0.603
        11 -14.4066     33.6124    246.4867   1.4765624766e+02   2.1756995360e+01     2.111329    0.7318951  41.17   0.01202043    2.412    0.585
        12 -10.8353     40.7820    213.6219   1.4446906932e+02   2.6795723297e+01    0.3632025    0.1194445  52.97  0.001807695    2.429    0.588
        13 -15.8016      1.9762     88.8260   1.4170775697e+02   5.7118887814e+01     14.35044          nan -71.16   0.02841778   13.053    0.923
        14  -9.3485    124.0933    209.1708   1.2799435204e+02   1.5628151487e+01    0.1793201    0.1294554  65.22 0.0004676747    1.331    0.249
        15 -15.4126     11.2089    240.3085   1.5087764975e+02   2.5195229652e+01     2.071819    0.9932134 -67.75  0.009770293    2.335    0.572
        16 -11.1085     35.6229    206.4202   1.4491328443e+02   2.8768457286e+01    0.3932312    0.1489756  46.55   0.00176329    2.132    0.531
        17  -9.8400    228.9541    205.9202   1.0752665519e+02  -2.3853351445e+00    0.1878434    0.1774921 -23.75 0.0005346957    1.366    0.268
        18 -10.8074    192.8717    194.3954   1.1208731506e+02   5.6793923420e+00    0.7740054    0.3901153 -61.53  0.002459459    5.814    0.828
        19  -9.1013     75.1569    198.5346   1.3656902971e+02   2.5323802077e+01    0.1739736    0.1044227  46.81 0.0009905469    1.478    0.323
        20 -10.4486     68.1936    196.7382   1.3779028680e+02   2.6650464777e+01    0.2877166     0.162293  60.70  0.001283638    1.578    0.366
        21 -11.9837     74.1884    192.7513   1.3615060455e+02   2.6628745827e+01    0.3775781    0.2480368 -48.40  0.001630761    2.064    0.516
        22 -11.9436     78.5386    186.0603   1.3448376546e+02   2.7386294355e+01     0.284721    0.2313475 -56.73 0.0009143089    1.474    0.322
        23  -8.7376    181.5187    192.4300   1.1394318394e+02   8.1277112659e+00    0.1363684    0.1173174  32.95 -4.112306e-07    1.043    0.041
        24  -9.5460     94.2790    178.9821   1.3017388458e+02   2.6479468807e+01    0.2488403    0.1509277  64.48 0.0009959976    1.696    0.410
        25 -12.1480    105.7891    172.8336   1.2671778055e+02   2.5890330968e+01     2.761867   0.07797679  43.14  0.005316591   10.538    0.905
        26 -12.8707     57.8341    130.2219   1.3177873757e+02   4.2676824703e+01     1.876361    0.6372647 -76.14  0.005055937    6.112    0.836
        27 -12.8951     90.5967    165.4207   1.2906692707e+02   2.9981002672e+01     1.747226    0.6199667  52.39  0.001720329    3.136    0.681
        28 -13.2259     67.5520    144.0659   1.3141615408e+02   3.8200274541e+01    0.9948674    0.5678561  83.79  0.004032084    2.241    0.554
        29 -11.3475     86.5253    174.3852   1.3126655608e+02   2.8667373342e+01    0.2386061    0.2129425  86.95 0.0003325668    1.100    0.091
        30 -13.3287     74.4071    171.7309   1.3363291301e+02   3.1033042217e+01    0.4439913    0.2735202 -45.49  0.001496702    2.179    0.541
        31 -10.8001    138.6049    171.8946   1.1924065809e+02   2.0139275634e+01    0.2962196     0.198494  51.81  0.001478641    1.391    0.281
        32  -9.8568    230.9992    167.8146   9.9888446106e+01   2.5670609036e+00    0.3010016    0.1347141 -50.15  0.001076628    3.834    0.739
        33 -10.5408     36.4381    160.6019   1.4092304964e+02   3.8211133420e+01     0.356807    0.1891485 -87.58  0.001917438    1.751    0.429
        34 -10.2653    103.9779    149.3148   1.2323133798e+02   3.1337718411e+01    0.3202641    0.2702093 -48.24 0.0008922732    1.311    0.238
        35  -9.5572    106.5074    145.0019   1.2181379280e+02   3.1860553209e+01    0.3111866    0.1878653 -40.15  0.001378463    2.073    0.518
        36 -12.3121     92.8684    148.8849   1.2588382861e+02   3.3306642271e+01    0.2687122    0.2663487  80.69  0.000530673    1.206    0.171
        37  -9.0083     22.7794    150.4068   1.4304423113e+02   4.1815162191e+01    0.1274441    0.1168563  17.33 0.0004649604    1.543    0.352
        38 -10.1282    133.8582    144.5354   1.1507337173e+02   2.6767995681e+01    0.8994212     0.199865 -54.87   0.00187979    8.012    0.875
        39 -10.8093     55.0808    144.4998   1.3460008277e+02   3.9713001778e+01    0.2133822    0.1653867 -57.45 0.0009605946    1.341    0.254
        40 -10.0943    113.4216    135.2464   1.1814960973e+02   3.2792780148e+01    0.3386742    0.2454863 -29.98 0.0009734828    1.837    0.456
        41 -10.9382    100.9631    132.4652   1.2077186992e+02   3.5682583769e+01    0.2919433    0.2508733 -24.99 0.0009035036    1.468    0.319
        42 -11.6325     44.7720    129.3463   1.3511860960e+02   4.4407013824e+01    0.4112609    0.2454886 -79.60  0.002200804    1.553    0.356
        43  -9.5963    160.5252    127.4844   1.0500401425e+02   2.4650365267e+01    0.1526641    0.1485593  67.33 0.0001518343    1.017    0.017
        44  -9.7752    109.2384    122.8685   1.1655572829e+02   3.6371227351e+01    0.2073127    0.1866176 -87.38 0.0003479933    1.103    0.093
        45 -10.9111    168.2842    113.0572   9.9660682725e+01   2.5760317190e+01    0.3879591    0.3068533 -87.29 0.0009886847    1.609    0.378
        46  -9.4968    205.5283    110.4722   9.1430525351e+01   1.7432181949e+01    0.2750992     0.132302  42.26 0.0009874473    2.259    0.557
        47 -11.0249     69.9895    134.7013   1.2929729749e+02   4.0032198520e+01    0.2902158    0.2142208  41.79  0.001159786    1.446    0.308
        48  -8.8167    184.5250     77.4733   8.6515252995e+01   2.8376715105e+01    0.1546931    0.1492838  24.21 1.213368e-05    1.089    0.082
        49  -9.7311    154.3909     75.8177   9.2317345933e+01   3.6278975042e+01     0.217207    0.1509281 -23.92  0.000572369    1.639    0.390
        50 -12.1172    202.6897    249.3328   1.1893592406e+02  -3.4512963349e+00    0.6119158    0.1524351  43.88  0.002460906    3.260    0.693
        51 -12.6615    139.6295    248.4119   1.2981808100e+02   6.7149105181e+00    0.5436846    0.4228115  86.12  0.003792662    1.576    0.366
        52  -9.7600    185.8519    238.1649   1.2031596140e+02   6.1939364686e-01    0.1766552    0.1399297  49.47 0.0005342789    1.256    0.204
        53 -13.8800     52.3492    228.5607   1.4345340058e+02   2.2642620314e+01     1.095196    0.4794065 -82.70  0.003670485    2.376    0.579
        54 -15.6744     55.7051    208.5790   1.4131786949e+02   2.5949291057e+01      7.10144     2.441257  64.06    0.0275753    3.926    0.745
