#   1 NUMBER                 Running object number                                     
#   2 MAG_AUTO               Kron-like elliptical aperture magnitude                    [mag]
#   3 X_IMAGE                Object position along x                                    [pixel]
#   4 Y_IMAGE                Object position along y                                    [pixel]
#   5 X_WORLD                Barycenter position along world x axis                     [deg]
#   6 Y_WORLD                Barycenter position along world y axis                     [deg]
#   7 A_WORLD                Profile RMS along major axis (world units)                 [deg]
#   8 B_WORLD                Profile RMS along minor axis (world units)                 [deg]
#   9 THETA_WORLD            Position angle (CCW/world-x)                               [deg]
#  10 FWHM_WORLD             FWHM assuming a gaussian core                              [deg]
#  11 ELONGATION             A_IMAGE/B_IMAGE                                           
#  12 ELLIPTICITY            1 - B_IMAGE/A_IMAGE                                       
         1 -14.6856    157.0085     44.1526   8.5663598408e+01   4.0671717583e+01     1.295671     1.053197 -21.20  0.003764935    1.257    0.204
         2 -14.6210    168.8470     11.5870   7.2617578307e+01   4.1564819232e+01     1.475857     1.005512  51.06  0.005411336    1.385    0.278
         3 -12.3088    189.5547     14.5162   7.0703872227e+01   3.5838217640e+01    0.4772244    0.2598501 -43.32  0.001916962    1.876    0.467
         4 -10.8292    146.0698    245.6219   1.3181152310e+02   7.1652425080e+00    0.1799068    0.1569086 -69.94 0.0007629673    1.447    0.309
         5 -12.5473    189.0268    249.9123   1.2520474656e+02  -1.2829857439e-01    0.4923621    0.1264972  38.49  0.001961658    3.464    0.711
         6 -19.9804     94.1955    232.6356   1.3923752343e+02   1.6910910920e+01      7.56421     5.500255  68.23   0.04909937    1.139    0.122
         7 -11.6182     26.7301    194.4939   1.4791699956e+02   3.2101535516e+01    0.1977149    0.1372007  81.03 0.0006237757    1.076    0.071
         8 -13.9334    195.7005    171.1954   1.1136634824e+02   9.5624312493e+00    0.7960122    0.4568051 -49.24  0.002828846    2.149    0.535
         9 -14.3121    207.4913    177.9911   1.1048501525e+02   6.2213852040e+00    0.9270481    0.6725706 -36.07  0.003972625    1.500    0.333
        10 -11.9350     21.8709    237.9538   1.5118325943e+02   2.4910538654e+01    0.1475372    0.1013059  82.36 0.0008270636    1.175    0.149
        11 -12.2308    203.1598    172.5025   1.1021629745e+02   7.8938702931e+00    0.3956049    0.3151428 -26.97  0.001747972    1.325    0.245
        12 -10.8026     28.0490    172.4435   1.4602498124e+02   3.6314550119e+01    0.2066161    0.1379668 -58.54 0.0008296872    1.709    0.415
        13 -12.0638    230.1510    166.6088   1.0414015448e+02   3.5650726022e+00    0.3181378    0.1710747 -46.84  0.001424173    2.479    0.597
        14 -12.0978    201.1965    165.0969   1.0909934265e+02   9.4494231532e+00    0.4152952    0.2749822 -60.51  0.001273386    2.330    0.571
        15 -11.3106    222.6287    162.0171   1.0451524030e+02   5.6817326518e+00    0.3167548     0.212345 -54.78  0.001417692    2.181    0.542
        16 -10.8191      5.2225    162.2549   1.4973414422e+02   4.0437320959e+01    0.1802831   0.09319801  70.13 0.0007357651    1.685    0.406
        17 -12.6008    175.6494    233.3196   1.2527027302e+02   4.0610604714e+00    0.2685814    0.1865705 -46.55  0.001754971    1.843    0.457
        18 -10.2683     22.9809    156.2425   1.4567102775e+02   4.0152999490e+01    0.1525392    0.1196998  82.57 0.0004722255    1.067    0.063
        19 -11.5469    191.6349    154.0567   1.0863906104e+02   1.3227270422e+01    0.3804101    0.2556673 -13.80  0.001759181    1.951    0.487
        20 -10.3830     17.8222    154.1386   1.4656692931e+02   4.1058485328e+01    0.2064486    0.1205211 -60.28 0.0005260044    1.704    0.413
        21 -11.5000     18.0201    150.0091   1.4616667470e+02   4.1911625048e+01    0.2815664    0.1652488 -55.84  0.001470928    1.833    0.454
        22 -12.6876    176.0252    229.4800   1.2468282697e+02   4.5082136400e+00    0.3402995    0.2516237  11.90  0.001381673    1.702    0.412
        23 -10.8226    183.0050    149.9719   1.0947950866e+02   1.5743494673e+01    0.2190361    0.1789455 -86.99  0.000530666    1.650    0.394
        24 -13.3801    174.0458    148.4098   1.1097301918e+02   1.7908911432e+01     0.499914    0.3863442 -59.69  0.001659093    1.523    0.343
        25 -10.5370     12.5730    243.1942   1.5277652917e+02   2.5003056216e+01    0.1082545   0.08487643 -80.08  0.000864834    1.588    0.370
        26 -11.0544      8.2777    148.5445   1.4810708408e+02   4.3024371181e+01    0.2300099   0.09131376 -64.96  0.001263858    2.071    0.517
        27 -12.2568    176.4914    143.0093   1.0928502759e+02   1.8384794067e+01    0.2818729    0.2067844  63.35 0.0008532163    1.575    0.365
        28 -12.3535     27.7801    144.7904   1.4353676859e+02   4.2148177883e+01     0.368872    0.2973123  79.44  0.002031317    1.113    0.102
        29 -13.2062    155.9948    139.8033   1.1294320570e+02   2.3337562849e+01    0.4635421    0.3606029  89.83  0.002262006    1.678    0.404
        30 -10.4156     27.7477    138.3108   1.4285460666e+02   4.3557832917e+01    0.1662088    0.1545774  11.34 0.0009038837    1.534    0.348
        31 -11.2338      3.4996    134.7060   1.4800530675e+02   4.6303976770e+01    0.1955502    0.1198385 -65.64 0.0007070595    1.418    0.295
        32 -12.0028    156.1499    132.8346   1.1134427829e+02   2.4681436781e+01    0.2246351    0.2028203  83.66 0.0003746315    1.206    0.171
        33 -13.5770    160.5405    128.3700   1.0933476447e+02   2.4618305614e+01    0.5211302     0.439615 -58.34  0.002010759    1.269    0.212
        34 -12.7984    198.4973    222.9994   1.1984383197e+02   1.5891642211e+00     0.304958    0.2213351   5.37  0.001283398    1.629    0.386
        35 -12.9991     37.4508    124.1153   1.3876797001e+02   4.5771332171e+01    0.3933389    0.2352398  26.64  0.002245869    2.170    0.539
        36 -11.0760    150.8595    240.3934   1.3040489664e+02   7.1259130991e+00    0.2027736    0.1596066 -82.74  0.001423015    1.653    0.395
        37 -11.1386     18.2978    220.9309   1.5089177425e+02   2.8140363049e+01    0.1340483   0.08685438  87.69 0.0004579489    1.228    0.186
        38 -12.2307    141.9771    121.3607   1.1188385608e+02   3.0006191354e+01    0.4716621    0.2643762  67.21  0.001693502    2.914    0.657
        39 -11.5348     23.9046    217.2294   1.4979870332e+02   2.8219437188e+01    0.1568564    0.1096132  85.72  0.000472614    1.158    0.137
        40 -11.0390    167.8982    240.1668   1.2748614744e+02   4.4266608597e+00    0.1692027    0.1273375  51.19 0.0003251796    1.172    0.147
        41 -13.0884     12.0633    205.8531   1.5111329501e+02   3.1424867475e+01    0.4656241    0.2488487  31.00  0.003051365    2.538    0.606
        42 -10.8954    205.4451    110.1735   9.5628759657e+01   1.7758751584e+01    0.3287147    0.2106778  41.84 0.0009158251    1.597    0.374
        43 -11.3020     16.3241    249.9712   1.5252159571e+02   2.3560259662e+01    0.1286572   0.07567984  82.89 0.0009048326    1.314    0.239
        44 -12.0532     31.0896    104.5991   1.3756929050e+02   5.0745780553e+01    0.3336448    0.2146178   3.90  0.001537632    2.488    0.598
        45 -11.9912     96.7904     96.3456   1.1719906108e+02   4.4104088696e+01    0.3021576    0.2151481  55.44 0.0008376023    1.600    0.375
        46 -10.8789    124.4541     95.4760   1.0953684962e+02   3.9045119618e+01    0.1486974    0.1429474 -47.75  6.09332e-05    1.005    0.005
        47 -12.2208     52.2689     91.6726   1.2903988193e+02   5.1513682275e+01    0.3159626    0.2538138 -54.20  0.001249324    1.087    0.080
        48 -11.2633     41.8856     92.0046   1.3222273643e+02   5.2550482591e+01    0.1932687    0.1578095 -64.37 0.0005182379    1.012    0.012
        49 -10.6568     31.4335    205.4538   1.4782814144e+02   2.9555749925e+01    0.1664936    0.1414507 -77.26  0.001255642    1.453    0.312
        50 -10.9550    142.0200     80.5136   1.0079137204e+02   3.8194857960e+01    0.2389657    0.2048541 -35.18 0.0004530997    1.143    0.125
        51 -14.6103    146.1756     59.0054   9.2977318483e+01   4.1054308988e+01     1.476592     1.135944  26.45   0.00440587    1.440    0.306
        52 -19.0600     78.9175     94.4748   1.2180832352e+02   4.7389509174e+01     16.88459    0.7565324 -53.39    0.0231215   19.477    0.949
        53 -13.0993    160.7162     35.1151   8.1887475305e+01   4.0969044478e+01    0.4477689    0.4020303  27.36 0.0008033402    1.125    0.111
        54 -10.0674     50.4358     65.0000   1.2305506999e+02   5.7520234247e+01    0.2369038   0.07431242  31.65 0.0009154196    3.780    0.735
        55 -11.0903     13.4017     59.8766   1.3480450139e+02   6.1877904590e+01    0.1626685    0.1506636 -78.17 0.0004189432    1.253    0.202
        56 -10.7848     28.4706    239.8645   1.5028964811e+02   2.3906724129e+01    0.1446023   0.08400365  71.67 0.0006628608    1.251    0.201
