#   1 NUMBER                 Running object number                                     
#   2 MAG_AUTO               Kron-like elliptical aperture magnitude                    [mag]
#   3 X_IMAGE                Object position along x                                    [pixel]
#   4 Y_IMAGE                Object position along y                                    [pixel]
#   5 X_WORLD                Barycenter position along world x axis                     [deg]
#   6 Y_WORLD                Barycenter position along world y axis                     [deg]
#   7 A_WORLD                Profile RMS along major axis (world units)                 [deg]
#   8 B_WORLD                Profile RMS along minor axis (world units)                 [deg]
#   9 THETA_WORLD            Position angle (CCW/world-x)                               [deg]
#  10 FWHM_WORLD             FWHM assuming a gaussian core                              [deg]
#  11 ELONGATION             A_IMAGE/B_IMAGE                                           
#  12 ELLIPTICITY            1 - B_IMAGE/A_IMAGE                                       
         1 -16.6800    183.2825     13.3981   6.4031339934e+01   3.7140979957e+01     7.091957     3.346135  39.84    0.0300886    3.003    0.667
         2 -15.9030    141.8440     54.7856   8.2551703317e+01   4.2054231304e+01     2.769032     1.763423  84.14   0.01014047    2.532    0.605
         3 -15.7153    142.2351     75.0360   8.8389768867e+01   3.8749394881e+01     2.103813     1.865157 -63.59   0.00767084    1.258    0.205
         4 -11.6601     12.6068     13.8435   1.1002845526e+02   6.9271770997e+01    0.2717685    0.1369557 -16.45  0.001619751    1.944    0.486
         5 -11.1142      2.9140      7.0524   1.1180424273e+02   7.0957114371e+01    0.2029276    0.1285113 -36.72  0.001492871    1.479    0.324
         6 -10.3099     93.0042    207.3507   1.2958849019e+02   1.9706960979e+01    0.2363568    0.1807579 -80.73 0.0004080452    1.312    0.238
         7  99.0000    203.9102    209.3132   1.0620452526e+02  -7.3558236585e-01     2.892402     1.488214  55.71   0.01150911    2.941    0.660
         8 -14.3935    216.1767    242.7147   1.0972576276e+02  -8.0194675480e+00     1.112607    0.6524655  21.23  0.003247842    1.730    0.422
         9 -15.6992    225.8375    231.2777   1.0594397485e+02  -7.9120525927e+00     2.448947     1.546327  17.38   0.01016249    1.610    0.379
        10 -10.7798    182.6882    250.1086   1.1733297376e+02  -3.6343673244e+00    0.3910827    0.1412153  40.44  0.001668718    2.313    0.568
        11 -16.7143    128.2688    225.9254   1.2469490584e+02   9.9691631795e+00     5.387182     2.160254  37.56   0.02184428    2.404    0.584
        12 -16.5708     61.6328    237.3425   1.3933404548e+02   1.8150353057e+01     1.961644      1.21331  51.43   0.01194166    1.377    0.274
        13 -18.0944     87.1130    238.0953   1.3455354489e+02   1.4334875926e+01     3.417983     2.247868  41.38   0.01667978    1.447    0.309
        14 -11.8296     72.8793    203.1095   1.3338375741e+02   2.3692601842e+01    0.4102788    0.2915314 -58.69  0.001504287    1.469    0.319
        15  -9.9464     64.0811    204.2792   1.3540150585e+02   2.4676870229e+01    0.1786545    0.1380287  64.16 0.0005457455    1.159    0.137
        16 -12.0827     82.5199    189.4597   1.2941642509e+02   2.5297682326e+01     1.053094    0.8391859  42.90  0.006057697    1.288    0.224
        17 -14.4063    141.8059    178.3671   1.1369734870e+02   1.7287155164e+01     1.719476     1.053599 -63.19  0.006114645    1.980    0.495
        18 -13.2299    100.4873    157.2096   1.1966304466e+02   2.9829186179e+01     1.034957    0.7154214 -43.32  0.004994453    1.546    0.353
        19 -13.5834     92.6013    179.8789   1.2560627222e+02   2.5889737913e+01     1.097141    0.8662044   4.78  0.005652725    1.851    0.460
        20 -14.8720    121.5742    186.6954   1.1994165648e+02   1.9317175167e+01     1.474523     1.182209  21.61  0.004763423    1.495    0.331
        21 -14.6136    124.0789    172.0902   1.1668059764e+02   2.2111041914e+01     1.362819     1.135298  88.73  0.004525032    1.326    0.246
        22 -13.4882    110.1606    170.7713   1.1980375198e+02   2.4979781192e+01    0.7659949    0.6031958  38.71  0.002644419    1.298    0.230
        23 -14.1938    100.4063    168.1644   1.2172054426e+02   2.7291603620e+01     1.263586    0.7799366  19.30  0.005249169    2.507    0.601
        24  -8.9972     93.3610    198.6533   1.2829269553e+02   2.1541787623e+01    0.1509091   0.09558112  71.50  0.000702897    1.849    0.459
        25  -9.8434    193.6820    192.5316   1.0506776598e+02   4.1534424525e+00    0.2902583    0.2253495  20.70  0.001518203    1.331    0.249
        26  -9.6461    206.2620    180.9762   1.0017743149e+02   3.8607829864e+00    0.1987423    0.1854655 -17.83 0.0009229372    1.062    0.058
        27  -9.4845     74.4856    174.9540   1.2915151337e+02   2.9823228116e+01    0.2119757    0.1256671 -63.36  0.001032307    1.589    0.371
        28 -11.0036    196.1892    171.1202   1.0017577749e+02   7.7211512554e+00    0.3540536    0.3408638 -16.50  0.001046736    1.043    0.042
        29 -11.2312    157.2288    168.7084   1.0818541447e+02   1.6256158316e+01    0.5493839    0.3287095 -59.53  0.001832385    2.032    0.508
        30 -10.5087     10.6311    250.3973   1.4910612326e+02   2.1784457936e+01    0.1236882    0.1002381 -69.30 0.0009740255    1.607    0.378
        31 -10.4835      1.1154    250.6291   1.5060561551e+02   2.2714706102e+01   0.09756815   0.04770468  87.00 0.0006121835    1.659    0.397
        32  -9.3361      8.2680    160.6296   1.4280533786e+02   4.0539043719e+01    0.1265794    0.1146333  -0.48 0.0007275188    1.532    0.347
        33 -12.5693     87.3740    156.3013   1.2284213086e+02   3.2223323161e+01    0.3792034    0.2752316 -32.82 0.0009326944    1.717    0.418
        34 -13.6769    108.9164    178.3222   1.2145776485e+02   2.3475951001e+01     1.129335    0.7172077  25.98  0.004776562    2.012    0.503
        35  -9.8204      3.2354    155.6340   1.4343889493e+02   4.2033111313e+01    0.1601308    0.1456764 -17.30 0.0006363239    1.498    0.333
        36 -10.0693    124.0166    148.8431   1.1196509287e+02   2.7413217941e+01     0.446948    0.2521492  65.54  0.001575778    2.897    0.655
        37 -11.4270    174.8778    148.8089   9.9840957754e+01   1.6711938749e+01    0.2833534    0.2377615 -61.00 0.0007647154    1.302    0.232
        38 -10.6830    134.1692    146.0472   1.0880354496e+02   2.6009208789e+01    0.7350054    0.1990016 -54.06  0.001808548    5.162    0.806
        39 -10.3985    145.9895    146.0636   1.0590829719e+02   2.3541364727e+01    0.2294136    0.2257082  51.38 0.0003278968    1.009    0.009
        40 -10.1075    112.1146    139.3072   1.1294321407e+02   3.1888070537e+01    0.4990251    0.2654851 -28.69  0.001665837    3.354    0.702
        41 -11.3517    100.8629    139.7433   1.1601793173e+02   3.3837431277e+01    0.2623113    0.2463457   4.94 0.0004550803    1.182    0.154
        42 -10.2707    106.1015    130.8821   1.1264764875e+02   3.4935667443e+01    0.3419749    0.2223885 -54.54  0.001558513    1.530    0.346
        43  -9.9205    105.4891    126.7165   1.1184975778e+02   3.5995348895e+01    0.2905185    0.2130737 -29.38 0.0008770685    1.574    0.365
        44 -10.1198    117.9970    130.1496   1.0929851166e+02   3.2841926059e+01    0.2392678     0.207091  -7.86  0.001209941    1.350    0.259
        45 -11.3116    161.8085    128.4065   9.7989857741e+01   2.3884594744e+01    0.4653076    0.2516147  58.66  0.001735986    2.246    0.555
        46  -8.9535     80.3788    120.2899   1.1741251536e+02   4.1706859523e+01      0.14607    0.1080769 -15.99 0.0007018484    1.737    0.424
        47 -10.7650    168.6366    113.4957   9.2734153376e+01   2.5377241003e+01     0.332108    0.2627108 -77.05 0.0009685492    1.557    0.358
        48 -10.3489    205.3908    110.1636   8.4472542882e+01   1.7498435442e+01    0.2608714    0.2010665  42.72 0.0007277775    1.382    0.276
        49  -9.3197    152.5748    102.8187   9.3633211890e+01   3.1218831209e+01    0.1997295    0.1461278 -54.08 0.0003036419    1.480    0.324
        50 -19.3668     37.2073    139.1517   1.3303560136e+02   4.2825390886e+01     19.86139     1.501315 -64.09   0.03851401   11.204    0.911
        51  -9.7384     82.2130    211.9403   1.3249461023e+02   2.0402826382e+01    0.3526678    0.2235005  50.59  0.001220152    1.432    0.302
        52 -10.3136    116.0525    212.0123   1.2525709861e+02   1.4877764757e+01    0.2075429    0.1748077  67.70 0.0003187982    1.122    0.109
        53  -9.6696    112.9560     64.9991   9.2803739903e+01   4.6884100018e+01    0.2140637    0.1959111  33.21 0.0005571315    1.054    0.052
        54  -9.6920     13.5069     59.9646   1.2471006948e+02   6.1714625661e+01    0.1701208   0.09296978 -52.24 0.0004206689    1.512    0.338
        55 -11.2925     11.4044    206.0758   1.4610446475e+02   3.0417577512e+01      0.43769    0.1840999  38.62  0.002420808    2.383    0.580
        56 -10.1771    107.0754    203.9300   1.2601962835e+02   1.8122627031e+01    0.3751191    0.2578898 -10.46  0.001571713    3.115    0.679
