#   1 NUMBER                 Running object number                                     
#   2 MAG_AUTO               Kron-like elliptical aperture magnitude                    [mag]
#   3 X_IMAGE                Object position along x                                    [pixel]
#   4 Y_IMAGE                Object position along y                                    [pixel]
#   5 X_WORLD                Barycenter position along world x axis                     [deg]
#   6 Y_WORLD                Barycenter position along world y axis                     [deg]
#   7 A_WORLD                Profile RMS along major axis (world units)                 [deg]
#   8 B_WORLD                Profile RMS along minor axis (world units)                 [deg]
#   9 THETA_WORLD            Position angle (CCW/world-x)                               [deg]
#  10 FWHM_WORLD             FWHM assuming a gaussian core                              [deg]
#  11 ELONGATION             A_IMAGE/B_IMAGE                                           
#  12 ELLIPTICITY            1 - B_IMAGE/A_IMAGE                                       
         1 -13.4538     42.2492     45.7036   8.7051476758e+01   6.3375372350e+01     1.232417    0.6422687  42.91 0.0008242033    2.548    0.608
         2 -12.1155    124.7680     28.0247   5.2936918090e+01   5.0285694514e+01    0.8599047    0.5592801  38.33  0.003916164    1.538    0.350
         3 -12.5360    119.3559     37.7849   5.7667709955e+01   5.0345921549e+01    0.8257624    0.5939548 -86.24  0.003224907    2.049    0.512
         4 -12.6227    131.9543     15.1317   4.6996113890e+01   4.9927436953e+01     1.391638    0.5380496  63.41  0.002534472    2.284    0.562
         5 -11.8581    149.9531     24.4454   4.6878691061e+01   4.4521768114e+01     1.842477    0.6464447  59.61  0.007104626    2.412    0.585
         6 -11.3622    137.0526     22.6963   4.8608951955e+01   4.7905071172e+01    0.9283888    0.3226791  51.39  0.003244006    2.488    0.598
         7 -11.0221    147.2768     17.5408   4.5136034334e+01   4.5922254791e+01    0.6768429     0.458715 -44.55  0.003445703    1.606    0.377
         8 -11.3677    164.0550     27.7804   4.5620775170e+01   4.0619107051e+01    0.4168184    0.2789137 -21.37 0.0004423365    1.738    0.425
         9 -10.2672      7.0178     32.6482   9.9024083234e+01   6.9059164171e+01     1.219705    0.4957094 -46.26   0.00648246    1.828    0.453
        10 -10.3612     47.1885     18.9543   7.3493002358e+01   6.6969204929e+01    0.3347173    0.2462036 -20.08  0.001211311    1.235    0.190
        11 -10.0150     31.9128     12.1621   7.7238140070e+01   6.9991251533e+01    0.2169611    0.1900246  40.34 0.0005972713    1.711    0.415
        12 -11.7982     26.2473     27.6458   8.7282088790e+01   6.8326581988e+01     0.454508    0.3953637   1.16  0.002237032    1.243    0.195
        13 -11.8109     36.7570     17.8900   7.7719527398e+01   6.8581215069e+01    0.8395281    0.4675223 -19.83  0.004290287    1.756    0.431
        14 -12.2411     48.7558     12.8726   6.9873370787e+01   6.7501135447e+01    0.5390673    0.2950263  40.22  0.002032059    1.772    0.436
        15 -11.7107     20.1656     21.9586   8.7912238216e+01   6.9864682887e+01    0.7044219    0.2289091 -41.44  0.003242017    2.547    0.607
        16 -12.7293     16.3375     12.5825   8.5611197802e+01   7.1686354155e+01    0.9985425    0.5257769 -21.35  0.003643835    1.772    0.436
        17 -11.9165     22.8956     11.4578   8.1499178840e+01   7.1165167877e+01    0.5127118     0.308566  -6.98   0.00220397    1.607    0.378
        18 -10.6736     79.1425     34.0148   6.7867140202e+01   5.9468762361e+01    0.8598592    0.5496419 -10.83  0.004319965    1.771    0.435
        19 -11.1015    105.8844     20.6276   5.4599194298e+01   5.5513742093e+01    0.4099468    0.3252963 -28.82  0.001103427    1.376    0.273
        20 -12.3059    113.2353     25.4007   5.4622257860e+01   5.3303223673e+01    0.8149881    0.3920406  50.62  0.003108969    1.822    0.451
        21 -10.9066    198.5587     29.2516   4.1365503894e+01   3.1932930091e+01     0.576641    0.3535555 -24.19  0.002588038    1.915    0.478
        22 -10.7134    214.6472     23.6117   3.8229010734e+01   2.8811515835e+01    0.4642433    0.3460491   6.09  0.002526616    2.118    0.528
        23 -10.9878     87.1144      7.3691   5.4070411452e+01   6.0923702440e+01    0.5824149     0.322304  59.47   0.00239741    1.780    0.438
        24 -11.3019     90.6667     21.1650   5.8900711073e+01   5.8782471374e+01    0.5878138    0.3706812 -24.85  0.002333807    1.657    0.397
        25 -11.1508     86.1547     14.1350   5.7248291546e+01   6.0480259858e+01    0.7628379    0.4172891  15.75  0.003255564    2.360    0.576
        26 -10.8732    178.9054     21.0868   4.1613692502e+01   3.7683816978e+01    0.5705809    0.2600331  47.31  0.001889929    2.474    0.596
        27 -11.9465     68.1801     18.0020   6.4757751845e+01   6.3585668529e+01    0.4880439    0.4250013   7.75  0.001822444    1.086    0.079
        28 -12.1003    237.8000     15.9830   3.4471866464e+01   2.4534362765e+01    0.7653185    0.3494438  75.06  0.003240207    2.115    0.527
        29 -10.9156    226.5076     15.4102   3.5257570086e+01   2.7067769215e+01    0.4481589    0.2286298 -53.04  0.002002112    1.751    0.429
        30  -9.7636    191.4794     16.5453   3.8902402869e+01   3.5103639356e+01    0.2957092    0.2229296   5.38  0.001627722    1.908    0.476
        31 -11.5743    192.5544      7.9752   3.6593832901e+01   3.5733393064e+01    0.6269366    0.4452961  10.54   0.00286906    2.152    0.535
        32 -11.3243    165.0527     17.9319   4.2571276979e+01   4.1460560016e+01    0.4712838    0.2651842  43.20  0.001452125    1.988    0.497
        33 -12.2980    104.5842     12.6988   5.1821636546e+01   5.6608571451e+01    0.4995117    0.4451578 -28.80  0.002114457    1.275    0.216
        34 -11.4895    211.9305      9.4336   3.5138928515e+01   3.1023415252e+01    0.5434166    0.3438724   1.24    0.0020152    2.887    0.654
        35  -9.1840      4.7495     11.1836   9.1574232149e+01   7.2898735156e+01    0.3405246    0.1818643 -36.75   0.00214235    1.462    0.316
        36  -9.9286     62.8611      6.6298   6.1306896263e+01   6.5784116397e+01    0.3010659    0.1813972  13.20  0.001488071    1.731    0.422
        37 -11.8052    247.0557      6.5401   3.1847504750e+01   2.3638617345e+01    0.5835508    0.4027593  48.77  0.003591924    2.032    0.508
        38 -10.8682    242.4644      3.5227   3.1535812252e+01   2.4919147194e+01    0.3451362    0.1661638  70.18  0.001884491    1.995    0.499
        39  -9.6026    168.6665      9.8005   3.9750562137e+01   4.1379333256e+01    0.3371014    0.1220727  55.48  0.001377192    2.449    0.592
        40  -9.2994    163.0836     10.1313   4.0559697902e+01   4.2727844416e+01    0.2040437    0.1649843  50.10 0.0007569004    1.257    0.205
        41 -10.7991    237.0290      5.4934   3.2309685146e+01   2.5860187385e+01    0.2862707    0.1785511 -57.47  0.001738632    1.344    0.256
        42 -10.6854    232.6444      7.1926   3.2981864167e+01   2.6622855244e+01     0.363372     0.216907 -84.16  0.001820053    1.538    0.350
        43 -10.4088    228.2282      3.4070   3.2489764424e+01   2.7985372466e+01    0.3061876    0.2161323 -76.95  0.001921042    1.194    0.162
        44 -10.9044    218.6637      3.6942   3.3269263466e+01   3.0082507066e+01    0.3254845    0.2591917 -53.26 0.0009732452    1.188    0.158
        45 -10.5809    223.3795      1.9348   3.2522769125e+01   2.9206214854e+01    0.3140385    0.1815447  79.49   0.00109236    1.555    0.357
        46  -9.9821     66.0507     10.3463   6.1959259146e+01   6.4823251844e+01    0.2968951    0.1800434  46.09  0.001056249    1.540    0.350
        47 -10.4076    183.8891      4.9108   3.6686187228e+01   3.8118375370e+01    0.4273381    0.2738437 -41.07  0.002034154    1.587    0.370
        48 -10.0296    153.2992      7.2471   4.1021917307e+01   4.5413353578e+01    0.5792308    0.1803246  71.29  0.002084221    3.066    0.674
        49 -10.9358    114.5200      3.7402   4.6249016020e+01   5.5095868358e+01    0.4784085    0.3060357  54.04  0.001052356    1.313    0.238
        50 -11.1209    106.2048      1.9792   4.7269561469e+01   5.7157059104e+01    0.5579628    0.2894648  68.88  0.001670299    1.941    0.485
        51  -9.4058     78.4937      7.5218   5.6607633450e+01   6.2691416771e+01    0.2271297    0.1447828  53.97 0.0005648567    1.511    0.338
        52 -11.2033     75.2397      3.3814   5.5703790052e+01   6.3713800993e+01    0.6117899    0.2974708  45.75   0.00298389    1.707    0.414
        53 -10.9347     41.6347      4.2533   6.8554679083e+01   6.9587311370e+01    0.4048054    0.2244608   3.66  0.002160851    2.047    0.511
        54 -11.0409    176.8422      5.7147   3.7655744068e+01   3.9756975566e+01    0.4337991    0.2143962  83.45  0.001322531    2.028    0.507
        55 -10.2764    169.2600      2.4438   3.7609360989e+01   4.1907736727e+01    0.2728319    0.1768068 -59.20 8.156126e-06    1.615    0.381
        56 -12.4608    135.1444      2.7133   4.2263757162e+01   5.0249514650e+01    0.7988529    0.2862439  71.02  0.001351074    2.673    0.626
        57  -9.0439     55.0649      4.3655   6.3063785841e+01   6.7392267198e+01    0.1483856    0.1074475  53.31            0    1.677    0.404
        58 -11.1339    206.7510      2.4640   3.3947676574e+01   3.2928690310e+01    0.5176288    0.2054768  79.60  0.001361656    2.387    0.581
        59 -11.2919      3.0346      1.9037   8.8002788001e+01   7.4422782917e+01    0.4012457     0.169334  13.28  0.002159382    2.596    0.615
        60  -9.6984     12.9451      1.8180   8.1959115078e+01   7.3533196259e+01    0.3491706    0.1384468  26.06  0.001857965    2.494    0.599
        61  -9.7262    158.2668      2.3701   3.8904491746e+01   4.4613030109e+01    0.3620815    0.1691168  49.96   0.00167437    2.074    0.518
        62  -9.0302    152.2149      1.3034   3.9363394394e+01   4.6188893443e+01    0.1885086    0.1059316  79.66 0.0005390751    1.693    0.409
        63 -10.4076    122.0081      5.0933   4.5319134339e+01   5.3219260806e+01    0.1927578    0.1662119  59.31 0.0003143788    1.037    0.035
        64  -9.7654     82.2037      1.2488   5.2734676655e+01   6.2469629220e+01    0.1646919   0.09797865  59.85 0.0003545829    1.649    0.394
        65 -12.1010     24.5112    147.2695   1.1567822299e+02   4.1735745487e+01     0.380173    0.2305044 -57.13  0.001030895    1.521    0.343
        66 -10.1998    142.8564    249.8418   1.0139615633e+02   3.1086829694e+00    0.1896377    0.1517637  25.54  0.001151356    1.196    0.164
        67 -10.3256    104.7352    154.1761   9.5021331804e+01   2.9255561096e+01    0.3636788    0.3412316 -49.27  0.001991013    1.098    0.090
        68  -9.3664     32.8676    154.4371   1.1432403062e+02   3.9189366135e+01     0.561079    0.2110814  28.04  0.002372871    3.009    0.668
        69 -10.5897     30.6621    151.6819   1.1457263599e+02   4.0081360004e+01    0.2767301    0.2150996 -47.02  0.001386527    1.433    0.302
        70 -11.7534      3.6888    147.4679   1.2109121224e+02   4.3338586330e+01    0.7345575    0.3256415 -78.22  0.002989338    1.818    0.450
        71 -11.7627      3.5966    141.4803   1.2056769794e+02   4.4771399304e+01    0.6024814      0.31375  66.36  0.001421345    2.067    0.516
        72 -11.0514     63.2001    150.6351   1.0565411757e+02   3.6599873253e+01    0.4469634    0.3305143  -3.50  0.001848232    1.995    0.499
        73 -11.2785     46.4479    146.9800   1.0970118267e+02   3.9579921600e+01    0.7853797    0.3088973 -62.88  0.003262835    2.155    0.536
        74  -9.6022     41.7754    149.1391   1.1128033666e+02   3.9563915423e+01    0.2136008    0.1916338  49.06 0.0006510997    1.227    0.185
        75  -9.6825    215.1342    150.9369   6.8833615118e+01   7.9929847798e+00    0.2180288    0.1967681 -53.57 0.0008023574    1.261    0.207
        76  -9.6739     72.0013    150.6633   1.0324272139e+02   3.5375895851e+01    0.3958355    0.2696324 -31.56  0.001850437    1.961    0.490
        77  -9.7164    234.6768    149.7069   6.5070974011e+01   4.5732726849e+00    0.3205542    0.1932237 -15.16  0.001437757    2.094    0.523
        78  -9.9929    239.6830    146.6232   6.3561626589e+01   4.2025603818e+00    0.2434703    0.1932367 -25.35 0.0005914189    1.109    0.098
        79 -10.8777    249.5508    142.8138   6.1153978208e+01   3.1092549909e+00    0.6516843    0.2249685 -37.23  0.002552575    2.481    0.597
        80  -9.8098    133.0360    140.4967   8.4646130677e+01   2.7100127743e+01    0.3241451    0.2396079 -48.51 0.0009660138    1.342    0.255
        81 -11.1163     22.7248    127.1170   1.1363413363e+02   4.6835984884e+01     0.268041    0.2190742  45.50  0.000301935    1.388    0.279
        82 -12.1746     18.8355    122.2827   1.1412052494e+02   4.8330801237e+01    0.2555852    0.2001696 -77.99 0.0003445595    1.095    0.087
        83 -10.5065     27.1613    139.9464   1.1406834401e+02   4.3293803811e+01    0.4236681    0.3380253  23.56  0.002602062    1.532    0.347
        84 -11.3946     23.7468    135.5798   1.1446216981e+02   4.4669556095e+01    0.5168209    0.3783168  26.72  0.003081991    1.637    0.389
        85 -12.0588     30.0942    132.9207   1.1229868292e+02   4.4759985733e+01     0.573164    0.3545333 -88.59 0.0003354802    1.654    0.396
        86  -9.9473    216.5395    137.5597   6.5558334367e+01   1.0162258198e+01    0.3928092    0.2198704 -41.82  0.001643988    1.666    0.400
        87  -8.7757     53.3164    139.6693   1.0664765020e+02   4.0597956045e+01    0.1453716   0.09954444  73.79  0.000704653    1.683    0.406
        88  -9.8731     80.1039    136.8643   9.8413546258e+01   3.7608823429e+01    0.4646174    0.2891628 -28.43  0.001920168    2.341    0.573
        89 -10.6107     67.1210    135.7860   1.0197534538e+02   3.9779251067e+01    0.4497571    0.2338372 -48.77  0.001131723    1.872    0.466
        90 -10.5463     47.2884    135.7688   1.0775227962e+02   4.2281372671e+01    0.4883668    0.1897871 -60.40  0.001395365    2.152    0.535
        91  -9.9982     39.8928    138.0912   1.1023675568e+02   4.2509586456e+01    0.2967651    0.1937182  30.81 0.0007201908    1.739    0.425
        92  -9.1909    192.4615    136.4833   6.9941663815e+01   1.5322166574e+01    0.1512166    0.1430289 -25.85 0.0001988884    1.011    0.011
        93 -10.7893     93.8604    132.5350   9.3539367359e+01   3.6436436475e+01    0.5358158    0.1959551 -51.58 0.0009887374    2.552    0.608
        94  -9.2996    107.7787    146.0633   9.2559160891e+01   3.0670818638e+01    0.2317952    0.2022354  81.82 0.0005586421    1.232    0.188
        95 -10.0946     74.1532    132.5402   9.9286803206e+01   3.9584734123e+01    0.3220307    0.2157642 -30.31  0.001458784    1.916    0.478
        96  -9.9805     61.8097    132.2139   1.0287366424e+02   4.1390946896e+01    0.4053216      0.28831 -40.91  0.002054265    1.504    0.335
        97  -9.9731     38.9969    132.8251   1.0970234135e+02   4.3913892082e+01    0.2524559    0.2374231  57.37 0.0008312764    1.187    0.158
        98  -9.3261    103.9030    130.8674   9.0297057552e+01   3.5059406815e+01    0.2214761    0.2046048 -11.92  0.000283136    1.194    0.163
        99 -11.0055     10.3839    127.9763   1.1730571061e+02   4.7560949489e+01    0.5866266    0.2242738 -63.19  0.002733413    1.983    0.496
       100  -9.4321     78.8397    128.8626   9.7145177577e+01   3.9792490503e+01    0.2253717      0.19088 -40.22 0.0003912362    1.213    0.176
       101  -9.7122     81.7114    125.2012   9.5499188195e+01   4.0249218565e+01    0.3405124    0.2982702  -8.33  0.001305761    1.332    0.249
       102 -10.8501      3.7586    126.6230   1.1902511025e+02   4.8321135834e+01    0.3249295    0.2175294  59.54 0.0009002647    1.624    0.384
       103  -9.5901      4.5187    121.3581   1.1821895902e+02   4.9538992617e+01    0.2782796     0.166751  80.68  0.001520399    1.731    0.422
       104  -9.7223    240.4669    126.1729   5.8940462686e+01   7.5353057446e+00    0.3335193    0.2171762 -78.80  0.001374695    3.145    0.682
       105  -9.1770    223.9944    126.9570   6.1807558066e+01   1.0593275791e+01    0.2199557    0.1646787 -61.86 0.0005123044    1.620    0.383
       106  -9.7171     53.5100    124.9561   1.0402435649e+02   4.4254072253e+01    0.3372425    0.1996407 -61.73  0.001181076    1.490    0.329
       107  -9.8135     56.4829    122.0969   1.0256423075e+02   4.4600426684e+01     0.387869    0.2759992  66.14  0.001943705    1.704    0.413
       108  -9.8617     49.5701    123.1229   1.0489491061e+02   4.5177092574e+01    0.3318088    0.2540019  10.85  0.001317477    1.626    0.385
       109 -11.2739     45.3574    120.1443   1.0565572453e+02   4.6392647583e+01    0.6494902    0.3619578 -86.10  0.002647182    2.401    0.583
       110  -9.6192     33.3850    126.2222   1.1034356930e+02   4.6110401249e+01    0.1914074     0.113427 -78.63 0.0005860343    1.628    0.386
       111  -8.7148     65.6688    125.3012   1.0037710363e+02   4.2597958291e+01    0.1465296    0.1079417  73.70 0.0007033435    1.650    0.394
       112 -12.0504    104.0304    122.4590   8.8274555193e+01   3.7059943276e+01    0.4614958    0.4140756 -30.12  0.001138831    1.160    0.138
       113  -8.6205     94.2688    123.3513   9.1338635085e+01   3.8608639709e+01    0.1556687    0.1150357 -26.84 0.0005600545    1.626    0.385
       114 -11.0582     33.4112    119.4477   1.0925248251e+02   4.7783622011e+01    0.4353916    0.3015319  79.89  0.001402061    1.657    0.397
       115  -9.2541     71.4921    120.8753   9.7666101713e+01   4.2872157436e+01    0.2228633    0.1343064 -57.15 0.0005844017    1.519    0.342
       116  -9.1561    221.4798    120.4873   6.0732604783e+01   1.2259585524e+01    0.1454131    0.1311489 -38.93 0.0002047444    1.033    0.032
       117  -8.9379    148.3106    120.3329   7.5831697556e+01   2.8387912880e+01    0.1628724    0.1269711  -2.21  0.000348127    1.675    0.403
       118  -9.2494     62.9140    120.1787   1.0017978190e+02   4.4243965969e+01    0.1953887    0.1760886 -87.16 -0.0006383859    1.143    0.125
       119  -9.5923    185.4153    118.8789   6.7085888252e+01   2.0340706224e+01    0.2577914    0.1919352  41.56  0.001123598    1.413    0.292
       120  -8.9386     13.7302    118.9724   1.1520108595e+02   4.9512556452e+01    0.1577758   0.09169572 -69.50 0.0003531446    1.378    0.274
       121  -9.5596    210.3125    117.9939   6.2088537323e+01   1.5048530761e+01    0.2482471   0.09897464 -53.84 0.0006057696    4.175    0.760
       122  -9.3203     58.5642    117.7687   1.0104654766e+02   4.5410574143e+01    0.2865171    0.1169852 -55.06  0.001129814    2.102    0.524
       123  -9.6205    113.9202    115.5919   8.3715336411e+01   3.6769291518e+01    0.3064071    0.2157301 -32.15  0.001351108    1.573    0.364
       124  -9.3664     67.3204    114.6283   9.7600656185e+01   4.5007296864e+01    0.2988733      0.21048  72.14  0.001391948    1.917    0.478
       125  -9.9026     66.6783    110.6982   9.6917257102e+01   4.6057620204e+01    0.3500292    0.2624137  17.41  0.001785511    1.573    0.364
       126 -12.7013      3.3564    109.6844   1.1714670240e+02   5.2401879655e+01    0.8541599    0.3904611 -69.12  0.001139074    1.674    0.403
       127 -11.1016     16.4213    109.7967   1.1306171593e+02   5.1546359068e+01    0.4324234    0.2626579  45.10  0.001258066    1.943    0.485
       128 -11.7314     17.0465    101.0046   1.1145534892e+02   5.3616716697e+01    0.3757546    0.2801445  15.58 0.0003588006    1.639    0.390
       129 -10.9947     26.4692     86.6487   1.0539597684e+02   5.6291344845e+01    0.8302894    0.6099842  27.27  0.004952484    1.595    0.373
       130 -10.3976     18.6196    106.0849   1.1177170671e+02   5.2283955618e+01    0.1945131     0.181516  59.46 0.0002334778    1.255    0.203
       131 -11.4597      9.5629     97.2698   1.1336235521e+02   5.4993138379e+01    0.5427977    0.5105309  89.30  0.001778862    1.211    0.175
       132 -11.8532      7.0198     88.6093   1.1281588410e+02   5.7170851149e+01    0.5931953    0.4691179  33.78  0.003054367    1.563    0.360
       133 -12.0518     35.0634     93.6955   1.0381897398e+02   5.3876235523e+01     1.360921    0.7806795 -61.43  0.005221833    1.513    0.339
       134 -11.3588     42.1914     93.9698   1.0135232284e+02   5.3095791528e+01    0.3146966    0.2828073  70.12 0.0003631278    1.318    0.241
       135 -11.9823     24.6911    113.6709   1.1104264152e+02   4.9971087664e+01    0.9496623    0.4033635   6.08  0.002918129    4.265    0.766
       136 -12.3175     25.1192    108.3142   1.1002245385e+02   5.1240720615e+01    0.8857104    0.5810333 -41.72  0.004920516    1.507    0.336
       137 -11.7776     18.1182     90.3907   1.0918639478e+02   5.6055840475e+01    0.4106895    0.2534293 -60.86 0.0005156287    1.303    0.233
       138 -12.1242     44.0436     85.1030   9.8542851926e+01   5.4961097239e+01    0.7226813     0.478326  34.04  0.003851616    1.712    0.416
       139 -10.9439     37.8568     86.1871   1.0109315887e+02   5.5360562008e+01    0.3026527    0.2457568  42.04 0.0007677035    1.469    0.319
       140  -9.1881    126.9803    113.7064   7.9600725320e+01   3.4506566359e+01    0.2218816    0.2081946  41.40 0.0006300663    1.087    0.080
       141  -9.2630     79.4804    113.9976   9.3621496850e+01   4.3344507893e+01    0.2381672    0.1373177 -53.03  0.001033934    1.602    0.376
       142 -11.7711     22.6367     94.8754   1.0844369229e+02   5.4664934996e+01    0.5152442    0.3643685   8.07  0.001649552    1.724    0.420
       143 -10.3388    107.2893    111.7066   8.4609950536e+01   3.8977862082e+01    0.3775193    0.3159994 -84.78  0.001286612    1.436    0.304
       144 -10.9013    102.3757    109.5711   8.5497184997e+01   4.0416707523e+01    0.6453593    0.5208368 -30.07  0.002887339    1.308    0.235
       145  -9.6455     94.0989    112.3668   8.8711033823e+01   4.1279116953e+01    0.3065108    0.2227764 -58.82  0.001137298    1.389    0.280
       146  -9.8368     48.7581    112.4592   1.0310037548e+02   4.7909648104e+01    0.2496807    0.2091715 -69.62  0.001016549    1.118    0.106
       147 -11.0730    170.2917    110.5484   6.8148788650e+01   2.5452296930e+01    0.4460482    0.3577119 -35.01  0.001296265    1.237    0.191
       148 -10.2148    130.0908    109.7765   7.7709447021e+01   3.4716626421e+01     0.423248    0.1909871  38.33  0.001466147    2.453    0.592
       149 -10.1924    120.4608    109.2755   8.0201343868e+01   3.6878174756e+01    0.3511916    0.2525162 -34.21  0.001577114    1.460    0.315
       150 -11.3478     79.5728    108.4143   9.2235455131e+01   4.4675390008e+01    0.7567369    0.4533534  27.19  0.001355515    1.937    0.484
       151 -10.4626     89.7632    104.4268   8.7990841174e+01   4.3915091329e+01    0.4643876    0.3426463   5.53  0.001602994    1.783    0.439
       152 -10.3476     86.0942    103.8735   8.9001130954e+01   4.4677063972e+01    0.4594555    0.3160152 -29.08  0.001540435    1.667    0.400
       153  -9.2863     58.6545    109.0331   9.9149220831e+01   4.7544099460e+01    0.2299215    0.1652744 -73.60  0.001153843    1.486    0.327
       154 -10.6220    148.8577    110.0845   7.2990496233e+01   3.0473597888e+01    0.4939476    0.3216964   9.13  0.001754143    2.827    0.646
       155 -10.1286    157.1105    106.7908   7.0126454792e+01   2.9269609624e+01    0.4092698    0.3157836   2.76   0.00162628    1.725    0.420
       156 -10.3523    143.4948    106.1000   7.3232469797e+01   3.2537875450e+01    0.3588139    0.3057121 -80.13  0.001414749    1.384    0.277
       157 -11.6605    145.5423    100.2466   7.1095893731e+01   3.3296566015e+01    0.5270346    0.4630823 -28.02 0.0008480966    1.167    0.143
       158  -9.2672     45.7671    105.6181   1.0267758927e+02   4.9917489803e+01    0.2811503    0.1549811 -50.61  0.000321704    1.573    0.364
       159  -9.4335     47.5399     90.9670   9.8735387111e+01   5.3212214255e+01    0.2850276    0.1425981 -45.77  0.001287223    1.769    0.435
       160  -9.6769     50.5164    101.9621   1.0028081319e+02   5.0259888586e+01    0.3014283    0.2370647 -35.47  0.001675573    1.263    0.208
       161 -11.0948     51.9480     95.6364   9.8313396036e+01   5.1597633987e+01    0.6158785    0.3269579 -70.89  0.001776998    2.392    0.582
       162  -9.4128    180.8146    103.3446   6.4028138014e+01   2.4431821359e+01     0.381121    0.2226077 -62.69  0.001407807    2.501    0.600
       163 -10.1777     57.2783    102.8775   9.8204336137e+01   4.9210260181e+01    0.3476804    0.1785319 -58.38  0.001525441    1.771    0.435
       164  -9.2912    208.9698    100.9880   5.8167417063e+01   1.8435479996e+01    0.3069112    0.2223675  -5.99 0.0003896473    1.915    0.478
       165  -9.7678    209.6859     97.6785   5.7225196902e+01   1.8864899696e+01    0.2494159    0.2116293  -7.17  0.001217487    1.380    0.276
       166  -9.3713    120.8073    101.1922   7.7867247903e+01   3.8600344323e+01    0.2238949    0.1891037  -2.55  0.001076852    1.373    0.272
       167 -11.3706     67.4811     95.5520   9.2930475222e+01   4.9556183600e+01    0.5106249    0.4586359   2.48  0.002246564    1.192    0.161
       168 -10.9608     90.0429     89.3234   8.3675679620e+01   4.7293012767e+01    0.8749276    0.5124158 -20.82  0.003283935    2.686    0.628
       169 -10.6197     78.6008     97.4148   8.9701144076e+01   4.7422178700e+01    0.5217254    0.3090978  48.90  0.001742278    2.004    0.501
       170  -9.9824     82.5023     93.4995   8.7337440361e+01   4.7676490041e+01    0.2941262     0.242266 -10.54  0.000772831    1.350    0.259
       171 -11.0095     77.0391     92.9158   8.8987279672e+01   4.8706180011e+01    0.5553536    0.3870457  18.32  0.001542875    1.703    0.413
       172  -8.9898     82.4301    102.5191   8.9814587364e+01   4.5608462896e+01    0.1489198    0.1380402 -44.33  0.000159656    1.012    0.012
       173 -10.8381    124.8748     93.7365   7.4593606022e+01   3.9319725643e+01    0.6458856    0.3355666  46.16  0.001813474    1.953    0.488
       174 -11.3235    120.5958     87.3736   7.3879090726e+01   4.1576657363e+01    0.6390305    0.4346964 -48.56  0.002869819    1.511    0.338
       175  -9.4838    160.2966     93.6125   6.5757357873e+01   3.1165954089e+01    0.4947572    0.2698347  73.33  0.001551285    3.561    0.719
       176 -10.7852    152.4328     91.7451   6.7026088298e+01   3.3399037088e+01    0.5092349    0.4253599 -80.25  0.002436134    1.419    0.295
       177 -10.0146    117.3145     93.5369   7.6643590596e+01   4.0995712996e+01    0.3876651    0.2789017 -13.55  0.001666657    1.834    0.455
       178 -10.7197    100.6368     91.3036   8.0921493127e+01   4.4873700038e+01     0.614469    0.3404496  50.34  0.002493497    2.059    0.514
       179 -10.7453    113.5424     83.4906   7.4693405808e+01   4.3889729455e+01    0.4122248    0.3551514 -41.16  0.001567617    1.150    0.131
       180 -11.5653     76.5929     79.9866   8.5359157823e+01   5.1638898018e+01     1.020405    0.7646208  84.68  0.004719515    2.219    0.549
       181 -10.0742     66.6821     88.6575   9.1346162579e+01   5.1257910428e+01     0.315094    0.2214382 -13.35 0.0009381968    1.778    0.437
       182 -10.8872     67.0297     82.0053   8.9324849152e+01   5.2693922068e+01     0.938966    0.4046485  28.12  0.003613614    2.780    0.640
       183 -10.9209     46.9356     74.4228   9.4564392582e+01   5.7025228190e+01    0.3447172    0.2122025 -50.40            0    1.430    0.301
       184 -11.5975     53.0288     75.9125   9.2672569066e+01   5.5955768288e+01    0.6527857    0.3776013 -56.88  0.003123592    1.728    0.421
       185 -11.0695     58.0040     77.7743   9.1358142291e+01   5.4898232978e+01    0.3559414    0.2764049 -69.97 0.0005307175    1.577    0.366
       186 -10.4947    183.5945     85.8454   5.8806101502e+01   2.7032891520e+01    0.6696056    0.2867602 -45.01  0.002440648    2.315    0.568
       187 -10.2294    109.1090     80.8390   7.5163583688e+01   4.5361389934e+01     0.351482    0.3271881 -24.96  0.001131716    1.045    0.043
       188 -10.4061    165.7610     83.6747   6.1759238240e+01   3.1731412084e+01    0.3987642    0.3247768 -56.67  0.001349837    1.279    0.218
       189 -11.3030    142.9841     84.0285   6.7022636430e+01   3.7134327702e+01    0.4408258    0.3646118  39.84 0.0009959372    1.232    0.189
       190 -10.4910    104.6636     86.6605   7.8298156249e+01   4.5071942035e+01    0.5638942    0.3377092 -22.07  0.002176566    2.371    0.578
       191 -10.3578    127.4397     82.8239   7.0622305704e+01   4.0968392236e+01    0.3236339    0.2791957 -16.95  0.001325165    1.233    0.189
       192  -9.6402     21.2479     80.7603   1.0606176965e+02   5.8059308451e+01    0.1935347     0.173807 -20.60  0.000706575    1.198    0.166
       193  -9.7576    103.2263     79.3666   7.6468357374e+01   4.6868809916e+01    0.2985793    0.2078093 -31.37 0.0007485004    1.476    0.322
       194 -10.5107    103.9026     74.5089   7.4701046227e+01   4.7697702413e+01    0.4497062    0.3238022 -54.46 0.0008789061    1.586    0.370
       195  -9.9479    232.9433     77.7239   4.8920938763e+01   1.7114614767e+01    0.3296942    0.2374507 -31.06  0.001459481    1.388    0.279
       196 -11.9102     14.1444     74.7160   1.0747338267e+02   5.9924393522e+01    0.5179518    0.3385044 -57.60  0.002201882    1.229    0.186
       197 -10.1312     14.7458     67.4088   1.0555814398e+02   6.1505569820e+01    0.3064406    0.2241389   8.72  0.001712889    1.573    0.364
       198 -10.3494     93.9265     76.5670   7.8487978434e+01   4.9267177383e+01     0.531799    0.3338351  33.94  0.001850956    1.676    0.403
       199 -10.6236     84.2153     63.4273   7.7302287721e+01   5.3655644214e+01    0.7315131    0.5111173 -56.67  0.003113049    1.799    0.444
       200 -11.1386     86.1917     73.5980   8.0062198424e+01   5.1309764689e+01     1.031818    0.6755145  18.37   0.00294306    1.902    0.474
       201 -11.1651     79.6373     68.0513   8.0460474348e+01   5.3581704612e+01     0.608307    0.4866205 -86.50  0.002737138    1.960    0.490
       202 -11.2258     91.1196     62.9084   7.4820545496e+01   5.2452390366e+01    0.8694906    0.6104802  43.91  0.003853285    1.465    0.317
       203 -10.2419     87.7932     57.0435   7.3835520479e+01   5.4150760533e+01     1.396984    0.7010764 -56.00  0.004944421    3.508    0.715
       204 -10.7718     91.9882     57.4938   7.2623161903e+01   5.3256892756e+01    0.5290243    0.3244435 -26.09  0.002426871    1.757    0.431
       205 -11.5503     75.6456     56.8082   7.7943523199e+01   5.6408005164e+01    0.8028315    0.3007498 -46.40  0.002490588    2.865    0.651
       206 -11.6264     72.8722     48.3525   7.5796437719e+01   5.8376597278e+01    0.8253747    0.7665428 -59.81  0.002652315    1.405    0.288
       207 -11.6355      1.9858     71.2154   1.1151686382e+02   6.1386566440e+01    0.5449665    0.1776769 -63.46  0.002468473    2.258    0.557
       208 -12.4527      6.4137     62.6771   1.0789533924e+02   6.3034865057e+01    0.7344047    0.4294068 -21.20  0.004249474    1.819    0.450
       209  -9.3815    139.4735     77.4714   6.5896072879e+01   3.9203129118e+01    0.1512555    0.1507262  54.67 -9.838252e-06    1.017    0.016
       210 -10.0741    127.2465     77.0522   6.8881388773e+01   4.2127679146e+01    0.2794742    0.2259114  55.98 0.0004109682    1.288    0.224
       211 -12.2858    186.1654     70.0689   5.4050774827e+01   2.9120689103e+01      1.13615    0.6385173 -41.07  0.004241782    1.710    0.415
       212  -9.7790    192.4595     65.7516   5.1831724896e+01   2.8289956375e+01    0.2864389     0.213486 -74.21 0.0009135699    1.496    0.332
       213  -9.9048     64.6278     75.5188   8.8241340514e+01   5.4453628839e+01    0.3725672     0.228505   7.28 0.0008524531    2.321    0.569
       214  -9.1582     61.0365     72.9919   8.8785421911e+01   5.5508081197e+01    0.1773599    0.1659705  66.63 0.0003369043    1.347    0.258
       215 -11.7182     32.1222     72.0995   9.9724527842e+01   5.9093039339e+01     0.684772    0.2651511  28.11  0.002120193    2.832    0.647
       216  -9.5859     24.5351     72.7722   1.0291711154e+02   5.9604104920e+01    0.2995136    0.1437981 -65.26  0.001396604    2.070    0.517
       217  -9.6457     22.1213     65.7132   1.0209014484e+02   6.1342303575e+01    0.4200735    0.2434474 -70.45  0.001313942    2.004    0.501
       218  -8.8514     25.6090     65.5039   1.0058896351e+02   6.1104551301e+01    0.1476132    0.1205372  29.34 9.341827e-05    1.466    0.318
       219  -9.5794    152.6849     73.1034   6.1489137268e+01   3.6815524925e+01    0.5158735    0.1597205  43.46  0.001447595    3.963    0.748
       220 -11.8422    122.7993     68.8824   6.7451695045e+01   4.4653799082e+01    0.5792297    0.5199968  32.69  0.001644497    1.100    0.091
       221  -9.9778    161.7335     70.6986   5.8842245284e+01   3.5015078913e+01    0.3644172     0.272268  79.01  0.001707368    1.560    0.359
       222 -11.1966     40.8124     70.5792   9.5849855913e+01   5.8550169109e+01    0.4951133    0.2751069 -53.51  0.001673838    1.603    0.376
       223 -10.2874    172.2797     67.3504   5.5794488827e+01   3.2974162426e+01    0.5671214    0.3142636 -37.69  0.002413643    1.783    0.439
       224  -9.4843    169.5042     63.4555   5.5194862445e+01   3.4293713500e+01    0.2711778    0.2113614 -62.16 0.0006326183    1.380    0.275
       225 -11.4107    220.1757     66.3424   4.7904145769e+01   2.1698791852e+01    0.5655612    0.3902402  61.19  0.002348732    1.525    0.344
       226  -8.8420    147.3486     68.2920   6.1216817023e+01   3.8951950539e+01    0.1573021    0.1167362  23.05 0.0007028941    1.669    0.401
       227 -10.7236     59.4847     63.5451   8.6323992142e+01   5.7674994175e+01    0.6007898    0.3553353  12.27  0.002732634    2.226    0.551
       228  -9.9049     57.3229     61.3053   8.6405519630e+01   5.8426978234e+01     0.288214    0.2025068  -2.03 0.0006635767    1.623    0.384
       229  -9.5326     53.0317     66.0836   8.9660560804e+01   5.8042003499e+01    0.2561236     0.187345  38.13  0.001124296    1.568    0.362
       230  -9.8031    202.1040     64.3502   4.9962669514e+01   2.6197624972e+01    0.3631385    0.2396129  72.07  0.001279311    1.614    0.380
       231  -9.3415    198.2954     62.6225   5.0087173893e+01   2.7374491078e+01    0.2646528    0.1861787 -50.96 0.0008509078    1.373    0.272
       232  -9.9252    106.0632     64.3577   7.0664479949e+01   4.9154933009e+01    0.3440355    0.2872799 -31.99 0.0009820565    1.190    0.160
       233 -11.2580    106.7556     58.6371   6.8484438820e+01   5.0011468763e+01    0.3834203    0.3663321 -69.75 0.0002802567    1.217    0.178
       234  -9.7868     17.2178     41.2446   9.6930770994e+01   6.6715215269e+01    0.2858328     0.205018 -30.34   0.00185671    1.120    0.108
       235 -10.4106     25.9405     48.4250   9.5285270486e+01   6.4590387120e+01    0.2977238    0.1539242 -40.32 0.0004436006    1.592    0.372
       236 -10.5828     22.6392     37.0705   9.2821233377e+01   6.7036333583e+01    0.4809723    0.2536614  41.57  0.002432308    2.821    0.645
       237  -9.4950    213.4869    248.4989   8.7646254453e+01  -7.3186718163e+00    0.1214329   0.09317325  13.46 3.645014e-06    1.024    0.024
       238 -11.8079     21.1047     46.6840   9.6923090573e+01   6.5350550772e+01    0.4134023    0.2460614 -47.37  0.002394619    1.389    0.280
       239 -10.8503     33.8544     58.1088   9.4949157376e+01   6.1897462151e+01    0.3936823    0.2248212 -24.04  0.001984819    1.900    0.474
       240 -11.7595     27.0441     56.3457   9.7329681733e+01   6.2904370440e+01    0.9334583    0.5680602 -16.33  0.005058118    1.808    0.447
       241 -10.5675     20.2151     55.0921   9.9944179088e+01   6.3732648169e+01     0.248663    0.2303734 -68.93 0.0006563999    1.345    0.257
       242 -11.6249     41.0203     57.1266   9.1603088962e+01   6.1328983973e+01    0.5336832    0.4342506 -89.54  0.002531096    1.965    0.491
       243 -11.3949     50.7857     61.1092   8.8924291790e+01   5.9346291506e+01    0.3405075     0.315149  42.87  0.001412544    1.353    0.261
       244 -11.5212     46.1238     58.6709   9.0000298562e+01   6.0419400421e+01    0.6651122     0.253303 -40.73  0.002742771    2.384    0.581
       245 -11.4101    234.1747     60.9790   4.4874540921e+01   1.9411571752e+01    0.5145773    0.3859464  69.48  0.001976825    1.414    0.293
       246 -10.2482    159.0696     62.3803   5.6911651840e+01   3.7054587237e+01    0.5595666    0.2321437  47.52  0.002026183    2.453    0.592
       247  -9.6982    175.0241    247.1995   9.4731790694e+01  -1.4554748339e+00    0.2308726    0.2094739  47.45  0.001597997    1.312    0.238
       248 -11.0534    122.7775     59.1189   6.4220802599e+01   4.6350702086e+01    0.8252488    0.5121637  27.70  0.003494856    2.029    0.507
       249 -10.9457    117.5867     56.1853   6.4595737884e+01   4.8023105350e+01    0.7271255    0.5220388  27.04  0.002503476    1.541    0.351
       250 -11.6073    114.1662     49.2600   6.3095382437e+01   4.9895604031e+01    0.7952095    0.4648346  38.29  0.003555794    1.746    0.427
       251 -12.9031    116.1457     41.3301   5.9742269386e+01   5.0606593737e+01     1.053006    0.7528411  72.29  0.005163628    1.720    0.418
       252  -9.0791    199.2733    244.4529   8.9665378227e+01  -4.7226725866e+00     0.176207   0.09998873  42.36 0.0005092571    1.753    0.430
       253 -10.2570    136.2955     57.0055   6.0179331904e+01   4.3500139785e+01     0.637288    0.4047325  -1.60  0.002538186    2.530    0.605
       254 -10.5066    134.8185     50.5314   5.8394176486e+01   4.4857799362e+01    0.4018025    0.3190974 -76.02  0.002014202    1.569    0.363
       255 -11.5788    145.9326     47.0689   5.4846862238e+01   4.2645877025e+01     1.012557    0.4578524 -20.92  0.003586655    3.133    0.681
       256 -10.0099    145.5146     39.4757   5.2493123102e+01   4.3795583648e+01    0.2344458    0.2178131   5.59 0.0005653606    1.173    0.147
       257 -11.4271    156.9302     53.1676   5.4545509420e+01   3.9020837472e+01     1.101732    0.5937893 -42.91  0.004704884    1.907    0.476
       258 -10.4551    162.6498     43.6836   5.0607115376e+01   3.8952546373e+01    0.5399089    0.3501598  52.36  0.002603144    1.487    0.327
       259 -11.1285    127.6891    241.8803   1.0341570445e+02   6.7955699999e+00    0.3196243     0.300869  24.21  0.002066834    1.181    0.153
       260  -9.0702    163.2290    243.3931   9.6499649798e+01   9.5496287887e-01    0.1870935   0.09909613  44.15 0.0009532475    1.712    0.416
       261  -9.7250     67.9786    240.4878   1.1515342347e+02   1.5792556512e+01    0.1796313    0.1018018  39.96 0.0007629644    1.567    0.362
       262  -8.8223    221.5064    239.4742   8.4731954755e+01  -7.2665932937e+00    0.1223378   0.09539539  10.34 4.422936e-05    1.003    0.003
       263 -10.7229    155.6980     42.1977   5.1408485722e+01   4.0894825216e+01    0.5778937    0.4414883  15.41  0.002788071    1.667    0.400
       264 -12.0441    153.0407     35.9744   4.9960424391e+01   4.2376422459e+01    0.3696041    0.3131507   8.83   0.00035817    1.391    0.281
       265 -11.1580    148.6573    238.0833   9.8672171329e+01   4.1261284922e+00    0.5506809    0.2263691  42.68   0.00229804    2.087    0.521
       266  -9.4121     68.1455     32.3498   7.1085983212e+01   6.1714387986e+01    0.5530676    0.4358228  46.56   0.00326341    1.458    0.314
       267 -11.8184     58.0004     30.0623   7.4025335141e+01   6.3744256415e+01    0.4002752    0.2761754   5.26  0.001300778    1.478    0.324
       268 -11.6727     49.0158     30.2879   7.7860889350e+01   6.5076132644e+01    0.5978097    0.2661963  30.25  0.001701241    2.328    0.570
       269 -11.5898     60.9534     36.6488   7.5650105224e+01   6.2273540494e+01    0.6119775    0.4098843 -23.48  0.001409319    1.417    0.294
       270 -11.2082     64.1577     53.7008   8.1067961477e+01   5.8865894165e+01    0.5695764    0.3082809  39.88  0.001312893    1.971    0.493
       271 -11.8774     60.8519     46.5571   7.9662366821e+01   6.0653128316e+01    0.7969321      0.48819 -40.47  0.004135483    1.575    0.365
       272 -10.8293    239.9444     50.8076   4.1917335662e+01   1.9634536552e+01    0.5111455    0.3150895 -20.69  0.002523567    2.158    0.537
       273 -10.7411    244.9597     51.0570   4.1453933360e+01   1.8541492215e+01     0.339185    0.1844709  78.30  0.001521476    2.093    0.522
       274  -9.6016    187.5673     55.2583   4.9775349883e+01   3.1096488355e+01    0.3028255     0.179829  56.23  0.001391158    1.664    0.399
       275 -10.1063    211.3780     52.8989   4.5754129010e+01   2.5728013823e+01    0.2442792    0.2239177  28.83  0.001445269    1.352    0.260
       276 -10.7815    201.5468     49.8196   4.6282180308e+01   2.8495776880e+01    0.6609402    0.3619231 -46.88  0.003048959    1.744    0.427
       277 -11.0366    200.6509     45.2189   4.5214182093e+01   2.9355014174e+01     0.579881    0.2738667  74.47  0.002376703    2.385    0.581
       278 -10.2431    175.6948     44.0532   4.8529129810e+01   3.5639680137e+01    0.5418573    0.2445288  52.63  0.002208115    2.155    0.536
       279  -9.8417    149.1005     60.8666   5.8531168684e+01   3.9760738471e+01    0.5293344     0.187761  59.05  0.001726315    2.991    0.666
       280 -10.6556    173.9541     48.5688   5.0104806442e+01   3.5442292771e+01    0.5362394    0.3089109  74.92   0.00232249    1.945    0.486
       281  -9.5750    140.3926     48.3698   5.6438981541e+01   4.3821299954e+01    0.3312345    0.1912483  24.64  0.001263611    2.708    0.631
       282  -9.8876     91.0066     47.8357   6.9387061662e+01   5.5071702533e+01    0.3102151    0.2140507 -48.67  0.001536618    1.732    0.423
       283 -10.4568     13.0458     47.5326   1.0092915262e+02   6.5790819475e+01    0.3759044     0.148529 -34.98  0.001759068    2.343    0.573
       284  -9.5560      2.3393     48.5871   1.0618934567e+02   6.6209568841e+01    0.4417681    0.2103272 -51.78  0.002133268    1.540    0.351
       285  -9.5583    172.4699    238.5212   9.3956247496e+01   2.6167827727e-01    0.1282934    0.1058355  23.57 0.0002229639    1.035    0.034
       286 -10.7380    198.8025    232.7411   8.7891219479e+01  -2.9748613153e+00    0.4055288    0.3030815  21.48  0.002522636    1.131    0.116
       287  -9.4465     15.2543    233.7068   1.2455027713e+02   2.3330635655e+01    0.2076943    0.1227257 -75.00  0.001226219    1.621    0.383
       288 -10.8321     14.0132     23.2933   9.1742193769e+01   7.0199405493e+01    0.2634386    0.1690548 -24.88 0.0004690854    1.263    0.208
       289 -10.2820    247.4837    231.6818   7.8803488427e+01  -9.8017601386e+00    0.2176621    0.1530118 -26.91  0.001121393    1.415    0.293
       290 -10.3129    242.6677    231.4656   7.9601875189e+01  -9.1360143830e+00    0.2202827     0.192752  50.50  0.001493721    1.923    0.480
       291  -9.4924     23.7783    231.7964   1.2289404510e+02   2.2816179003e+01    0.1636304   0.09814884  63.91 0.0008097817    1.318    0.241
       292  -9.4922    108.4753    229.9787   1.0589216484e+02   1.1955995801e+01    0.1753373    0.1267337 -64.38 0.0006619551    1.560    0.359
       293  -8.9284    190.2009    229.6159   8.9055624592e+01  -1.1623604890e+00    0.1820764    0.1045278  27.10 0.0006145678    1.615    0.381
       294  -9.2951    181.3176    228.3278   9.0608332085e+01   4.5826845117e-01    0.1331785   0.09206548   4.51 0.0007046066    1.679    0.404
       295 -10.9260    135.4622     45.5513   5.6593931310e+01   4.5430297826e+01    0.5672849    0.2307096  55.59  0.001334381    2.280    0.561
       296  -9.9264    139.6657     43.6654   5.5055330020e+01   4.4669607431e+01    0.2818014    0.2100449  42.48 0.0009838252    1.326    0.246
       297  -9.5903     94.8352     36.1536   6.3705847041e+01   5.6026634789e+01    0.2983664    0.2071076  62.25  0.001285981    1.738    0.425
       298  -9.1239    101.4808     44.5111   6.4927772237e+01   5.3413364302e+01    0.2047573    0.1307022 -41.96  0.000851472    1.712    0.416
       299 -10.9198     94.1005     41.2920   6.5922382475e+01   5.5447007579e+01    0.6863124    0.3010214  47.53  0.002849458    2.172    0.540
       300 -10.3454    189.0988     41.6391   4.5849675873e+01   3.2648796029e+01    0.4913442    0.2077595 -27.36  0.001288875    2.723    0.633
       301  -9.8896     86.1584     31.1881   6.4399040924e+01   5.8482141800e+01    0.2789917     0.216795 -27.66   0.00137094    1.328    0.247
       302 -10.5140     81.6508     40.0696   6.9463983899e+01   5.8106706372e+01    0.4470359    0.2574781  57.18  0.001622415    2.316    0.568
       303 -10.0929    234.1403    223.0609   7.9650292634e+01  -6.8437795048e+00    0.1997432    0.1393272   2.66 0.0007570913    1.289    0.224
       304  -9.8741    231.6420     38.9652   4.0097781464e+01   2.3044890198e+01    0.2852081    0.1687274 -44.88  0.001513283    1.484    0.326
       305 -10.0826    193.7506     39.0805   4.4528536433e+01   3.1851720461e+01    0.2320642    0.1851438  65.39 0.0003421149    1.226    0.184
       306  -8.8956    184.4725     38.4631   4.5641622033e+01   3.4208898445e+01    0.1403545    0.1266693 -83.53 9.431726e-05    1.023    0.022
       307 -10.9850    176.7725     36.2125   4.6136583526e+01   3.6410096805e+01    0.3498715    0.3122819 -33.04  0.001170368    1.215    0.177
       308  -9.9387    171.5637     33.1344   4.6039709927e+01   3.8096992906e+01    0.3076074    0.2266175  82.74   0.00114562    1.354    0.261
       309 -10.7498    176.4151     30.0456   4.4447721063e+01   3.7265458628e+01    0.5041984    0.2544427  49.20  0.001649477    2.071    0.517
       310 -11.1225    182.6660     25.6162   4.2371290895e+01   3.6241753940e+01     0.398312    0.2963811  68.17  0.001286622    1.243    0.195
       311  -8.7749    187.5287     22.5373   4.0932385796e+01   3.5401361174e+01    0.1734186    0.1354485  -9.90 0.0002426699    1.650    0.394
       312  -9.5360    133.4379     36.9371   5.4142032037e+01   4.7095184900e+01       0.3833    0.2739549 -81.43  0.001827886    1.893    0.472
       313  -9.3045    227.1528     36.6443   4.0021788216e+01   2.4344936183e+01    0.2113381    0.1471539 -78.42  0.000883077    1.399    0.285
       314  -9.6074    206.9177     37.0745   4.2355184023e+01   2.8950660239e+01    0.2084261    0.1855695 -77.41 0.0007335787    1.017    0.017
       315 -10.6613    138.1401     33.5999   5.2040407779e+01   4.6369926050e+01    0.4638726    0.3209773 -62.28  0.001711572    1.812    0.448
       316 -11.8099    160.0309     29.5336   4.6782197273e+01   4.1419467852e+01    0.4774216    0.3599235 -21.12  0.001319572    1.515    0.340
       317  -8.8919    148.2752     32.3281   4.9676278668e+01   4.4019356433e+01    0.1414325    0.1032808  29.51 0.0002827027    1.590    0.371
       318  -8.9769    209.3272    223.3504   8.4294476249e+01  -3.2038652081e+00    0.1358607    0.0871767   2.28 0.0007048488    1.761    0.432
       319 -11.9116    106.0046     32.6312   5.9179361130e+01   5.4072970525e+01     0.508857    0.3064716  21.22  0.001746188    2.115    0.527
       320  -9.3456     10.0000    217.9985   1.2466185464e+02   2.6997073079e+01    0.1771372     0.053254 -78.20 0.0007962357    2.900    0.655
       321 -10.7047    240.2043     30.9569   3.7502782886e+01   2.2218170373e+01    0.5415863     0.308621 -33.61  0.002907488    1.740    0.425
       322 -10.3792    164.8988    212.3844   9.1361652238e+01   5.9064910510e+00     0.273979    0.2085422  44.22 0.0009446091    1.271    0.213
       323  -9.1874     36.0270     31.9485   8.4398200501e+01   6.6523352439e+01    0.1610157    0.1555964  65.03  0.000546435    1.627    0.385
       324  -9.4493    221.7524     29.8354   3.8987103832e+01   2.6428118117e+01    0.1823886      0.16784 -51.18 0.0008149325    1.187    0.158
       325  -8.5185    216.6920     32.2967   4.0089410593e+01   2.7277995051e+01    0.1388407   0.08667684 -65.83 0.0002769775    1.591    0.371
       326 -10.6584    189.4915     27.5791   4.2031026277e+01   3.4334598250e+01    0.3714247    0.2932179  13.52  0.001726625    1.752    0.429
       327  -9.1960     99.3207     30.4242   6.0159563204e+01   5.5825341009e+01     0.179342    0.1285045  60.41 0.0009324057    1.516    0.340
       328  -9.7210     97.7470     26.6097   5.9095523590e+01   5.6636266885e+01    0.2461977    0.2191997 -41.95  0.001256415    1.322    0.244
       329 -10.1664    230.5117     27.3929   3.7588935629e+01   2.4767932404e+01    0.3296305     0.188262 -43.14  0.001143479    1.554    0.357
       330  -9.9068    211.4873     27.4893   3.9482837519e+01   2.9080897131e+01    0.2182667    0.2037206  37.57 0.0009467259    1.353    0.261
       331  -9.4995    153.1055    207.8308   9.3125765442e+01   8.7976457125e+00    0.2120654    0.1835445  58.07 0.0008630744    1.253    0.202
       332  -8.7548      1.2746     26.6690   9.9924689225e+01   7.0502676088e+01    0.0950955   0.08686498 -74.57 0.0006990631    1.594    0.373
       333  -9.4889     61.1529    206.6540   1.1337134410e+02   2.3629568022e+01    0.2097498    0.1555324  85.15 0.0006604378    1.242    0.195
       334 -10.2214    238.2330    204.7521   7.5594296621e+01  -4.8411695920e+00    0.2628601    0.1562335 -24.17  0.001433775    1.570    0.363
       335 -11.2332      6.0076    198.6796   1.2432078327e+02   3.1442457285e+01    0.4147671    0.1546512 -67.33  0.002092558    2.344    0.573
       336  -9.0772     44.9073     24.3558   7.7011720026e+01   6.6547548691e+01    0.2002441    0.1547893 -32.87 0.0007372277    1.360    0.264
       337  -9.5006    168.8752     23.8176   4.3743165313e+01   3.9869402909e+01    0.2105641    0.1740524  48.60 0.0006397423    1.258    0.205
       338  -9.5703     59.5305     23.9304   7.0695913661e+01   6.4354955951e+01     0.219127    0.1577346  -5.00 0.0004843782    1.317    0.241
       339 -10.0968     60.2150     19.8177   6.8550196920e+01   6.4773822298e+01    0.3206053    0.2421166 -54.36   0.00127081    2.141    0.533
       340 -10.5777    245.6373    200.8897   7.3569996581e+01  -5.3678607410e+00     0.214504    0.1515636  15.65 0.0007467964    1.324    0.245
       341  -9.2079    223.4651     22.0380   3.7021312264e+01   2.6984652224e+01    0.1992446    0.1474116  83.85 0.0006782454    1.254    0.202
       342  -8.8028      1.3330    200.3033   1.2534424625e+02   3.1499554985e+01    0.1042045   0.07842316 -56.93 0.0005893877    1.658    0.397
       343  -9.5016     74.5328     19.8033   6.3364471705e+01   6.2185013944e+01     0.246881    0.1972842  24.91 0.0006587715    1.083    0.077
       344 -10.0990    125.1889     21.0447   5.0375892974e+01   5.0962421595e+01    0.4173124    0.1978571  66.11  0.001606879    2.123    0.529
       345 -10.6167    234.2293    196.8774   7.4817303254e+01  -3.0573613864e+00    0.4046015    0.2771067  11.29  0.001543368    1.461    0.315
       346  -8.7355    195.3311    199.6856   8.2785266267e+01   2.8805143634e+00    0.1276958    0.1110041  74.75 0.0004259701    1.680    0.405
       347  -9.1024    205.4895     17.5155   3.7673038469e+01   3.1649703008e+01    0.1304397    0.1119445 -80.56 5.503524e-05    1.010    0.010
       348  -9.2515     83.1007    196.0650   1.0720277274e+02   2.2906894246e+01    0.2437193      0.19524  20.08  0.001359973    1.561    0.360
       349  -9.9711    169.7978    191.5075   8.6595178493e+01   8.9293762738e+00    0.3582995    0.2173772  25.68   0.00127263    1.825    0.452
       350 -10.3083    186.3702     15.2396   3.9133629474e+01   3.6483830563e+01     0.246885    0.2040704  87.13 0.0003996194    1.068    0.064
       351  -8.8610    162.4873    190.9746   8.8095443174e+01   1.0377315977e+01    0.1823303    0.1295967 -77.96 0.0004604451    2.293    0.564
       352 -12.2396      5.0127    184.3244   1.2361780305e+02   3.4692672664e+01    0.6083812    0.4486039  79.42  0.003289317    1.069    0.064
       353 -10.2451    211.4100     18.6032   3.7353304881e+01   3.0141962483e+01    0.2286885    0.2096901 -35.16  0.000208357    1.281    0.219
       354 -10.4307    250.3047    178.6351   6.8449597887e+01  -2.7409566654e+00    0.4789909    0.1436671 -33.31  0.001774619    3.154    0.683
       355  -9.2993     94.3150     12.3975   5.4262589272e+01   5.8915764428e+01    0.1673396    0.1180731  62.74 0.0005693553    1.481    0.325
       356  -9.1237    213.6602    180.6631   7.5438247224e+01   2.9720290584e+00    0.1477428    0.1002335   0.07 0.0007050912    1.759    0.431
       357 -10.2964     52.1474    173.7293   1.1177166792e+02   3.2351178179e+01    0.5209855    0.2340591 -89.94  0.001900072    3.341    0.701
       358  -9.7135     28.0580    175.9878   1.1780291497e+02   3.4496672309e+01    0.2032808    0.1603145  81.03  0.001132618    1.069    0.064
       359  -9.9730    239.9167    184.5319   7.1398620034e+01  -2.0378843312e+00    0.2439232    0.1864247 -17.01 0.0005421577    1.135    0.119
       360  -9.6785    230.8196    175.3823   7.1167841511e+01   9.1337488420e-01    0.3597854    0.1199208  37.82  0.001329221    3.251    0.692
       361  -9.9485    247.8066    173.9036   6.7917098667e+01  -1.6181911090e+00    0.4256549    0.1653362  28.23  0.001489527    4.212    0.763
       362  -9.9254     39.5064    173.4943   1.1482799353e+02   3.3880566639e+01    0.2541417    0.1904324  82.66 0.0009893046    1.189    0.159
       363 -10.6973     35.3991    170.5573   1.1550657728e+02   3.5026316218e+01     0.399721    0.1970091 -87.85  0.001828615    2.133    0.531
       364  -9.9679      9.1339    155.9157   1.2048917330e+02   4.0931879224e+01    0.2763462    0.1662888 -69.46  0.001337383    1.375    0.273
       365 -11.6891      9.6230    166.9882   1.2131467413e+02   3.8284002611e+01    0.4573792     0.350535 -89.13   0.00169729    1.027    0.026
       366 -11.1774     13.4375    159.7356   1.1978113720e+02   3.9680523169e+01    0.5241758    0.2468326 -67.15  0.002414497    1.742    0.426
       367  -9.0785    198.1243    167.8589   7.5843723445e+01   8.1190875093e+00    0.2034904    0.1634139  -4.04 0.0008058802    1.309    0.236
       368  -9.6514    187.9730    168.0069   7.7972104953e+01   1.0042693239e+01     0.239245    0.1749043  -2.03 0.0008436484    1.675    0.403
       369  -8.9109    152.4164    166.5165   8.5580234326e+01   1.7357640165e+01    0.1483534    0.1447985   5.05 0.0001033688    1.017    0.016
       370 -10.3161     19.1624    164.7776   1.1885940498e+02   3.7990473166e+01    0.3124837    0.2595399 -19.21  0.001762738    1.710    0.415
       371  -8.6581    156.4809    166.4731   8.4622270132e+01   1.6563299177e+01    0.1495341    0.1449884  17.91 0.0001864292    1.003    0.003
       372  -9.9164    205.1153    162.9885   7.3400894747e+01   7.6953338368e+00    0.3080722    0.2049168  29.96 0.0009165194    1.595    0.373
       373  -9.4572    208.4795    160.5034   7.2204262235e+01   7.5138169239e+00    0.2114503    0.1328793 -46.83 1.869472e-05    1.679    0.404
       374  -9.5738     39.3694    162.0887   1.1356312736e+02   3.6643865028e+01     0.366203    0.1929868  69.80   0.00165431    2.259    0.557
       375 -10.4034     28.2792    161.5572   1.1629875794e+02   3.7911912650e+01    0.4389996    0.1809883 -61.68  0.002019724    2.072    0.517
       376 -10.0884    246.4310    159.3038   6.5143623846e+01   9.3725029034e-01    0.2688964    0.1147119 -32.91  0.001147559    2.124    0.529
       377  -9.4571     78.9360    159.9670   1.0293354847e+02   3.2058746269e+01    0.2404457    0.1641144  74.39  0.001129749    1.724    0.420
       378  -9.4665    215.4053    158.2576   7.0391155185e+01   6.6149419245e+00    0.2789774    0.1285945 -34.32  0.001126047    2.108    0.526
       379  -9.3930    224.0840    156.9917   6.8513158821e+01   5.2322872557e+00    0.2686495    0.1881936 -46.68  0.001371773    1.510    0.338
       380 -10.7521     33.5677    144.5418   1.1290032575e+02   4.1553238848e+01    0.4358354    0.2858358  47.41  0.002040652    1.619    0.383
       381 -10.6472     22.1863    155.2859   1.1716820110e+02   3.9995189793e+01    0.5165848    0.2602951  35.27  0.001773607    2.116    0.527
       382 -11.1666     15.6639    147.6894   1.1804795149e+02   4.2387371213e+01    0.5077527    0.3158724  71.04  0.001081946    1.626    0.385
       383 -11.6342     12.9816    138.5281   1.1778058897e+02   4.4815111465e+01     1.082372     0.453318 -83.92  0.004749424    2.362    0.577
       384 -11.1618     21.3008    150.7040   1.1690580381e+02   4.1183286795e+01    0.2200612     0.183218  85.98 0.0001927937    1.075    0.070
