#   1 NUMBER                 Running object number                                     
#   2 MAG_AUTO               Kron-like elliptical aperture magnitude                    [mag]
#   3 X_IMAGE                Object position along x                                    [pixel]
#   4 Y_IMAGE                Object position along y                                    [pixel]
#   5 X_WORLD                Barycenter position along world x axis                     [deg]
#   6 Y_WORLD                Barycenter position along world y axis                     [deg]
#   7 A_WORLD                Profile RMS along major axis (world units)                 [deg]
#   8 B_WORLD                Profile RMS along minor axis (world units)                 [deg]
#   9 THETA_WORLD            Position angle (CCW/world-x)                               [deg]
#  10 FWHM_WORLD             FWHM assuming a gaussian core                              [deg]
#  11 ELONGATION             A_IMAGE/B_IMAGE                                           
#  12 ELLIPTICITY            1 - B_IMAGE/A_IMAGE                                       
         1 -14.7369    162.9180     51.0496   7.2030973867e+01   3.7970949580e+01     1.173028    0.9149082  -2.80  0.003603533    1.412    0.292
         2 -14.2049    179.5709     22.9053   5.9967168655e+01   3.7187026061e+01    0.7931362    0.5069383 -10.15    0.0036692    1.794    0.443
         3 -14.2354    174.5971     21.0350   6.0092989794e+01   3.8695503488e+01    0.8101501    0.5355793  -8.56  0.003816131    1.730    0.422
         4 -11.2795    129.2025    242.5845   1.1999786461e+02   1.0924225625e+01    0.1393454    0.1009114  38.25 0.0004327706    1.050    0.047
         5 -20.1409     76.3177    169.2116   1.2280748916e+02   3.1124299993e+01     14.34753     7.076977 -68.25   0.07037467    2.149    0.535
         6 -11.0606     34.4750    243.1258   1.3694019394e+02   2.2387619655e+01    0.1249583   0.08103007  82.73 0.0009721546    1.445    0.308
         7 -13.0020    193.4322    170.4345   9.6567676081e+01   1.1302594094e+01    0.2832427    0.2410295  16.19 0.0008074194    1.021    0.020
         8 -10.5018    135.6376    236.3344   1.1813196766e+02   1.0888423187e+01    0.2132261    0.1702253 -88.21  0.001195176    1.775    0.437
         9 -12.9525    152.8304    218.1082   1.1259621329e+02   1.0947053200e+01    0.4266392    0.2088784  29.71 0.0009876222    1.928    0.481
        10 -12.5776    188.0613    164.3475   9.6454310768e+01   1.3238921482e+01    0.2603227    0.2069164 -39.32  0.001333778    1.452    0.311
        11 -11.9237    154.0592    213.9814   1.1179173258e+02   1.1364730538e+01    0.1839095    0.1487847  32.77  0.001217671    1.016    0.015
        12 -11.0424     15.0910    219.6639   1.3927761115e+02   2.8078642236e+01    0.1412523   0.08323937 -84.11 0.0007220263    1.608    0.378
        13 -12.1412    139.2784    215.8647   1.1498313942e+02   1.3370886621e+01    0.3566895    0.2042321 -65.95  0.001618369    2.812    0.644
        14 -12.1000    191.9328    152.3366   9.3183569099e+01   1.4429923390e+01    0.3515309    0.2010807 -50.29  0.001519618    2.458    0.593
        15 -12.5499    187.2443    153.4769   9.4390326109e+01   1.5150508871e+01    0.3846782    0.2069794  30.52  0.001684963    1.888    0.470
        16 -11.3494     17.9678    154.0271   1.3522454505e+02   4.0515152543e+01    0.1869725    0.1358688 -79.20 0.0004908491    1.218    0.179
        17 -11.2615     18.4473    149.2283   1.3476415107e+02   4.1509320473e+01    0.2268011    0.1663795 -44.39  0.001270471    1.700    0.412
        18 -11.0553    167.3312    241.2890   1.1284250526e+02   5.6293938957e+00    0.1151086    0.0736157  17.59 0.0002878619    1.623    0.384
        19 -12.7211    174.6006    149.1889   9.6165566730e+01   1.8341100047e+01    0.2733927    0.1929484  39.19 0.0007227057    1.314    0.239
        20 -12.9040     27.4255    145.8156   1.3228420915e+02   4.1520848069e+01    0.2940111    0.2734868 -89.89 0.0008997425    1.157    0.136
        21 -11.0487     24.8485    214.3038   1.3729035363e+02   2.8121418865e+01    0.1334797    0.1016304  57.10 0.0004125936    1.089    0.082
        22 -11.0535     21.0175    210.5831   1.3781960570e+02   2.9134820520e+01    0.1523507    0.1010143 -88.62 0.0007673386    1.388    0.279
        23 -13.8336     11.7601    206.0567   1.3932837965e+02   3.0760813209e+01    0.4269072    0.3576272 -54.38  0.003511146    1.682    0.405
        24 -13.5782    160.2807    127.8259   9.4595233295e+01   2.5127182892e+01     0.405197    0.3216917 -48.11  0.001787285    1.406    0.289
        25 -11.7320    133.0635    194.9875   1.1343867214e+02   1.7747118064e+01    0.1940513    0.1644868  40.69 0.0004597748    1.028    0.028
        26 -10.5842     27.3957    227.4906   1.3744835625e+02   2.5615622942e+01   0.09963133   0.07463983  63.22 0.0002470598    1.042    0.041
        27 -11.0399    231.1520    113.8384   7.7044511768e+01   1.2525030445e+01    0.2027617    0.1856809 -24.12  0.000827572    1.180    0.153
        28 -11.9505    168.5112    113.6525   8.9205953261e+01   2.5999071633e+01    0.3255548    0.2504214 -75.80  0.001279319    2.016    0.504
        29 -10.9577      6.2328    225.3445   1.4100874317e+02   2.7882931626e+01   0.08122564   0.06582199 -73.51 0.0006886354    1.552    0.356
        30 -13.4327    113.8914    110.4252   1.0233811494e+02   3.8018860836e+01    0.2955227    0.2717298  28.05 0.0004039941    1.081    0.075
        31 -11.1699    205.7576    110.3803   8.0665132723e+01   1.8355524217e+01    0.2050558    0.1293547  37.58  0.000456274    1.581    0.367
        32 -14.1480    164.3441    186.0922   1.0541261941e+02   1.4006653959e+01    0.5830063    0.3888307  70.94  0.002605574    2.991    0.666
        33 -11.9397     26.8143     97.9743   1.2707660998e+02   5.2544525064e+01    0.3418007    0.2676122 -34.60  0.001617285    1.417    0.294
        34 -13.6635    151.3086     64.6016   7.9011064161e+01   3.8780318971e+01    0.4521283    0.4007285  35.85 0.0008978534    1.090    0.082
        35 -13.8430    162.6642    180.9838   1.0489105296e+02   1.5135811864e+01    0.3634695    0.2507701  56.26  0.001588427    1.770    0.435
        36 -11.1405    116.1604    247.4105   1.2285324409e+02   1.2039541286e+01   0.08682135   0.07520244 -22.88  0.000655539    1.626    0.385
        37 -13.2944    167.5838     42.4233   6.8284418929e+01   3.7970897148e+01    0.4655586    0.4248938  31.73 0.0008101858    1.071    0.066
        38 -10.8954    101.0757    245.2242   1.2539035034e+02   1.4351321471e+01    0.1751533    0.1155414 -27.96  0.001046722    2.919    0.657
