#   1 NUMBER                 Running object number                                     
#   2 MAG_AUTO               Kron-like elliptical aperture magnitude                    [mag]
#   3 X_IMAGE                Object position along x                                    [pixel]
#   4 Y_IMAGE                Object position along y                                    [pixel]
#   5 X_WORLD                Barycenter position along world x axis                     [deg]
#   6 Y_WORLD                Barycenter position along world y axis                     [deg]
#   7 A_WORLD                Profile RMS along major axis (world units)                 [deg]
#   8 B_WORLD                Profile RMS along minor axis (world units)                 [deg]
#   9 THETA_WORLD            Position angle (CCW/world-x)                               [deg]
#  10 FWHM_WORLD             FWHM assuming a gaussian core                              [deg]
#  11 ELONGATION             A_IMAGE/B_IMAGE                                           
#  12 ELLIPTICITY            1 - B_IMAGE/A_IMAGE                                       
         1 -14.6711     68.4972    144.2187   1.1079684899e+02   3.7273446363e+01     4.723545      2.13995  67.11  0.004171238    4.268    0.766
         2 -14.4196    210.5912     20.6182   4.5541567463e+01   2.9724997926e+01     1.397085     1.076096  18.25  0.007379563    1.758    0.431
         3 -14.4374    198.6811     34.1764   5.0764997990e+01   3.1079125136e+01     2.221433     1.443561  33.09  0.007888537    2.030    0.507
         4  -9.5495     61.0168      7.7745   7.2214163518e+01   6.6289928185e+01    0.1562496   0.09470649  41.27 0.0004450468    1.638    0.389
         5 -10.4884     41.6590      3.0741   7.7752575828e+01   6.9817360441e+01    0.1712451    0.1277591 -12.46 0.0007027425    1.098    0.089
         6 -10.7265     31.6116      2.3994   8.2094299049e+01   7.1213327240e+01    0.2070071    0.1012252  31.43  0.001159574    2.095    0.523
         7  -8.6425    141.2505      1.3700   4.8896322802e+01   4.9495353803e+01    0.1406253   0.09259598  31.12 0.0006954988    1.631    0.387
         8 -10.6704    162.8488    213.8974   1.0070227632e+02   6.9898020547e+00    0.4664566    0.2733145 -68.92  0.002098384    3.077    0.675
         9 -16.1605     79.9732    245.9576   1.1984859246e+02   1.4745989665e+01     8.129361     2.544486  37.00   0.03499458    3.443    0.710
        10  -9.1900    141.0020    197.5105   1.0256710299e+02   1.3755721421e+01    0.1889366     0.102543  60.88 0.0005292755    2.312    0.567
        11  -9.3791    152.3647    194.1432   9.9676866134e+01   1.2314194248e+01    0.1761352    0.1282785 -65.92 0.0004146978    1.678    0.404
        12  -9.2956     82.2464    194.6112   1.1443724889e+02   2.4039074022e+01    0.1671723    0.1158839  35.87 0.0009468488    1.608    0.378
        13  -9.7697     96.7917    192.0629   1.1107137533e+02   2.2351204111e+01    0.2273565    0.1772331   8.36  0.001225762    2.114    0.527
        14 -10.5561    206.3420    180.9896   8.6432285991e+01   4.4069964096e+00    0.3492707    0.2474923 -66.92  0.001649399    2.433    0.589
        15 -12.1423     69.5803    179.7340   1.1538487330e+02   2.9014273344e+01    0.4135266    0.2675016 -44.02  0.002174492    2.167    0.538
        16 -11.9769     73.9819    174.4258   1.1376055958e+02   2.9567571952e+01    0.2857868    0.2341683 -52.19  0.001223081    1.458    0.314
        17  -9.7407     99.5849    180.8170   1.0893253477e+02   2.4270008270e+01    0.2070444    0.1771054  43.50 0.0005972127    1.241    0.194
        18 -10.9518    143.2971    178.0726   9.8857390308e+01   1.7097561129e+01    0.3471461    0.2187729 -86.00   0.00139984    2.839    0.648
        19 -16.6820      8.9362    243.3363   1.3124190850e+02   2.3657570386e+01      9.99982     1.714116 -78.94   0.02118509    5.337    0.813
        20 -11.4053    126.0206    173.2558   1.0184056845e+02   2.1309973805e+01    0.4687928    0.2478531  39.56  0.002072712    1.863    0.463
        21 -12.4537     89.0228    157.5736   1.0784690622e+02   3.1129001062e+01     1.313946    0.6642318 -68.49   0.00252828    2.080    0.519
        22 -12.4526     82.7128    164.2568   1.1037025418e+02   3.0574403412e+01    0.7073216    0.4293602  67.55 0.0009947324    1.830    0.454
        23 -13.6380     70.7050    160.3321   1.1263582246e+02   3.3211342151e+01    0.6561558    0.5032971 -33.94  0.002570234    1.863    0.463
        24 -12.6565     18.1412    191.7775   1.2700274292e+02   3.2462514206e+01    0.3554135     0.243541  48.86 0.0004042452    1.440    0.306
        25 -10.0083    145.5427    168.4917   9.6613437843e+01   1.8605031170e+01    0.1438358     0.134828  58.56 6.528525e-05    1.010    0.010
        26  -9.8468    161.0711    165.4747   9.2608346638e+01   1.6128917335e+01    0.2080359    0.1936155 -51.52 0.0004475718    1.137    0.121
        27 -10.7779     32.6056    165.4484   1.2195444252e+02   3.6657612611e+01    0.2342931    0.1243541 -79.20 0.0007836916    1.593    0.372
        28 -10.0821     51.3809    164.4800   1.1765176833e+02   3.4772245489e+01    0.3213188    0.1591473 -42.10  0.001338163    3.503    0.715
        29 -14.7473     45.5674    206.7303   1.2289717957e+02   2.6443030994e+01     1.491566    0.8767279 -86.68  0.004483546    1.511    0.338
        30  -9.2782    163.8344    204.8699   9.9097045718e+01   8.3215941443e+00    0.1693296    0.1472152  67.33 0.0003782083    1.269    0.212
        31 -10.2180    190.0350    155.3952   8.4363563586e+01   1.2098350381e+01    0.3380992    0.1374558  45.50  0.001246455    2.395    0.583
        32 -11.4814    133.8339    144.4934   9.4517105276e+01   2.6045785431e+01     1.186787    0.2942165 -54.19  0.002938204    5.428    0.816
        33 -10.3050    174.8292    148.9138   8.6127938946e+01   1.6549305365e+01    0.2749879    0.2148692 -66.13 0.0008906559    1.569    0.363
        34 -11.6964     54.0369    147.6477   1.1491315067e+02   3.8333514070e+01    0.4234569    0.3559139  84.79  0.002675344    1.055    0.052
        35 -10.1679     41.1803    147.1832   1.1800027986e+02   3.9917313512e+01    0.2391629    0.1619745 -89.67  0.001002146    1.315    0.240
        36 -10.8075     44.9532    144.8818   1.1678821689e+02   4.0039817415e+01     0.305219    0.1684149  42.34  0.001187256    1.889    0.471
        37  -8.9648    109.4400    147.4926   1.0108128729e+02   3.0009654514e+01    0.1463079    0.1333972  87.28 9.549578e-05    1.035    0.034
        38  -9.4387     86.0053    145.0386   1.0649880366e+02   3.4515090778e+01    0.2166063    0.1531919  75.01 0.0003235479    1.565    0.361
        39 -10.7645    103.1642    141.4828   1.0149142204e+02   3.2508502375e+01    0.5510356    0.3379211 -29.43  0.002204802    2.715    0.632
        40 -12.3256     90.3544    141.9362   1.0484025416e+02   3.4554583284e+01    0.2724488    0.2416607 -53.52 0.0004948726    1.192    0.161
        41 -10.4294     46.2921    171.2854   1.1953459223e+02   3.3848080663e+01    0.4356123    0.2118288 -89.76  0.002073483    2.208    0.547
        42 -10.3226    111.8384    131.4609   9.7202915770e+01   3.3270091045e+01    0.3303237    0.2607305  10.64   0.00102372    1.748    0.428
        43 -10.3054    106.0857    130.7041   9.8537162050e+01   3.4502459056e+01    0.3245382     0.288786  84.76  0.001251468    1.128    0.113
        44  -9.8353    108.0556    203.2277   1.1017165509e+02   1.8304444064e+01    0.1823314    0.1650541  45.73 0.0005527899    1.220    0.180
        45 -11.1340    137.4953    171.1095   9.8891364482e+01   1.9616622762e+01    0.3556086    0.2204554  53.94  0.001546504    1.617    0.382
        46 -11.1736     98.9246    127.9476   9.9842379081e+01   3.6417240670e+01    0.3327673    0.2743086  -5.28 0.0008097158    1.667    0.400
        47 -10.0040    160.7666    127.7736   8.4327781841e+01   2.3930509152e+01    0.2552086    0.1213299 -53.04 0.0008882583    2.472    0.595
        48 -10.5187    125.7334    127.5900   9.2766025924e+01   3.1461394129e+01    0.3892604    0.2457873  77.88  0.001447909    2.703    0.630
        49 -11.6360    118.2736    125.0777   9.4100784695e+01   3.3513416791e+01     0.955208    0.5268379 -23.19  0.002752372    4.816    0.792
        50  -9.8334    121.6476    118.0387   9.1542743090e+01   3.4451074325e+01    0.2336287    0.2066742  50.12 0.0007453825    1.156    0.135
        51  -9.4130    211.0028    202.4716   8.9591266221e+01   2.5303896895e-01      0.18796    0.1137709  39.33 5.685935e-05    1.477    0.323
        52 -11.3751    135.2516    121.1906   8.8829981501e+01   3.0928409182e+01    0.6318159    0.1895281 -50.36  0.001819583    3.582    0.721
        53  -9.1314     96.1922    201.2134   1.1234620059e+02   2.0586067061e+01    0.1736948    0.1256232  69.29 0.0003133424    1.277    0.217
        54  -9.8916    108.0839    119.9938   9.5615588151e+01   3.6631408111e+01    0.2146415    0.2039438 -69.62 0.0003047254    1.011    0.011
        55  -8.9316    202.6901    171.3175   8.5198012648e+01   6.7125965451e+00    0.1327893    0.1142146 -89.47 0.0004069684    1.638    0.390
        56  -9.9507    167.8403    112.5160   7.8854717545e+01   2.5461365500e+01    0.3177056    0.2441647 -71.27  0.001425428    1.627    0.385
        57 -10.1645    134.6732    112.0546   8.6663661317e+01   3.3069748877e+01    0.4314049    0.1741048 -44.16  0.001477053    2.446    0.591
        58 -10.5675    134.7042    103.8415   8.4469066264e+01   3.4853682584e+01    0.6151454    0.2082922 -43.44  0.001928299    2.904    0.656
        59 -11.5317    118.7135    109.8063   9.0255130495e+01   3.6906330231e+01    0.6566445    0.4520278  58.08  0.002961494    1.641    0.391
        60 -12.2363     52.8314    108.4501   1.0888099897e+02   4.7799441187e+01    0.6502389    0.2811109 -68.53  0.002687113    2.319    0.569
        61 -11.9297     43.7496    109.1664   1.1170213368e+02   4.8637110175e+01    0.3627651    0.2878171 -71.61  0.001201525    1.075    0.070
        62 -10.0039    205.4817    110.1871   7.0530035664e+01   1.7078067284e+01     0.320327    0.2179697  42.28  0.000864299    1.547    0.354
        63 -10.9598    194.8494    168.0057   8.6064817841e+01   8.8347777182e+00    0.3082052    0.2990787  40.60  0.000906309    1.126    0.112
        64 -10.7182    241.7835    101.6174   6.2268946052e+01   1.0427872552e+01    0.1915601    0.1403345  70.76 0.0007530428    1.700    0.412
        65  -9.4429     85.9236     99.1219   9.6840047166e+01   4.5370344971e+01    0.2047813    0.1838806 -85.33            0    1.187    0.158
        66  -9.7134    121.2123     98.4465   8.6541846061e+01   3.8921257618e+01    0.2215951    0.1473857  58.57 0.0009501585    1.748    0.428
        67 -11.1357     52.7348     94.0406   1.0592721585e+02   5.1208364123e+01    0.3255261    0.2370297  88.27  0.001746718    1.670    0.401
        68  -9.1419    157.6678     80.2988   7.2079877596e+01   3.4268253344e+01    0.1612291    0.1246961 -77.61 0.0003271657    1.647    0.393
        69  -8.8514    184.3419     77.3213   6.5626847437e+01   2.8138013392e+01    0.1624801     0.121957  19.44 0.0007050261    1.723    0.420
        70  -9.4340     61.8005     71.2591   9.7044213383e+01   5.5216284819e+01    0.1869453    0.1434711 -27.35 0.0005552291    1.326    0.246
        71  -9.2732     58.7833     67.5476   9.7006598210e+01   5.6411037301e+01    0.1754104    0.1254677  48.09 0.0009401768    1.739    0.425
        72 -10.8746     13.4157     59.8092   1.1190517434e+02   6.2414118431e+01    0.2077395    0.1832676 -69.70 0.0004364653    1.212    0.175
        73 -10.5497    150.4822     54.1225   6.5423627414e+01   4.0654980199e+01     0.385822    0.2633615 -76.29  0.001193904    2.153    0.536
        74 -14.8722     54.5740    197.3286   1.2035250708e+02   2.7247077777e+01     2.149257     1.147919  79.09   0.01148826    1.910    0.477
        75 -12.2320    189.6638     40.5727   5.3923506595e+01   3.2552774325e+01    0.6198972     0.490696  46.84  0.001078191    1.330    0.248
        76 -16.6140      6.8594    209.6156   1.3006019532e+02   2.9993932515e+01     5.804964     1.200721 -70.18   0.02600327    3.786    0.736
        77 -11.0888    151.9693     47.3415   6.2854237182e+01   4.1338961210e+01    0.3524436    0.2785113 -86.62 0.0008944704    1.525    0.344
        78  -9.5619    189.5153     14.9978   4.6443185758e+01   3.5746716915e+01    0.2014558    0.1378828 -28.27 0.0006029765    1.548    0.354
        79 -10.5211     77.0180    234.0858   1.1938099882e+02   1.7196228472e+01    0.2227019    0.1512844 -78.92 0.0007637149    1.510    0.338
        80 -11.8954    193.2921    193.6656   9.1358629315e+01   4.7889161573e+00    0.7945042     0.475967 -56.33  0.003696209    2.461    0.594
        81 -10.5473     71.5924    230.2361   1.2002592484e+02   1.8627132287e+01    0.2414556    0.1571772  55.88 0.0008724323    1.205    0.170
