#   1 NUMBER                 Running object number                                     
#   2 MAG_AUTO               Kron-like elliptical aperture magnitude                    [mag]
#   3 X_IMAGE                Object position along x                                    [pixel]
#   4 Y_IMAGE                Object position along y                                    [pixel]
#   5 X_WORLD                Barycenter position along world x axis                     [deg]
#   6 Y_WORLD                Barycenter position along world y axis                     [deg]
#   7 A_WORLD                Profile RMS along major axis (world units)                 [deg]
#   8 B_WORLD                Profile RMS along minor axis (world units)                 [deg]
#   9 THETA_WORLD            Position angle (CCW/world-x)                               [deg]
#  10 FWHM_WORLD             FWHM assuming a gaussian core                              [deg]
#  11 ELONGATION             A_IMAGE/B_IMAGE                                           
#  12 ELLIPTICITY            1 - B_IMAGE/A_IMAGE                                       
         1 -15.7352    241.0792     95.1733   7.9919524205e+01   1.1671426363e+01     7.543762     1.598838 -32.02   0.02070249    4.689    0.787
         2 -14.1337    185.9915      7.3839   6.4101167110e+01   3.7095509609e+01     2.585523     1.162792 -78.95  0.008945937    3.472    0.712
         3 -14.6463    205.6148     36.5424   6.9828728086e+01   2.8711414062e+01     1.436553     1.306413  45.55  0.005503577    1.192    0.161
         4 -13.2279    183.2282     80.7630   8.6059430177e+01   2.7936351178e+01     4.345987    0.3495561 -39.91  0.008138331    8.536    0.883
         5 -14.7426    166.3970     52.6509   8.0994018264e+01   3.6828862944e+01     6.483556     2.528399  73.78  0.002754046    7.366    0.864
         6 -13.9455    235.3629     55.7602   7.1017464011e+01   1.8765706633e+01     2.374403      1.24273 -79.95  0.007384477    3.331    0.700
         7 -14.4678    216.4828     27.3749   6.6040242306e+01   2.7058737118e+01     1.733358     0.976835 -72.82  0.005901092    2.133    0.531
         8 -12.1610    242.7426     14.3897   6.0291588308e+01   2.2166597664e+01     1.366264    0.3914472  75.49  0.004843364    3.713    0.731
         9 -12.3900    232.9977     24.5759   6.3589033229e+01   2.3317189048e+01    0.5226414    0.2930183 -59.97  0.001222798    1.830    0.453
        10 -13.5676    222.9454     15.4709   6.2323593932e+01   2.6796433224e+01    0.7393675    0.3320187 -58.03  0.001911555    2.474    0.596
        11 -11.3755    250.4831     18.2758   6.0540347175e+01   1.9958770370e+01    0.5788258    0.1863866 -27.62  0.002239571    3.225    0.690
        12 -13.2757    248.3525      4.7655   5.7681755300e+01   2.1907293518e+01    0.8251582     0.528446 -55.10  0.004778785    1.366    0.268
        13 -13.5873    231.9313      3.6371   5.8663404317e+01   2.5849489425e+01     1.153542    0.6657759 -87.65  0.005953545    1.674    0.403
        14 -12.5753    191.7469     23.2335   6.7936746138e+01   3.3930909938e+01    0.4427547    0.2686479 -55.47  0.001188738    1.792    0.442
        15 -12.4094    124.7071     24.9999   8.0455812497e+01   5.1216493518e+01    0.3964112    0.2851994  88.33  0.001885021    1.913    0.477
        16 -13.3612    149.0415      2.9116   6.7713881636e+01   4.7224508805e+01        2.036    0.2828046  54.87  0.005992532    4.023    0.751
        17 -12.4693    119.0877      6.9872   7.4741156438e+01   5.4455717306e+01    0.8714277    0.3610422  48.64  0.003500865    2.018    0.504
        18 -14.3927    132.9391      3.5302   7.0653858673e+01   5.1313423080e+01      6.28014          nan  57.42   0.01400113    7.000    0.857
        19 -12.1614    118.8312      2.7374   7.3111332168e+01   5.4882919247e+01     1.155536     0.134836  57.07  0.003382906    4.217    0.763
        20  -9.2454     11.4375      9.5111   1.1735689644e+02   7.2447764176e+01    0.1129091   0.08346424 -26.36 9.885107e-05    1.014    0.014
        21 -10.4286    221.4911      7.1455   6.0389514428e+01   2.8031265545e+01    0.2638521    0.1893605 -44.84 0.0007440437    1.346    0.257
        22 -10.7721    215.5471      2.6147   5.9788891646e+01   2.9955326613e+01    0.4008018    0.2583824 -43.70  0.001829689    1.507    0.336
        23 -12.6401    190.3977     50.7907   7.6108312828e+01   3.0771733616e+01    0.5782629    0.3591483  24.99  0.002331775    2.364    0.577
        24 -11.6693    213.0193    128.3152   9.2685355829e+01   1.2512731344e+01    0.3069783    0.2047205  50.24  0.001292903    1.529    0.346
        25 -10.0305    160.2885    127.6427   1.0366536270e+02   2.4651741919e+01    0.2895025    0.1926047 -53.44  0.001203211    1.698    0.411
        26 -11.0873    203.7651    127.5814   9.4287014002e+01   1.4708167424e+01     0.211904    0.1452805  59.38 0.0009542932    1.657    0.397
        27 -13.1415    220.4146    112.1623   8.7419761720e+01   1.3575129566e+01    0.6929259    0.4293633 -24.52  0.002652536    1.715    0.417
        28 -12.1716    218.4611    123.2502   9.0465335191e+01   1.2164248990e+01    0.5898803    0.2138788 -30.03  0.001939801    3.140    0.682
        29 -12.2575    214.9956    117.2190   8.9633415261e+01   1.3954795070e+01    0.4513805    0.3722962 -49.13  0.002336907    1.309    0.236
        30  -9.7269      1.3297    126.2136   1.4597688833e+02   4.8779108735e+01    0.1569824   0.08350596 -86.30 0.0002417913    1.562    0.360
        31 -11.9850    197.9680    119.5390   9.3460590019e+01   1.7464098011e+01    0.5907887    0.3400496  69.06  0.001705496    2.766    0.639
        32  -9.5391    135.0000    120.9587   1.0824086600e+02   3.1659654807e+01    0.2543686   0.08863336 -45.81 0.0008019436    2.939    0.660
        33 -11.6488    185.6160    117.4379   9.5463677771e+01   2.0744623554e+01    0.4560575    0.3016377 -30.80  0.002005602    1.598    0.374
        34  -9.8462    167.0410    113.0060   9.8398313272e+01   2.5998490154e+01    0.2508518    0.1975409 -81.77  0.000687885    1.694    0.410
        35 -11.9848    204.6581    110.5650   8.9900544618e+01   1.7483719027e+01    0.5204899    0.3367304  27.77  0.002214666    1.909    0.476
        36 -13.7399     15.8855    220.2059   1.4915194482e+02   2.8224828712e+01     0.722504    0.3276263 -74.68  0.004538563    2.030    0.507
        37 -12.4658    176.7341     65.0653   8.2764158824e+01   3.2206420158e+01    0.8370446    0.3615545 -33.97   0.00062822    2.344    0.573
        38 -13.3715    227.7685    105.7346   8.4583606053e+01   1.2968299033e+01    0.7519587    0.6564458 -58.76  0.002505502    1.268    0.211
        39  -9.6107    141.1862    100.5910   1.0130451664e+02   3.4559833726e+01    0.2223635    0.1457798  37.17 0.0005279442    1.598    0.374
        40 -10.7261    134.8858    105.0157   1.0415065636e+02   3.5072275869e+01    0.5265095    0.3144851 -38.28   0.00218505    1.755    0.430
        41  -9.5890     72.1879    105.1438   1.2232173668e+02   4.6694582214e+01    0.1806465    0.1549228  78.70 0.0003526995    1.292    0.226
        42 -10.3945    124.1016     99.5144   1.0554137070e+02   3.8589981222e+01    0.2423113    0.1509175  43.98  0.001034359    1.597    0.374
        43 -10.9806    146.4605     94.7534   9.8325816282e+01   3.4500013200e+01     0.354815    0.2778686  -7.68 0.0008473818    1.583    0.368
        44 -15.0792     47.6848    194.7800   1.4145794877e+02   2.9700612007e+01     1.465788     1.191408 -34.99  0.008979358    1.959    0.489
        45  -9.2470    113.4616     94.5722   1.0715698752e+02   4.1867351427e+01    0.1489094    0.1464522  -0.33 4.913572e-05    1.011    0.011
        46 -10.4615    133.3004     92.6681   1.0111445693e+02   3.7975135457e+01    0.2953688    0.2408609 -83.02 0.0007792555    1.567    0.362
        47 -12.2486    155.8129     85.3347   9.3319376985e+01   3.4042285042e+01     0.727995    0.4711829  13.82  0.002212552    2.532    0.605
        48 -10.4418    191.9740    193.2950   1.1066369401e+02   5.9602839987e+00    0.3628048    0.1955386 -59.89   0.00134514    4.041    0.753
        49 -11.6142    139.8988     83.2507   9.6604032890e+01   3.8298643940e+01    0.3572352    0.3181853 -41.61   0.00129936    1.151    0.131
        50 -12.8370    153.4269     73.3142   9.0250563309e+01   3.6815362810e+01    0.3900363    0.3132216 -28.81  0.001076099    1.301    0.232
        51  -9.5481     78.7098     75.0560   1.1233380639e+02   5.2376030221e+01    0.1938029    0.1616247 -45.72 0.0004456442    1.143    0.125
        52  -9.6499    130.5952     66.2320   9.3655835315e+01   4.3649766774e+01    0.2144131    0.1478576 -22.48 0.0009470233    1.631    0.387
        53 -12.8453    170.3117     70.8816   8.5794264951e+01   3.2924332857e+01    0.8004545    0.5802748   3.01  0.001567074    1.863    0.463
        54 -10.9320    233.1150     42.3763   6.7959371683e+01   2.1094374532e+01    0.5371665    0.3294658  32.00  0.002392326    2.435    0.589
        55 -10.4733     37.9526    182.4703   1.4241899050e+02   3.3356682117e+01    0.1754147    0.1321745  88.48 0.0003005409    1.111    0.100
        56 -11.0140    250.0014     35.2754   6.4477072105e+01   1.8054267195e+01    0.5182181    0.1977613 -28.12  0.002094187    2.690    0.628
        57  -9.6735    249.6673     29.3270   6.3132638178e+01   1.8855359231e+01    0.2429777    0.1457703 -51.55 0.0008670591    1.515    0.340
        58 -11.2236    249.6428     25.6140   6.2281379510e+01   1.9302468930e+01    0.2683932    0.1992894 -62.09  0.001577113    1.214    0.176
        59  -9.4944    190.0725     36.1542   7.1905205549e+01   3.2824532028e+01     0.199626    0.1630691 -71.97 0.0005343409    1.273    0.214
        60 -10.5724    243.0758     32.4125   6.4480340365e+01   1.9995545166e+01    0.2939918    0.1866728 -25.22 0.0008866719    1.702    0.413
        61 -10.4172    153.3372     31.1731   7.6563019802e+01   4.3188539338e+01    0.2809461    0.1451214 -13.91  0.001080706    2.570    0.611
        62 -12.6740    225.8650    175.1422   1.0060809402e+02   2.3556954557e+00    0.7737948    0.3974221  -8.30  0.002746662    3.792    0.736
        63  -9.5083    119.1398    208.4776   1.2812862075e+02   1.6614563742e+01    0.1856789    0.1106038  42.83 0.0003866751    1.429    0.300
        64 -14.5741     58.0059    184.0467   1.3826619278e+02   3.0659670244e+01     1.155867     1.004791 -58.04  0.002628482    1.416    0.294
        65 -10.5830      5.0367    170.3143   1.4840444320e+02   3.9009386014e+01    0.1484897    0.1148754  74.14 0.0003389507    1.093    0.085
        66 -11.7628    229.3308    166.3221   9.8156465271e+01   3.0223762110e+00    0.2950882    0.2286073 -44.29 0.0009832621    1.550    0.355
        67 -11.4727    245.9344    164.1637   9.4775604244e+01   2.6417983856e-01    0.3953271    0.2215805   5.59  0.001529851    2.697    0.629
        68  -9.9688    160.0084     26.9347   7.3926433837e+01   4.1937131703e+01    0.2111938    0.2015071  77.33 0.0004437862    1.058    0.055
        69 -10.2283     11.9350    162.3166   1.4639346907e+02   4.0138219180e+01    0.1505953    0.1238914  77.39 0.0004014712    1.110    0.099
        70  -9.9045    202.2672    248.1131   1.1758838609e+02  -3.3710006083e+00    0.1568554    0.1246448  27.31 0.0003445512    1.082    0.076
        71  -9.8886    239.5685     29.6431   6.4165992588e+01   2.1152178822e+01    0.1738532    0.1121541 -45.63 0.0004414788    1.415    0.293
        72 -12.5515     90.4157     21.4190   8.8373712569e+01   5.9412980450e+01    0.4972951    0.3479789 -79.36  0.002159371    3.169    0.684
        73 -11.9012    100.9065     22.4395   8.5646749762e+01   5.7057281737e+01    0.2648472    0.1975972  -6.74 0.0006876128    1.379    0.275
        74 -10.5928     81.7263     22.4017   9.1653966358e+01   6.1017747206e+01    0.1902918    0.1117431  35.86 0.0009458879    1.606    0.377
        75  -8.7719    138.4673    244.5163   1.2879109365e+02   7.4301162558e+00    0.1224229   0.09318893  46.77 0.0002002029    1.012    0.012
        76 -12.4206     67.7720    144.3120   1.3089664140e+02   3.8199155614e+01    0.6561148    0.3687608  62.25  0.002815715    2.097    0.523
        77 -13.7815     21.7804    221.5427   1.4819884867e+02   2.7384419749e+01    0.7175061    0.3422588 -72.13   0.00454094    2.017    0.504
        78 -12.4635    185.7148     55.3787   7.8239465206e+01   3.1338555093e+01    0.3562411    0.3068799  29.29 0.0007303334    1.275    0.215
        79  -9.7375     20.4945    139.0946   1.4237025309e+02   4.4527315590e+01    0.1615681    0.1395044  85.68 0.0003379704    1.099    0.090
        80 -11.5529    185.2473    135.9437   1.0008029747e+02   1.7374741772e+01    0.5415367    0.3346687  66.62  0.002128646    2.356    0.576
        81 -12.4748    211.1996    133.8104   9.4331974229e+01   1.1975534694e+01    0.7023309    0.2649466  49.46  0.002496444    2.657    0.624
        82  -9.5783     15.8701    133.8932   1.4300752508e+02   4.6065484514e+01    0.1571702    0.1127502  79.43            0    1.259    0.206
