#   1 NUMBER                 Running object number                                     
#   2 MAG_AUTO               Kron-like elliptical aperture magnitude                    [mag]
#   3 X_IMAGE                Object position along x                                    [pixel]
#   4 Y_IMAGE                Object position along y                                    [pixel]
#   5 X_WORLD                Barycenter position along world x axis                     [deg]
#   6 Y_WORLD                Barycenter position along world y axis                     [deg]
#   7 A_WORLD                Profile RMS along major axis (world units)                 [deg]
#   8 B_WORLD                Profile RMS along minor axis (world units)                 [deg]
#   9 THETA_WORLD            Position angle (CCW/world-x)                               [deg]
#  10 FWHM_WORLD             FWHM assuming a gaussian core                              [deg]
#  11 ELONGATION             A_IMAGE/B_IMAGE                                           
#  12 ELLIPTICITY            1 - B_IMAGE/A_IMAGE                                       
         1 -13.2029     67.6164    143.1118   1.0925347731e+02   3.7772467364e+01     3.662069     1.650058  70.09  0.008300938    6.413    0.844
         2 -13.7332    213.6661     21.0382   4.3284533369e+01   2.8888319180e+01      2.85991     1.559048  28.44   0.01095574    3.589    0.721
         3 -12.9870    201.4643     34.1277   4.8223920131e+01   3.0335801656e+01     0.978753    0.6332687  36.06  0.004529745    2.006    0.502
         4 -11.8343     32.7880     29.8829   9.2474885473e+01   6.6996730770e+01    0.5962561     0.228605 -47.58  0.002760712    2.347    0.574
         5 -11.1185     33.0000     12.8926   8.4754136941e+01   6.9706399821e+01    0.4804484    0.1267789 -39.16  0.001937791    3.319    0.699
         6 -10.9952     32.9001      4.7646   8.0630672177e+01   7.0844069373e+01     0.627302    0.1355575 -34.07  0.002275869    4.310    0.768
         7 -10.1270     21.8078     26.6084   9.6373684308e+01   6.8622399379e+01    0.1476285    0.1045511  29.40 0.0009541497    1.721    0.419
         8 -11.0687     32.6244     20.4614   8.8509294755e+01   6.8591089246e+01    0.4961914    0.1151059 -42.40  0.001863352    3.642    0.725
         9 -10.9803     42.8488      4.0714   7.5578160998e+01   6.9596568307e+01    0.2806839    0.1690724  38.91  0.001410437    1.746    0.427
        10  -9.0274      9.9483    195.0343   1.2772242121e+02   3.2453913967e+01    0.1632171    0.1129632  71.57 0.0004037643    1.111    0.100
        11 -14.5451     48.9371    202.3063   1.2065427007e+02   2.6785164669e+01     5.098014     1.835643 -62.95   0.01697455    2.663    0.624
        12 -13.7529     39.5814     73.4588   1.0381036364e+02   5.7572902344e+01     1.148401    0.7129038 -45.09  0.002939663    1.368    0.269
        13 -15.6660     24.8507     60.9967   1.0619830982e+02   6.1601956597e+01     5.698732     2.908268 -63.90   0.02918059    1.852    0.460
        14 -15.3019      5.3528    150.4372   1.2561455654e+02   4.2498550471e+01     1.127114    0.5538285  88.37  0.004632575    1.762    0.432
        15 -12.3961     68.4741    160.5506   1.1166907712e+02   3.3516013160e+01    0.4411647    0.2952813 -45.51 0.0008847897    1.791    0.442
        16 -15.2155      2.6837    173.5489   1.2783477654e+02   3.7608045820e+01     2.635955    0.3628827 -78.49  0.007710481    6.659    0.850
        17 -16.9907     25.5557    148.1099   1.2062921346e+02   4.1355935334e+01     3.121311     1.434658 -77.15  0.008771814    1.851    0.460
        18 -10.4183    133.8147    143.1956   9.2127625637e+01   2.6361049028e+01    0.7954305    0.2448318 -55.24  0.002170191    4.332    0.769
        19  -9.7660     53.6628    147.8801   1.1358757472e+02   3.8425783547e+01    0.3612145    0.2265963 -69.71  0.001926652    1.401    0.286
        20 -11.0054    101.7711    141.5532   9.9964518242e+01   3.2821109558e+01    0.5456039     0.344105 -30.81  0.002279483    2.330    0.571
        21  -9.9887     84.4278    144.1772   1.0501318931e+02   3.5063099269e+01    0.3237309    0.2123801  88.99  0.001488213    1.883    0.469
        22 -11.5255     89.1545    141.7390   1.0332259325e+02   3.4897356524e+01    0.2982327    0.2677921 -36.96 0.0004596181    1.279    0.218
        23 -11.7166     87.1070    157.8363   1.0665808125e+02   3.1413292414e+01    0.6794563    0.4717652 -31.26  0.001819446    2.118    0.528
        24 -10.0126    111.1094    131.4657   9.5372570804e+01   3.3503790582e+01    0.3302556    0.2627312  15.68 0.0008776517    1.599    0.375
        25  -9.7438    106.2090    130.7065   9.6518463216e+01   3.4589780909e+01     0.335369    0.3017356  73.19  0.001272243    1.135    0.119
        26  -9.8921    125.9398    127.6799   9.0592404278e+01   3.1477281930e+01    0.3794574    0.2137568 -65.86  0.001394172    2.465    0.594
        27 -10.1966     98.3686    127.7679   9.8011999403e+01   3.6687113399e+01    0.2936845    0.2428837 -31.00 0.0004360784    1.394    0.283
        28 -10.2063    135.4950    127.5485   8.8105859366e+01   2.9524431494e+01    0.3426949    0.1527491 -47.27  0.001230841    2.235    0.552
        29  -9.8748    116.7821    125.9000   9.2588236272e+01   3.3714643163e+01    0.3072221     0.202021  69.44  0.001255133    2.118    0.528
        30 -11.1732     81.2274    164.0735   1.0907686219e+02   3.0862260713e+01    0.4997703    0.3274884  38.58 0.0005462573    1.586    0.369
        31  -9.1205    107.8223    119.8448   9.3593808428e+01   3.6844251925e+01    0.2121313      0.20089 -21.70 0.0003305509    1.146    0.127
        32  -8.8691    193.6820    165.9393   8.3548180056e+01   9.3302159374e+00    0.2020662    0.1850761 -18.61  0.001022365    1.092    0.084
        33  -9.7868    134.7322    112.8021   8.4584092478e+01   3.2971793599e+01    0.3758488    0.1357017 -47.00  0.001195281    2.765    0.638
        34  -9.0800    168.0483    112.7882   7.6500261700e+01   2.5381764269e+01    0.3279242    0.1918006 -62.80  0.001159836    2.595    0.615
        35  -8.8955    205.7392    110.0370   6.8018338560e+01   1.7072425893e+01    0.2151693    0.1963721 -30.08  0.000551076    1.051    0.048
        36  -8.5293     91.7649    102.6212   9.3963710624e+01   4.3766527170e+01    0.1967611    0.1372994  51.56 0.0004423819    1.604    0.377
        37 -14.6425     85.9956    227.4967   1.1574079278e+02   1.6833112430e+01     4.471787    0.8447726  47.10   0.01549998    4.080    0.755
        38 -16.1371     17.0146    246.0646   1.2914108155e+02   2.2039610108e+01     1.892847    0.7017552  61.77  0.009969252    2.072    0.517
        39 -10.9384     67.4120    179.3087   1.1436412680e+02   2.9366578055e+01    0.3888879    0.2532549 -42.10  0.001741321    2.165    0.538
        40 -10.8730     72.0168    173.9221   1.1263688791e+02   2.9941765523e+01    0.2872744    0.2309204 -42.94 0.0006705575    1.592    0.372
        41 -10.4891    145.6336     50.1623   6.2827095698e+01   4.2461316944e+01    0.5792471    0.3611326 -82.52  0.002126381    2.920    0.658
        42 -14.9349      4.7842    249.2842   1.3117155068e+02   2.2723973073e+01    0.6721653    0.3659633  73.83  0.003623975    1.316    0.240
        43 -10.0988     73.7823    188.2380   1.1401492508e+02   2.6512380112e+01    0.3524067    0.1891106  70.64  0.001420249    2.195    0.544
        44  -9.2637    147.3739     43.5478   6.0227495159e+01   4.3008618452e+01    0.2502428     0.203461  87.99 0.0005591741    1.422    0.297
        45 -11.4696     39.4124    177.7174   1.2040840093e+02   3.3187818771e+01    0.6418954    0.2426456 -70.10  0.002392738    2.293    0.564
        46 -13.3079     10.1572    206.7195   1.2834612648e+02   3.0069737125e+01    0.8245993    0.6951903 -63.75  0.003084206    1.608    0.378
        47 -15.3018     85.7693    245.1692   1.1741662578e+02   1.3719476119e+01     6.666543     1.995383  33.36   0.02212186    5.611    0.822
        48  -8.9747     99.6118    180.8047   1.0723752909e+02   2.4197541219e+01    0.2179059    0.1796808  37.76 0.0006447991    1.295    0.228
        49 -10.8435    193.3735    192.9270   8.8979804599e+01   4.6868602140e+00    0.6476269    0.4222529 -51.95  0.003237948    1.960    0.490
        50 -12.3682    192.4508     40.8029   5.1353151133e+01   3.1754171178e+01    0.7506763    0.5753309  79.02   0.00204287    1.304    0.233
