#   1 NUMBER                 Running object number                                     
#   2 MAG_AUTO               Kron-like elliptical aperture magnitude                    [mag]
#   3 X_IMAGE                Object position along x                                    [pixel]
#   4 Y_IMAGE                Object position along y                                    [pixel]
#   5 X_WORLD                Barycenter position along world x axis                     [deg]
#   6 Y_WORLD                Barycenter position along world y axis                     [deg]
#   7 A_WORLD                Profile RMS along major axis (world units)                 [deg]
#   8 B_WORLD                Profile RMS along minor axis (world units)                 [deg]
#   9 THETA_WORLD            Position angle (CCW/world-x)                               [deg]
#  10 FWHM_WORLD             FWHM assuming a gaussian core                              [deg]
#  11 ELONGATION             A_IMAGE/B_IMAGE                                           
#  12 ELLIPTICITY            1 - B_IMAGE/A_IMAGE                                       
         1 -12.6456     74.7688     50.4253   8.7490131213e+01   5.7947589686e+01     1.439935    0.8911014 -59.91  0.006465985    1.916    0.478
         2 -12.0161    124.6339     27.8204   6.3282472562e+01   5.0631977144e+01    0.8723847     0.714862   6.03  0.003049685    1.339    0.253
         3 -11.3143    119.2698     57.8764   7.6119322856e+01   4.7152552435e+01     1.913192     1.281177 -71.91  0.007817375    2.294    0.564
         4 -12.6449    119.9483     38.1633   6.8560377370e+01   5.0311304895e+01    0.8605015    0.5970542 -70.81  0.002775252    2.009    0.502
         5 -10.0723     60.3164     22.8930   8.1319234977e+01   6.5812879547e+01    0.6928982    0.2716133 -35.99  0.002210618    2.488    0.598
         6 -12.2279     60.3597     44.6460   9.0977926053e+01   6.1612777245e+01     1.067488    0.5803647 -48.44  0.004920263    1.695    0.410
         7 -11.4946     60.6572     35.7797   8.7221266999e+01   6.3361233065e+01    0.5578225    0.2409075 -41.58  0.002285181    2.165    0.538
         8 -11.0937    178.0620     21.5479   5.1922711760e+01   3.7297065639e+01    0.5911604     0.374025  41.07  0.001795868    1.758    0.431
         9 -11.7206     26.9321     27.8881   1.0051218104e+02   6.9616026749e+01    0.5429624    0.4823813  50.13  0.002920869    1.374    0.272
        10 -11.5561     19.9629     22.3089   1.0229629323e+02   7.1489968260e+01    0.6828055    0.2748726 -51.06  0.001804339    1.980    0.495
        11 -12.6640     16.7244     13.2060   1.0025750570e+02   7.3679524831e+01    0.7718912    0.5744276 -26.95  0.004886656    1.275    0.216
        12 -11.8524     22.7970     11.2264   9.5202988770e+01   7.3454323771e+01    0.7001494    0.4124294 -45.23   0.00389953    1.434    0.303
        13 -12.3813    104.5856     12.8889   6.1406545175e+01   5.7598173162e+01    0.6900865     0.480395 -35.27  0.003414629    1.452    0.311
        14 -12.6162    113.1446     25.0241   6.4802761902e+01   5.3917900191e+01    0.9550294    0.4678374  57.10  0.003088961    1.996    0.499
        15 -11.6805    155.1961     23.3348   5.5772338362e+01   4.3156150481e+01     1.480756    0.5960847  54.56  0.005521998    2.333    0.571
        16 -11.2212    165.2513     17.4928   5.2212448154e+01   4.1121689170e+01    0.4876492    0.3126676  33.53  0.001463645    1.818    0.450
        17 -11.5084    138.1290     21.9373   5.8167165963e+01   4.7861591900e+01     1.081682    0.4778593  56.85  0.003444027    2.110    0.526
        18 -12.1034    132.4446     14.9912   5.6419535081e+01   5.0167448328e+01     1.276174    0.6148812  79.28  0.002459142    2.663    0.624
        19  -9.7008    141.4649     12.3399   5.3800696432e+01   4.8042720546e+01    0.2439668    0.1981838  -5.25 0.0007855964    1.311    0.237
        20 -12.4906    163.7017     27.9665   5.6094154158e+01   4.0350511411e+01    0.5798158     0.410608  32.41 0.0005267932    1.605    0.377
        21 -11.0850    198.6674     28.6406   5.1694206842e+01   3.1233566772e+01    0.6817581     0.398283  -8.94  0.003005548    2.003    0.501
        22 -10.3717    146.7070     16.2329   5.4473825524e+01   4.6224427590e+01    0.6301837    0.3740926  52.34  0.002817583    1.639    0.390
        23 -10.2563     87.0526      7.3312   6.3302691059e+01   6.2486065033e+01    0.6071109    0.3846557  58.93   0.00295063    1.603    0.376
        24 -10.8040     91.1365     21.2827   6.9155548098e+01   5.9721573498e+01    0.6771786    0.5172226 -10.18  0.003483684    1.381    0.276
        25 -11.2449     85.9099     13.7479   6.7017067184e+01   6.1954635151e+01    0.4388825    0.3976479   3.51   0.00148131    1.052    0.049
        26  -9.9136     50.3161      6.6770   7.6780628475e+01   7.0226380838e+01    0.2126204    0.1650929  41.70 0.0004830974    1.377    0.274
        27 -12.2702     48.4939     13.0183   8.1472920340e+01   6.9541574951e+01    0.8071058    0.3827149  40.40   0.00370373    2.252    0.556
        28 -11.5118     35.6393     18.3651   9.1215515942e+01   7.0517294483e+01    0.5836412    0.2710228 -38.49  0.001872083    2.013    0.503
        29 -11.0199     32.7027     12.5534   8.9778080944e+01   7.1997668664e+01    0.2493738    0.2210436  70.62 0.0004605092    1.598    0.374
        30 -11.8235    233.9430      7.0263   4.2515700904e+01   2.4973484977e+01    0.8533796    0.4254692  89.72  0.004017967    2.317    0.568
        31 -12.2317    239.0364     15.8989   4.4471235204e+01   2.3012790325e+01    0.9932755    0.4843121  73.08  0.003055893    2.244    0.554
        32 -11.6827    245.8849      7.9604   4.2006734514e+01   2.2259795251e+01    0.5953773    0.3377895 -24.81  0.002914177    1.548    0.354
        33 -10.7986    242.0079      3.5117   4.1118424957e+01   2.3496631922e+01     0.405775     0.215447  77.99  0.002093729    2.045    0.511
        34 -11.1677    218.7678      3.3064   4.2530603208e+01   2.8822328239e+01     0.348003    0.2935973 -14.21  0.001021274    1.232    0.188
        35 -11.1836    223.6661      1.8911   4.1815911897e+01   2.7789929698e+01    0.5574433    0.2601558  85.09  0.002512044    2.357    0.576
        36 -10.3737    123.4090     20.2071   6.0382016772e+01   5.1930544224e+01    0.6366897    0.3273639  82.56  0.002255116    2.999    0.667
        37  -9.1959    120.0000     17.0527   5.9758069281e+01   5.3193181333e+01    0.3624413     0.211605 -23.06  0.001593823    1.737    0.424
        38 -10.4137     64.0525     10.6479   7.3102632024e+01   6.7056636752e+01    0.6132132    0.3426968  32.77  0.002567428    2.026    0.506
        39  -9.9738     62.9118      6.4915   7.1119871284e+01   6.7862453508e+01    0.3456335     0.234626   3.03  0.001161283    1.700    0.412
        40 -11.9620     68.4143     17.8437   7.5332977332e+01   6.5112675194e+01    0.5352647    0.4824833  48.03  0.002082815    1.221    0.181
        41 -10.6027    186.4321     15.0875   4.8849859475e+01   3.5787905151e+01    0.3173912    0.2840516  88.82 0.0005474005    1.121    0.108
        42 -11.6018    192.6662      7.2174   4.5751691810e+01   3.4933882748e+01    0.8589309    0.5021908  12.14  0.003701736    2.338    0.572
        43  -9.5775    191.5858     17.2042   4.8967081798e+01   3.4246101129e+01     0.317067     0.241726  13.27   0.00124832    1.540    0.351
        44 -10.2005    225.9878     15.4584   4.5327730608e+01   2.6003950148e+01    0.4324595    0.1563284 -29.39   0.00169773    2.261    0.558
        45 -11.3816    211.8871      9.7387   4.4854457720e+01   2.9895995687e+01    0.5142998    0.3182905   6.50  0.001392733    2.099    0.524
        46 -10.4913      5.1414      9.0582   1.0653637146e+02   7.5456785605e+01    0.5789875    0.1872306 -57.40  0.001922663    2.334    0.572
        47 -11.1244      3.2482      1.7673   1.0445770568e+02   7.7074969591e+01    0.3926413    0.1974211   4.16  0.002062181    2.536    0.606
        48  -9.8013    169.0658      9.9484   4.9101447411e+01   4.0864852080e+01    0.3544454    0.2241296  41.20  0.001637657    1.733    0.423
        49  -9.1708    163.2241     10.0046   4.9831266999e+01   4.2422387967e+01    0.2499741    0.2187863 -88.25   0.00109693    1.144    0.126
        50  -9.4687    163.3112      4.9491   4.8020585814e+01   4.2869143116e+01    0.6570519    0.4451027  85.80  0.003193057    1.525    0.344
        51  -9.7223    161.0677      1.0000   4.6861410801e+01   4.3815628263e+01    0.6510221    0.1080284  62.40  0.001890743    4.056    0.753
        52 -10.0213    151.9485      7.4798   5.0373840731e+01   4.5698318837e+01     0.482745    0.2312916  63.88  0.001269738    1.942    0.485
        53 -10.2556    184.7461      6.1915   4.6171217812e+01   3.7074644990e+01    0.5173728    0.1780111 -30.99  0.001367898    2.498    0.600
        54 -10.6494     82.1854      1.3350   6.1434576194e+01   6.4285134180e+01    0.2295541    0.1237846  58.96 0.0003304182    1.840    0.457
        55  -9.1943     78.4839      7.4967   6.6040557459e+01   6.4426084802e+01    0.2388864    0.2091586  45.06 0.0007587756    1.153    0.133
        56 -11.1658     75.2781      3.4278   6.4783228882e+01   6.5624942527e+01    0.6053622    0.3710133  51.50  0.002698162    1.595    0.373
        57 -11.0703     40.9615      5.3635   8.0727859624e+01   7.2013086873e+01    0.4575865    0.2483758 -18.05  0.002062377    2.378    0.579
        58  -9.4814      1.2697      7.3653   1.0873882732e+02   7.6050392251e+01    0.1879642   0.08548323 -61.35 0.0001984281    1.801    0.445
        59 -10.3265    175.6777      5.5056   4.6854179156e+01   3.9519420330e+01    0.4623917    0.3151518 -85.96  0.001783087    1.545    0.353
        60  -9.0952    169.8509      3.2608   4.6702446600e+01   4.1267168999e+01    0.2977146    0.1430124 -55.27   0.00117683    2.335    0.572
        61  -9.3295    202.8299      5.6352   4.4393842472e+01   3.2504712128e+01    0.3060483    0.1394863  73.47  0.001309622    2.209    0.547
        62 -11.1317    205.7755      2.4187   4.3215470528e+01   3.2056096884e+01    0.5035535    0.2646891 -86.67  0.001920855    2.113    0.527
        63  -9.4333    122.8478      1.3398   5.2291640282e+01   5.4071181810e+01    0.4134258    0.1239594  68.12  0.001356305    3.133    0.681
        64  -9.8023    117.0208      2.6750   5.3938009826e+01   5.5485939208e+01    0.3793738    0.2951897   8.70  0.001764472    1.368    0.269
        65 -10.1881    111.7025      2.2772   5.4780847952e+01   5.6907026778e+01    0.5056406    0.2618339  75.45  0.002094017    2.163    0.538
        66 -10.7481    105.2944      1.7574   5.5855602761e+01   5.8600066968e+01    0.5301363    0.3352374 -75.57 0.0009943892    2.205    0.547
        67 -10.9231    142.5036      2.8796   4.9894752932e+01   4.8667689321e+01    0.3848991    0.3273786  45.70  0.001250989    1.169    0.145
        68 -11.8020    133.5292      2.7426   5.1157962100e+01   5.1096876852e+01    0.4477216     0.303028  63.18  0.001096618    1.399    0.285
        69  -9.8282     13.4465      1.7315   9.6309166997e+01   7.6233022173e+01    0.2377767    0.1848567  -4.13  0.001082857    1.324    0.245
        70 -10.6749    249.5538    142.5856   7.3362099097e+01   6.5018279272e+00    0.5243084    0.2004543 -26.26  0.002446286    2.389    0.581
        71 -11.8414      3.7359    147.4814   1.2803474032e+02   4.3739528917e+01    0.6258114    0.4022404  84.38   0.00389312    1.269    0.212
        72 -10.6810     32.9797    144.1946   1.2041698430e+02   4.1932253201e+01    0.2756388    0.2142086  65.07 0.0007613892    1.098    0.089
        73 -10.1623    133.4169    140.3167   9.4433472101e+01   2.8063414386e+01    0.3254621    0.2541757  26.52 0.0009182435    1.356    0.263
        74 -12.3052     23.5146    135.8594   1.2220282895e+02   4.4671150354e+01    0.8042773    0.3886855  46.26  0.002577809    1.852    0.460
        75 -12.1661     29.9212    132.8940   1.2020065144e+02   4.4745006050e+01    0.4295117    0.2735983  81.47 0.0003139557    1.435    0.303
        76 -10.5042     80.4295    136.4548   1.0692294168e+02   3.7785810001e+01    0.4172349    0.3348723   4.56  0.001661228    1.741    0.426
        77  -9.1691     44.0052    133.0501   1.1633846151e+02   4.3260162524e+01    0.2030516    0.1252078  64.59  0.000567545    1.583    0.368
        78  -8.9880    216.6045    135.2191   7.6889760175e+01   1.3069558127e+01    0.1759669     0.113388 -15.19 0.0005041627    1.570    0.363
        79 -10.5824     92.6681    129.2421   1.0244901605e+02   3.7458504744e+01    0.3665075    0.2688953  77.17  0.001410249    1.570    0.363
        80 -10.2634     47.4325    135.4079   1.1567240904e+02   4.2344170318e+01     0.425588    0.1930241 -64.85   0.00168756    2.059    0.514
        81 -10.0830    107.6114    145.9478   1.0158472800e+02   3.1502322785e+01    0.2497937    0.1833928  43.59 0.0004687437    1.257    0.204
        82 -10.3864     73.8252    132.7714   1.0811614236e+02   3.9553212975e+01    0.2825886    0.2274931  31.76  0.001652166    1.355    0.262
        83 -10.0807     62.2047    132.0255   1.1118321321e+02   4.1302757488e+01     0.342779    0.3097436 -30.81  0.002162253    1.404    0.288
        84 -10.3833     82.4971    125.1962   1.0448120281e+02   3.9954419878e+01    0.4910206    0.3367855  22.81  0.001698861    1.834    0.455
        85  -8.8390    223.8674    126.8420   7.3904874455e+01   1.2842078009e+01     0.168334    0.1450031 -35.20 0.0003992082    1.316    0.240
        86 -10.5618     18.6336    123.9801   1.2255674685e+02   4.7775882797e+01    0.3389366    0.1662509 -71.87  0.001801059    1.775    0.437
        87 -10.8149     55.8932    123.3100   1.1171228228e+02   4.4089639550e+01    0.4918442    0.3640838  10.27  0.002116706    1.878    0.468
        88 -11.2632     33.5166    119.5464   1.1777814073e+02   4.7456860633e+01    0.8496383    0.2857076 -57.00  0.003400169    2.824    0.646
        89 -11.7929      9.6274     97.3484   1.2289678474e+02   5.4661401125e+01     1.124144    0.5107966  83.23  0.005353187    2.207    0.547
        90 -12.0029      7.0542     88.7547   1.2291499557e+02   5.6866988040e+01     1.107752    0.5820583   7.50  0.005782861    2.625    0.619
        91 -10.6396     17.3814    100.9007   1.2069986224e+02   5.3264498610e+01    0.3652992    0.2654803  33.67  0.001096336    1.518    0.341
        92 -11.2416     36.4848     92.6640   1.1308941331e+02   5.3540843382e+01     1.457406    0.7785164  70.95  0.002019021    2.419    0.587
        93 -12.2486     22.4473     94.9500   1.1828425721e+02   5.4282474386e+01    0.7313239    0.5059977 -10.73  0.002658335    2.083    0.520
        94 -12.2382     18.3471     90.2089   1.1909598196e+02   5.5745124489e+01    0.4791267    0.3378328 -43.23 0.0004639642    1.600    0.375
        95 -11.9209      2.4631    112.1321   1.2637121616e+02   5.1666734924e+01    0.8821553    0.2842877  87.94  0.003627564    3.059    0.673
        96 -11.9387      3.9522    105.6465   1.2544889279e+02   5.3075150757e+01    0.8403442    0.3707897  81.65  0.004122361    2.139    0.533
        97 -11.2563     28.3362    113.1431   1.1860180452e+02   4.9446792473e+01     0.410165    0.2782133  11.03  0.002324406    1.996    0.499
        98 -11.9293     43.3444     85.2197   1.0929738097e+02   5.4595297157e+01    0.5657957    0.4450012  13.28  0.002084476    1.585    0.369
        99 -11.0598     37.4596     85.9175   1.1156324379e+02   5.5064929456e+01     0.360914    0.2485754  53.66  0.001349561    1.547    0.354
       100 -13.1145     23.7885    110.2001   1.1967609128e+02   5.0543180036e+01       1.8776    0.9804839 -40.43  0.009012184    2.644    0.622
       101 -12.2181     18.7674    106.2217   1.2082607352e+02   5.1896264751e+01    0.2591522    0.2254065 -74.96 0.0002768907    1.138    0.121
       102 -11.7430    104.4367    121.8918   9.7898466392e+01   3.7047410936e+01    0.4388835    0.4158565 -75.45  0.001205476    1.063    0.060
       103  -9.6838     67.5683    124.0763   1.0848053262e+02   4.2383369166e+01    0.3473852    0.2050018  13.47  0.001487658    2.904    0.656
       104  -9.0627    138.6656    122.6392   8.9507566788e+01   3.0427498348e+01    0.1493026    0.1124288   2.34 0.0007038823    1.811    0.448
       105  -9.4235     22.8124    126.8263   1.2162001777e+02   4.6771500192e+01    0.1969429    0.1307572  51.53 0.0002339082    1.396    0.284
       106  -9.3925    148.1062    119.9213   8.6717285065e+01   2.9037019985e+01    0.2273117    0.1736332   3.24 0.0006521088    1.683    0.406
       107  -9.6066    185.3947    118.8250   7.8729862252e+01   2.1528376234e+01    0.2011091    0.1291018 -20.80 0.0009514152    1.712    0.416
       108  -9.0510     81.5519    117.4703   1.0332786131e+02   4.1831576993e+01    0.2214267    0.1320056 -62.45 0.0006243428    1.674    0.403
       109  -9.2132     79.3747    114.2276   1.0333400018e+02   4.2903177249e+01    0.2728171    0.1877063 -60.01  0.001411678    1.419    0.295
       110 -10.7620     46.4151    121.0599   1.1415946877e+02   4.5737989019e+01    0.5761441    0.3228827  68.96  0.002252826    2.007    0.502
       111 -10.1653    113.2560    116.0027   9.4315360233e+01   3.6688694143e+01    0.2492138    0.2048048  35.40 0.0003028326    1.249    0.199
       112 -10.7563    108.0627    112.5827   9.4927740684e+01   3.8380005600e+01    0.7309311    0.4772346 -76.53  0.003214172    2.157    0.536
       113 -10.9397    101.4089    109.6037   9.6075352352e+01   4.0239131614e+01    0.9889354    0.4340672  28.95  0.003262685    3.689    0.729
       114  -9.4576    103.1416    106.1328   9.4794226668e+01   4.0677281083e+01    0.2750246    0.2299968  66.00 0.0004456776    1.255    0.203
       115  -9.7320     67.4990    114.0160   1.0679725714e+02   4.4701464940e+01    0.3414359    0.2232024  81.62  0.001667792    1.839    0.456
       116  -9.8205     67.0156    110.5221   1.0630957359e+02   4.5579094287e+01    0.3178488    0.2097898  35.55   0.00132662    1.587    0.370
       117  -9.6903     49.0585    112.2334   1.1209763385e+02   4.7495365301e+01    0.2657691    0.1943057  46.82  0.001038942    1.362    0.266
       118 -11.1669    170.8078    110.2583   7.9526234436e+01   2.5989668731e+01    0.4943351    0.3843272  25.12  0.001734113    1.360    0.264
       119  -9.4803     82.1077    102.7100   1.0013824914e+02   4.5095130917e+01    0.2338906     0.204503  47.54 0.0004502768    1.161    0.139
       120 -10.7454     90.6985    103.1925   9.7679632882e+01   4.3547356834e+01    0.4221348    0.3866158  44.39  0.001671059    1.123    0.110
       121 -11.3107     79.3147    108.1784   1.0214469018e+02   4.4291681982e+01    0.6587293    0.4126829  44.71  0.002455093    1.591    0.372
       122 -10.2295     85.5868    104.1600   9.9412952045e+01   4.4194537040e+01    0.3475949    0.2362834 -45.84 0.0009480412    1.538    0.350
       123  -9.7648    120.1365    109.3287   9.0982903537e+01   3.6753396327e+01    0.2506958    0.1976366 -35.17 0.0007456403    1.377    0.274
       124  -9.5317     58.3657    108.2117   1.0855394963e+02   4.7289904548e+01    0.2265283    0.1524531 -77.04 0.0003465693    1.463    0.317
       125 -10.6883    157.5591    106.4012   8.1343007358e+01   2.9512800677e+01    0.4064648    0.2923951  -2.57  0.001443044    1.870    0.465
       126  -9.7070    141.0639     95.9842   8.2364709363e+01   3.5032544557e+01     0.651972    0.2030561  45.77  0.002069524    3.189    0.686
       127  -9.4538    138.1379     93.3023   8.2334791418e+01   3.6186010059e+01    0.3639853    0.2306334  26.56  0.001357508    2.103    0.524
       128 -10.6810    143.3349    106.1238   8.4477283278e+01   3.2618238325e+01    0.3690691    0.2241463  42.20  0.001213742    1.636    0.389
       129 -11.7833    145.4686    100.4178   8.2511991900e+01   3.3234091663e+01    0.5814082    0.4813747 -19.69  0.001160028    1.319    0.242
       130 -10.2392     48.4149     90.2587   1.0849430964e+02   5.2797794391e+01    0.3541169    0.1791877 -57.46  0.001656816    1.771    0.435
       131 -10.7971     51.8693     97.1941   1.0864879965e+02   5.0721839704e+01     1.086874    0.2765608 -64.16  0.003570081    3.641    0.725
       132  -9.0161     45.6728    105.7020   1.1214293515e+02   4.9430772962e+01     0.201707    0.1691931 -70.07 0.0004642201    1.113    0.102
       133  -9.2114     47.7181    103.3040   1.1109427050e+02   4.9765102779e+01    0.1739978    0.1491062 -40.28  0.000241678    1.354    0.262
       134 -10.0825     57.5779    102.6695   1.0780282853e+02   4.8698547626e+01    0.3615714    0.2183549 -62.66  0.001452883    1.530    0.346
       135 -10.5067     57.7929     97.7447   1.0679234289e+02   4.9835692366e+01    0.3854632    0.3055511  39.49  0.001993428    1.335    0.251
       136 -10.1212     61.0000    100.9788   1.0638178099e+02   4.8643431689e+01     0.304952    0.2107604 -85.04 0.0009054737    1.558    0.358
       137 -10.1558     64.3202     99.1712   1.0495166489e+02   4.8611409447e+01    0.2393143    0.2383755  55.72 0.0005961296    1.142    0.124
       138 -10.3861     68.6448     95.3725   1.0274623238e+02   4.8879233545e+01    0.3974898    0.3663858  17.30   0.00175368    1.261    0.207
       139 -11.1003     90.0558     89.1975   9.4441260458e+01   4.6789601682e+01    0.7672048     0.420445 -33.75  0.002813035    2.520    0.603
       140  -9.7167     66.2214     74.1478   9.8345663655e+01   5.4176835412e+01    0.2310625    0.2017128  70.03 0.0005948986    1.239    0.193
       141 -10.0573     60.4671     83.3639   1.0276577606e+02   5.2873332902e+01    0.3346467     0.297427  -1.57  0.001952462    1.363    0.266
       142 -10.4599     58.1494     78.0028   1.0228879841e+02   5.4455785223e+01    0.3274737    0.2746839 -82.69 0.0008297611    1.208    0.173
       143 -12.9978     52.6234     73.8382   1.0329668897e+02   5.6178391017e+01    0.5601032    0.3136444 -65.72  0.001025969    1.739    0.425
       144 -10.6291     47.0041     74.5019   1.0560058337e+02   5.6729341482e+01    0.3695072    0.2189797 -66.34  0.001822636    1.573    0.364
       145 -10.9236     79.7315     83.2971   9.6174396091e+01   4.9912859349e+01    0.7463966    0.5247726 -64.79  0.003703369    1.468    0.319
       146 -10.5759     67.1811     81.8876   1.0005380983e+02   5.2242513189e+01    0.5957064    0.3636615 -49.43  0.002753508    1.566    0.362
       147 -11.4536     73.6647     77.8267   9.6735298268e+01   5.2160681321e+01     1.141492    0.6209476 -33.18  0.004524061    2.622    0.619
       148 -12.0237     77.9439     97.0663   1.0015466452e+02   4.7057979120e+01    0.3783217    0.3162494 -87.06 0.0003895634    1.241    0.194
       149 -11.0439     80.8168     93.0571   9.8305517960e+01   4.7510349663e+01     0.819602    0.3107925  43.66  0.003061248    2.691    0.628
       150  -9.8910    210.4377     97.8860   6.9269818450e+01   1.9432331066e+01    0.2617361    0.2444641  44.37  0.001007964    1.176    0.150
       151  -9.7273    159.6260     93.1734   7.7421117957e+01   3.1398915011e+01     0.418428    0.2498094  72.75  0.001576295    2.773    0.639
       152 -10.6531    152.7515     91.5590   7.8472060959e+01   3.3242639309e+01    0.5299435    0.3754376  51.06  0.002534134    1.420    0.296
       153 -11.9909    121.8918     91.1990   8.5856703354e+01   4.0108048557e+01     1.373728     1.001688  67.82  0.006445487    1.662    0.398
       154 -10.2472    105.0467     76.5744   8.6308479990e+01   4.6627449100e+01    0.4621921    0.4310685  86.21   0.00253951    1.136    0.119
       155 -11.2756    113.6275     83.9888   8.6056161704e+01   4.3316598890e+01     0.492449    0.3289536 -42.13  0.001490578    1.493    0.330
       156  -8.8475    211.4878     88.4546   6.6725821369e+01   2.0526258494e+01    0.1397124    0.1269427  -6.90 0.0001567248    1.018    0.018
       157 -10.3992    183.6720     85.7722   7.0655477663e+01   2.7121400476e+01    0.6995924    0.3068878 -47.61  0.002512708    2.802    0.643
       158 -12.8917    101.8586     90.1807   9.1151903394e+01   4.4376916346e+01    0.4695705    0.3977646 -26.94 0.0005652435    1.328    0.247
       159 -10.4089    165.6596     83.5200   7.3475921079e+01   3.1663927381e+01    0.4112883    0.3322474 -63.13  0.001438184    1.463    0.317
       160 -11.1780    143.0836     83.8970   7.8497879846e+01   3.6840903995e+01    0.3954828    0.3229167 -60.37  0.001245746    1.371    0.271
       161 -10.5896    127.4159     82.7659   8.2007391429e+01   4.0590493774e+01    0.4101402    0.2876698 -49.49  0.001336007    1.466    0.318
       162  -9.6295    126.8663     77.0929   8.0442629958e+01   4.1811596074e+01    0.3046401    0.2284415 -34.51 0.0007334178    1.354    0.262
       163 -11.1652    109.1109     80.6677   8.6358219726e+01   4.4941149237e+01    0.4153385    0.3457067  -8.86  0.001382971    1.464    0.317
       164 -10.3704    232.7749     77.5778   6.0978534723e+01   1.7461387194e+01    0.4158848    0.1900209 -31.53  0.001861672    1.893    0.472
       165 -11.8408     14.0430     74.7644   1.1856905518e+02   5.9772012317e+01    0.5153396    0.4116244 -58.50  0.002032744    1.185    0.156
       166 -10.1348     14.4460     67.3130   1.1723364457e+02   6.1537005459e+01    0.3059556    0.2674912 -71.21  0.001500118    1.058    0.055
       167  -9.4624    170.4637     77.7937   7.0881032359e+01   3.1472879631e+01    0.2649083    0.2113248  53.51 0.0006994907    1.282    0.220
       168 -10.1780     85.5553     67.5479   8.9612183779e+01   5.2362208765e+01    0.4960353    0.3521843  84.51  0.001227729    2.147    0.534
       169 -10.2295    142.6741    249.1665   1.0773543148e+02   9.8926872735e+00    0.1933225    0.1070963  42.59  0.001141532    1.361    0.265
       170 -10.2806     98.9481     61.7354   8.3337777812e+01   5.0918780163e+01    0.4417007    0.2884367 -19.45  0.001581868    2.133    0.531
       171 -10.4431     93.7855     76.4870   8.9711042989e+01   4.8884304911e+01    0.5490864    0.3457302  31.96  0.001556187    1.866    0.464
       172 -11.6091     85.4940     73.5785   9.1508758451e+01   5.1067542609e+01    0.6849822    0.5044974  45.77   0.00254106    1.417    0.294
       173 -10.8358     79.1529     67.3769   9.1745889487e+01   5.3563016528e+01    0.5645278    0.4407323  85.10  0.002560853    1.653    0.395
       174 -11.0487     91.3285     63.1314   8.6243242602e+01   5.2183427123e+01    0.4509619    0.3462789  51.05 0.0008961987    1.377    0.274
       175 -11.6427     89.3975     57.4559   8.4908080456e+01   5.3727208173e+01    0.6374365    0.6208303  86.41  0.002906312    1.087    0.080
       176  -8.9943     33.1870     77.8088   1.1162595234e+02   5.7449697253e+01    0.1832929    0.1412329 -43.69   0.00106945    1.366    0.268
       177 -10.3181     53.4161     49.4023   9.5677636244e+01   6.1653556739e+01    0.5177137    0.3633348  83.89   0.00244755    2.248    0.555
       178 -11.9332     22.6161     47.1441   1.0919929570e+02   6.5705702180e+01    0.6430309    0.4835116   3.82  0.002341633    1.618    0.382
       179 -10.7433     34.0668     42.2348   1.0207571748e+02   6.5710538683e+01    0.5960653    0.2862446 -44.71  0.002244209    1.914    0.477
       180 -12.4699     43.3762     46.5810   9.9144489870e+01   6.3636924022e+01    0.8317035    0.6500184  82.02  0.001851217    1.667    0.400
       181 -11.7976      2.0061     71.4724   1.2290822237e+02   6.1272281267e+01     0.624604    0.1627121 -73.89  0.002482661    2.893    0.654
       182 -12.6503      6.5354     62.5624   1.1983657724e+02   6.3164125354e+01    0.7560425    0.4785932 -37.03  0.004394725    1.753    0.430
       183 -11.3712     40.1427     56.3988   1.0367809983e+02   6.1795347973e+01    0.5894735    0.4020422  70.07  0.001824102    1.982    0.495
       184 -11.4861     33.0189     58.7876   1.0744689188e+02   6.2008711423e+01    0.6258001    0.3538813   2.53 0.0003193619    2.819    0.645
       185 -12.0326     25.1653     54.4210   1.0987181206e+02   6.3781304345e+01     1.007859    0.6256929   8.23  0.005332499    2.109    0.526
       186 -11.6187     50.8161     61.0748   1.0052956496e+02   5.9389690358e+01    0.4629367    0.3440858  89.55 0.0009041108    1.672    0.402
       187 -11.4130     46.1038     58.1650   1.0163046686e+02   6.0668624051e+01    0.5596875    0.3021187 -53.35   0.00134022    1.624    0.384
       188  -9.9024    135.8078     77.6110   7.8361277903e+01   3.9676281782e+01    0.5005812     0.147165  51.57  0.001498963    3.472    0.712
       189  -9.3913    242.4065     76.1981   5.9446567288e+01   1.5674705849e+01    0.1972824    0.1027989 -35.26  0.000951297    1.692    0.409
       190 -12.0085    186.5422     70.6071   6.5897876098e+01   2.8750849754e+01    0.8725336    0.6123869 -30.03  0.003220678    1.362    0.266
       191  -9.9827    184.2339     61.5129   6.3621860053e+01   3.0629442086e+01    0.3247915    0.2561863 -25.66 0.0007170848    1.228    0.186
       192  -8.9717    246.4703     90.4458   6.2364544674e+01   1.3174453067e+01    0.1295319    0.1106692 -15.87 7.759051e-05    1.022    0.021
       193 -11.7400     40.8684     70.6562   1.0708579854e+02   5.8359166253e+01    0.5384933      0.28031 -55.40   0.00258788    1.675    0.403
       194 -11.3837     32.3309     71.9953   1.1079158415e+02   5.8931608210e+01    0.5547879    0.3049988  28.82   0.00250264    2.040    0.510
       195  -9.3650    151.7945     73.4477   7.3409568568e+01   3.6658218894e+01    0.3630296    0.1225185  45.72  0.001146074    3.109    0.678
       196 -10.3313    128.5273     64.9138   7.6126638088e+01   4.3708156201e+01    0.6941446    0.4758792 -64.01  0.003004846    1.907    0.476
       197  -9.9538    123.4704     72.9670   8.0042064846e+01   4.3369075215e+01    0.3417641    0.2954878 -84.97 0.0009570947    1.344    0.256
       198 -11.3276    123.9411     68.4847   7.8479469635e+01   4.4113263318e+01    0.7765437    0.3910238  50.36    0.0030799    2.006    0.502
       199 -10.9786    120.2990     68.6756   7.9506056150e+01   4.4906290813e+01    0.3991419    0.3183927  88.25 0.0009864511    1.596    0.373
       200  -9.5059    205.3260     72.6566   6.3489826304e+01   2.4076225711e+01     0.149523    0.1046785 -58.01 0.0007050866    1.739    0.425
       201  -8.3494     69.4718     72.5033   9.6714286531e+01   5.4045960037e+01    0.1413273    0.1315375 -62.76 0.0002688225    1.013    0.013
       202  -8.8741     61.0585     72.7964   9.9862513498e+01   5.5258021056e+01    0.1731906    0.1112305  37.09 0.0004240336    1.676    0.403
       203  -9.6938    162.3397     70.7870   7.0399537648e+01   3.4559568460e+01    0.2887481    0.2365432 -75.61   0.00126859    1.479    0.324
       204 -10.6756    171.6941     66.7829   6.7387639475e+01   3.2914189535e+01    0.6228102    0.3377863 -39.77    0.0026098    1.798    0.444
       205 -11.4559    219.8958     66.4069   5.9769729030e+01   2.1627676960e+01    0.6467376    0.3720317  53.85  0.002454783    1.839    0.456
       206  -9.2547    208.0999     68.4689   6.1942234171e+01   2.4012238875e+01    0.2069256    0.1396895  56.69  0.001023208    1.573    0.364
       207 -10.4092     21.4185     65.6212   1.1399392192e+02   6.1428128984e+01    0.3228321    0.2071615  70.74  0.001009602    1.814    0.449
       208 -10.5016     25.9159     65.3568   1.1203800574e+02   6.1116031228e+01    0.2234844    0.1840281 -67.27 0.0003849071    1.037    0.036
       209  -9.9029    192.6134     65.6733   6.3489959312e+01   2.8015035207e+01    0.2735366    0.2384412 -60.36 0.0007564386    1.252    0.201
       210  -9.3923    198.2034     63.0589   6.1884102732e+01   2.7048998806e+01    0.2916173     0.178843 -44.85  0.001178103    1.661    0.398
       211  -9.9979    106.5937     63.5433   8.1645371740e+01   4.8935414655e+01    0.3917277    0.2752514 -30.74  0.001826765    1.511    0.338
       212 -10.6446    159.4387     61.7550   6.8169442773e+01   3.6720848857e+01     0.579143     0.395556  20.93  0.002509615    1.920    0.479
       213 -11.1637    157.5843     55.4614   6.6501830619e+01   3.8164710166e+01    0.5699052    0.5272202 -70.80  0.002607195    1.151    0.131
       214 -10.8363    155.2639     49.4796   6.4961993465e+01   3.9657121538e+01    0.4970596    0.3234871 -15.69 0.0006937734    1.759    0.432
       215  -9.0360    213.3213    248.3485   9.6202459209e+01   8.3757877166e-01    0.1058371   0.05858193  14.62  0.000704897    1.740    0.425
       216  -9.5525    175.0354    246.4927   1.0205941244e+02   5.9410234985e+00    0.1680182     0.075798  37.02 0.0007525355    1.602    0.376
       217 -11.3709    113.5223     49.4916   7.4625997241e+01   4.9988115638e+01    0.5922359    0.3933561  30.75  0.001962104    1.811    0.448
       218 -12.9072    116.7442     41.9858   7.0882608252e+01   5.0488631529e+01     1.108169     0.793418 -85.07  0.004876593    2.012    0.503
       219 -11.0313    127.8345    242.4934   1.0963769454e+02   1.2647155700e+01    0.3185376    0.1539912 -62.82  0.001891117    3.279    0.695
       220 -11.0538    138.4735     32.9019   6.2344932713e+01   4.6365529050e+01    0.5907746      0.48755 -64.81  0.002100202    1.346    0.257
       221 -11.2400    140.1179     43.1816   6.5824633754e+01   4.4469622285e+01     0.878613    0.4767046  36.98  0.002635358    2.238    0.553
       222 -10.7805    136.4446     56.5858   7.1389012241e+01   4.3259471557e+01     1.017982    0.5940358  27.43  0.003831516    2.524    0.604
       223 -10.6181    134.2302     50.1422   6.9641796545e+01   4.4869295601e+01    0.4851404     0.329506 -62.90  0.002014936    1.898    0.473
       224 -10.7041    146.1606     43.1478   6.4562031520e+01   4.2925532886e+01    0.4204619    0.2836808  57.75   0.00038431    1.479    0.324
       225 -10.2919    104.5349     57.6597   8.0203356385e+01   5.0523352866e+01    0.4632352    0.3084106  27.06  0.001971102    1.922    0.480
       226  -9.4905      1.9500     56.4540   1.2094413263e+02   6.4854900002e+01    0.1856073    0.1352368 -74.13 0.0005263273    1.108    0.098
       227  -9.7009    188.0434     55.3226   6.1167739565e+01   3.0562306188e+01    0.2711794    0.2211059  50.20  0.000917519    1.267    0.211
       228  -9.9848     66.9990     54.6225   9.1972426679e+01   5.8414103355e+01    0.3353923    0.1925919 -60.06   0.00106292    1.939    0.484
       229 -10.7295    231.0427     38.8142   5.1148976669e+01   2.2429360396e+01    0.5724228    0.2941804 -59.94  0.001763537    2.478    0.597
       230 -10.0226    234.8338     45.5236   5.2533173655e+01   2.0846076157e+01    0.3394366    0.1836068 -52.89  0.001039114    2.058    0.514
       231  -9.2571    237.7990     54.5604   5.4555830631e+01   1.9177677923e+01    0.2653261    0.1623498 -40.66  0.001027756    1.503    0.334
       232 -10.8784    244.7063     50.9930   5.2940464168e+01   1.8132592595e+01    0.5896345    0.3123562 -80.91  0.002429766    3.405    0.706
       233 -10.9631    240.3562     50.2630   5.3192706134e+01   1.9126238165e+01    0.3352471    0.2862232 -27.78 0.0005283849    1.020    0.020
       234 -10.3736     68.2242     32.8696   8.2790233021e+01   6.2580290914e+01    0.5261729    0.3061731  39.86  0.002431317    1.831    0.454
       235  -9.3943    199.0222    244.5477   9.7961560430e+01   3.0048684277e+00    0.1646637   0.07503574  36.63  0.001036018    1.619    0.382
       236  -9.8891    131.0423    240.4972   1.0888680173e+02   1.2477471748e+01    0.1696996   0.07961656  37.05  0.001027034    1.581    0.368
       237 -11.4564     47.7425     30.8016   9.0890671472e+01   6.6387095353e+01    0.6926893    0.2929851  33.22  0.002656033    2.735    0.634
       238  -9.4825     68.0144    240.4986   1.2002002772e+02   2.0337446065e+01    0.1577718   0.07675919  37.89 0.0007688099    1.568    0.362
       239 -11.5151     56.8110     31.2636   8.6895576931e+01   6.4880136426e+01    0.3817253    0.3411426 -22.30  0.001626781    1.052    0.049
       240 -11.0941     58.0616     62.3177   9.7993516543e+01   5.8097837059e+01    0.7213463    0.5858381  72.91  0.003982004    1.466    0.318
       241 -10.0962    211.0285     53.1276   5.7304163514e+01   2.5326525935e+01      0.35875    0.2359744  75.27   0.00101119    1.799    0.444
       242 -11.1997    201.6701     46.9400   5.6751006845e+01   2.8327996205e+01    0.8833001    0.4618518 -46.21  0.003783045    1.962    0.490
       243 -10.8281    174.2270     48.0902   6.1128052228e+01   3.5014069188e+01    0.5483056    0.4335459 -80.22  0.002370808    1.478    0.323
       244  -9.8179    176.4984     43.7108   5.9364828038e+01   3.5026137828e+01    0.3225209    0.2441123  82.89  0.001259164    1.493    0.330
       245  -9.6114    147.2422     60.8938   7.0416244904e+01   3.9882425516e+01    0.3564776    0.2008717  53.75  0.001254823    1.773    0.436
       246 -10.2298     90.8669     47.6138   8.0742779115e+01   5.5356896141e+01    0.3243377    0.2440071 -44.57 0.0007764883    1.298    0.230
       247  -9.6536      2.4630     48.7105   1.1944946805e+02   6.6664510035e+01    0.2374407    0.2051765  15.09  0.001653157    1.419    0.295
       248  -8.8174      4.8969     43.7794   1.1729974696e+02   6.7703659694e+01     0.470558    0.2249278 -25.98  0.002268397    2.699    0.629
       249  -8.5067      4.3204     39.6496   1.1672805312e+02   6.8697447491e+01    0.2407971    0.1302142  60.29  0.001108104    2.452    0.592
       250 -10.4234    162.5532     43.9871   6.1766512774e+01   3.8574721273e+01    0.3196373     0.257929  85.36  0.001592334    1.386    0.278
       251  -9.5836    208.7482     46.8452   5.5821433129e+01   2.6640781912e+01    0.2972031    0.2119604 -64.44  0.001411468    1.621    0.383
       252  -9.4854    193.3357     45.7183   5.7511940137e+01   3.0523981415e+01    0.3017149    0.1820003 -71.97  0.001243169    2.348    0.574
       253 -10.0694     14.6283     45.6863   1.1278781282e+02   6.6665148165e+01    0.3795319    0.1652156 -35.44  0.001664049    2.779    0.640
       254  -9.9630     17.6383     42.0432   1.1031473379e+02   6.7291292616e+01    0.4432572    0.2135662 -39.95  0.002134942    2.125    0.529
       255 -11.5361    146.0358     47.1836   6.6013635688e+01   4.2356932224e+01    0.9197609    0.3868125 -26.64  0.003231205    2.555    0.609
       256 -10.7397     97.8124     41.6268   7.6123789826e+01   5.4952508757e+01    0.7105031    0.4458955  87.43  0.002098781    3.486    0.713
       257 -10.7915     93.2483     41.4131   7.7477130375e+01   5.5991197259e+01    0.4864739    0.3551782  45.90  0.001888374    1.406    0.289
       258 -11.4703    156.0050     41.8853   6.2225881230e+01   4.0562180497e+01    0.4334708    0.3902396 -36.09 0.0009958361    1.095    0.087
       259 -11.0595    153.0276     36.0987   6.0738010321e+01   4.2130576305e+01    0.3362144    0.2890944 -59.64 0.0003949712    1.226    0.184
       260 -10.6082    189.1147     41.2295   5.6731859260e+01   3.2144047199e+01    0.5724984    0.2523036 -20.07   0.00104338    2.473    0.596
       261  -9.3585    193.5596     39.1117   5.5486809366e+01   3.1290941165e+01    0.2341018    0.1901883  49.25 0.0002895395    1.292    0.226
       262  -9.6779     86.4841     30.9546   7.5185504546e+01   5.9255246093e+01    0.5345187    0.2484904 -26.93  0.002022286    2.495    0.599
       263 -10.5596     80.4551     39.6922   8.1119039230e+01   5.8966090456e+01     0.574202    0.4026285  51.47  0.002851473    1.551    0.355
       264 -10.8357     77.6026     34.3308   7.9835324361e+01   6.0513553585e+01    0.4412101    0.2871556  48.79  0.001015194    1.636    0.389
       265 -10.5625     81.8864     31.7449   7.7127236164e+01   6.0095060408e+01    0.4485107    0.2983707 -57.31   0.00206382    1.916    0.478
       266  -9.2173    217.8193     38.8542   5.2522308904e+01   2.5444839369e+01    0.1990768    0.1491458 -50.80 0.0007695744    1.321    0.243
       267 -11.7510    176.6817     35.0480   5.6539202055e+01   3.6088632339e+01    0.9140497    0.7105897  78.43   0.00315674    1.371    0.271
       268 -10.9179    145.5273    236.6944   1.0596997618e+02   1.1010471817e+01    0.4614959    0.1800007  49.09  0.002325276    2.680    0.627
       269 -10.1446    176.7088     30.1404   5.4930485104e+01   3.6675604047e+01    0.3861101    0.1854192  52.72  0.001560823    2.077    0.518
       270 -11.5587    183.1437     25.0497   5.2426664610e+01   3.5587686967e+01    0.7297407    0.3397962  50.68  0.002943414    2.215    0.548
       271  -9.5509    133.2386     36.8612   6.4953544396e+01   4.7160211153e+01    0.4409709    0.2741315 -72.15  0.001708828    2.498    0.600
       272 -10.4056     22.6983     36.7942   1.0608380636e+02   6.8069255139e+01    0.3637561    0.2040527  38.99   0.00131505    2.091    0.522
       273  -9.8539    206.8635     36.9900   5.3219186800e+01   2.8266870469e+01    0.2263352    0.2107103  73.36  0.000737929    1.141    0.124
       274  -9.3770     94.2260     36.0955   7.4930803547e+01   5.6701121856e+01    0.2562463     0.191783  89.77 0.0007851153    1.950    0.487
       275  -9.5593      6.1148     35.9237   1.1488687604e+02   6.9465239200e+01    0.3078388    0.1778461  45.68  0.001465176    2.133    0.531
       276  -8.3166      6.7829     30.8041   1.1316550892e+02   7.0599639338e+01    0.6440227    0.3009782 -24.55  0.003026199    2.790    0.642
       277 -10.6114    198.3730    232.4776   9.6541448917e+01   4.2845436344e+00    0.3398897    0.2073309  30.75  0.002397706    1.212    0.175
       278  -9.5031     23.7245    231.7459   1.2740148741e+02   2.6336038374e+01    0.1437963   0.07564799  55.50  0.001042971    1.338    0.253
       279  -9.8018    247.3903    231.2694   8.8833811284e+01  -1.9140399737e+00    0.1160643   0.08384125 -17.79 0.0004824745    1.557    0.358
       280 -10.3398    242.3956    230.8696   8.9506948589e+01  -1.2688425676e+00    0.2162155    0.1018629  45.70  0.001247107    2.774    0.639
       281 -11.1467    240.7896     31.7457   4.8412715200e+01   2.1045497369e+01    0.6007394    0.3746541 -23.79  0.003214329    1.430    0.301
       282  -9.2832    108.0000    230.0111   1.1201697904e+02   1.6934493087e+01    0.1391043   0.06280096 -59.96 0.0005330647    2.891    0.654
       283 -11.8550    106.0186     20.1752   6.4442015856e+01   5.6333904306e+01    0.3471253    0.2609349 -29.18 0.0003810926    1.316    0.240
       284 -12.2005    105.6733     33.0295   7.0214928221e+01   5.4567869564e+01    0.6715759    0.3952328  18.17  0.002061234    2.820    0.645
       285  -9.7740     15.0443    233.5972   1.2897126826e+02   2.6855073683e+01    0.1770238    0.1180863  76.75  0.001081824    1.328    0.247
       286  -9.7500    248.8680     33.2953   4.8130957755e+01   1.9167960534e+01    0.2488696    0.1462168 -34.90   0.00133084    1.418    0.295
       287  -9.9055    234.1700    223.0379   8.9615794799e+01   4.5526680135e-01    0.1689496    0.1053623  14.80 0.0007156432    1.290    0.225
       288 -10.2726    165.5667    212.6489   9.9530854028e+01   1.1201347169e+01    0.2296613    0.1422361  47.20 0.0008817612    1.556    0.357
       289  -8.7123    160.6604    208.7387   9.9898313862e+01   1.2441881953e+01    0.1153972   0.07675776  18.83 0.0005479453    1.587    0.370
       290  -9.6466    153.0393    207.8521   1.0118776372e+02   1.3702549458e+01    0.1785192    0.1368899  49.32  0.001011233    1.303    0.232
       291  -9.4161     61.0359    206.9757   1.1908919886e+02   2.6473141924e+01    0.1714871    0.1248263  55.84 0.0004584924    1.064    0.060
       292  -9.4787    238.5092    204.4149   8.6140192471e+01   1.6230549635e+00     0.205027   0.09599116 -25.95  0.001217528    2.190    0.543
       293  -8.4817    196.3161    205.3051   9.3088354527e+01   7.5412570178e+00    0.1171668   0.07374397  14.21 0.0004445021    1.625    0.384
       294  -9.8499      4.4005    204.5909   1.3002563643e+02   3.2596582928e+01    0.1838563    0.1021582 -85.05  0.001302688    1.721    0.419
       295 -10.5750    189.3262     28.4234   5.2731234638e+01   3.3618197957e+01    0.5326018    0.3133793 -14.03  0.001948331    1.860    0.462
       296 -10.7964     14.0405     23.5180   1.0642013157e+02   7.1734279978e+01    0.6645249    0.3493403  40.42  0.002608157    2.374    0.579
       297  -9.7466    221.5769     29.4142   4.9526512690e+01   2.5609961529e+01    0.2390714    0.2035303 -29.29  0.000561466    1.077    0.072
       298  -9.1386    216.5584     32.0742   5.0762486235e+01   2.6499993797e+01    0.2073224    0.1264774 -23.75 0.0004973573    1.531    0.347
       299  -9.5474     99.2249     30.1884   7.0830592471e+01   5.6523542058e+01    0.3216445    0.2157129  79.55  0.001389356    2.172    0.540
       300  -9.2327     97.5420     26.5067   6.9674427891e+01   5.7475618743e+01    0.2465041    0.2103937 -46.39 0.0007384866    1.238    0.192
       301  -8.6265    234.6586     29.2675   4.8295936269e+01   2.2647465470e+01    0.1369534   0.08775733 -55.98 0.0003091256    1.602    0.376
       302 -10.1568    230.7024     27.4589   4.8161952964e+01   2.3721601856e+01    0.4126926    0.1933593 -31.19  0.001645393    1.795    0.443
       303  -9.4452     41.1762     28.1183   9.2946355387e+01   6.7855436664e+01    0.3630942    0.1346848 -37.95  0.001322039    3.027    0.670
       304  -8.9612     66.5465     28.0927   8.1250308825e+01   6.3758535149e+01    0.3915497    0.1916327  26.30  0.001381492    3.536    0.717
       305 -10.0313    250.3995     26.6730   4.6363200434e+01   1.9520112480e+01    0.2497954     0.142631 -27.95 0.0005820675    1.470    0.320
       306 -10.7444    214.4561     23.4633   4.8540659723e+01   2.7921182552e+01    0.4663377    0.3354982  -2.40  0.002242084    1.572    0.364
       307  -9.8293    161.5779     23.3056   5.4780963773e+01   4.1459817616e+01    0.2620158    0.1942856 -26.33 0.0002667588    1.336    0.252
       308 -10.7149    245.4905    200.8259   8.4517718702e+01   1.0226490551e+00       0.1961    0.1240325  28.74 0.0006791349    1.299    0.230
       309  -8.7156    207.4677    201.4707   9.0621767874e+01   6.3327618632e+00     0.115911    0.0886839  19.62 0.0008090333    1.013    0.013
       310 -10.1511     83.3680     19.3237   7.0676713048e+01   6.1751062114e+01    0.7193529    0.3525597  56.46   0.00301449    2.193    0.544
       311  -8.6456      1.3128    200.2957   1.3049083106e+02   3.3610137622e+01    0.0830368   0.07545465 -63.13 0.0003045112    1.598    0.374
       312  -9.5433    223.0413     22.3619   4.7453412721e+01   2.6004136309e+01    0.2234503    0.2046503 -38.77 0.0004619086    1.023    0.022
       313  -8.8945    220.7441     19.3138   4.6812141894e+01   2.6849721704e+01    0.1779346    0.1660409 -71.55 0.0001584666    1.094    0.086
       314 -10.2487    234.4710    196.9585   8.5563200220e+01   2.9180453951e+00     0.340822    0.2049032  14.90  0.001797975    1.496    0.331
       315 -10.3651     47.1769     18.8672   8.5361118766e+01   6.8743752399e+01    0.3360118    0.3130418  10.34   0.00141165    1.134    0.118
       316 -12.3190      4.7275    184.4589   1.2931763884e+02   3.6233215568e+01    0.7476918    0.4062759  80.52  0.005006783    1.539    0.350
       317 -10.1802     38.8241     21.6386   9.1120781008e+01   6.9457428737e+01    0.3113758    0.1930726 -35.71  0.001363369    1.494    0.331
       318  -8.5352    141.3000    194.6858   1.0166351521e+02   1.7399892169e+01    0.1167592   0.08572659  61.96 0.0003353771    1.610    0.379
       319  -9.9235    169.8224    191.3706   9.5706551370e+01   1.3391025793e+01    0.3201379    0.1501058  30.42  0.001127149    2.122    0.529
       320 -10.4392    242.1505     22.1026   4.5834139841e+01   2.1729154258e+01    0.4074042    0.1692073  64.42  0.001845919    2.555    0.609
       321  -9.9308    239.8856    184.6358   8.2667807106e+01   3.4093069979e+00    0.1887003    0.1287784  -2.18 0.0006193474    1.286    0.222
       322 -10.1328    213.6663    180.9519   8.6215755934e+01   7.7669473433e+00    0.2691145    0.1558528  12.55  0.001452236    1.974    0.493
       323  -9.5328    250.1084    179.5283   8.0248915570e+01   2.4667423086e+00    0.2372608    0.1236183  -8.49  0.001333133    2.016    0.504
       324  -9.5596     27.9571    176.3035   1.2396840607e+02   3.5735826304e+01    0.2098097    0.1504566 -82.71  0.001464436    1.354    0.261
       325  -9.9229     51.8992    173.5613   1.1838991635e+02   3.3734272553e+01    0.3304434    0.1547967  88.70  0.001608028    2.569    0.611
       326  -8.6433     83.7235    196.0073   1.1353875942e+02   2.5551133664e+01    0.1266716   0.09928006 -79.24 0.0004668032    1.416    0.294
       327  -8.9602    230.4495    175.4893   8.2526954153e+01   5.7972461528e+00    0.1193956   0.09294024  10.54 7.566733e-05    1.018    0.017
       328  -8.9448     57.3053    174.9711   1.1728669094e+02   3.2820168357e+01    0.1604426    0.1333198  69.63 0.0004252104    1.053    0.050
       329  -9.7939    247.2720    174.0340   7.9691451831e+01   3.4375355043e+00    0.3451657    0.1152967  28.96  0.001356016    3.923    0.745
       330 -10.5812     35.6621    170.6162   1.2186250912e+02   3.6098023935e+01    0.4059987    0.1968053  71.85  0.002166268    2.063    0.515
       331 -10.3964     74.0898     19.6963   7.4128928776e+01   6.3675633898e+01    0.2932307    0.2319739  35.64 0.0008346937    1.282    0.220
       332 -11.7770      9.6647    167.0809   1.2755833047e+02   3.9218679774e+01    0.5043677     0.336054 -85.84  0.002685798    1.356    0.262
       333 -10.5302    210.9085     18.9281   4.7576169230e+01   2.9242291268e+01    0.3691431    0.2148983  54.30 0.0005262591    1.828    0.453
       334 -10.9225     13.9418    158.8457   1.2616197633e+02   4.0545815773e+01    0.3663552    0.1995781 -86.12   0.00164255    1.620    0.383
       335  -8.9100    197.9888    168.0072   8.6613466816e+01   1.1950913956e+01    0.1508276    0.1287368   6.52  0.000608812    1.070    0.066
       336  -9.5603    194.5197     18.4992   4.9059207569e+01   3.3364983074e+01    0.2514734    0.2178712 -77.75 0.0007038668    1.167    0.143
       337 -10.0960    188.6446    164.6738   8.7692376904e+01   1.4007280912e+01    0.3917461    0.2126577 -18.42   0.00182752    2.506    0.601
       338  -8.9680     46.9575    166.4705   1.1891960516e+02   3.5725110875e+01    0.1770455   0.06638018  52.14 0.0004756685    2.400    0.583
       339  -9.3238    205.2723     17.4152   4.7661603391e+01   3.0776854847e+01    0.2495088    0.1280165  67.54  0.001074692    1.977    0.494
       340  -8.9779    120.2790     20.6546   6.1250838457e+01   5.2682502617e+01    0.1542043    0.1435456  25.43 0.0002627922    1.067    0.063
       341  -9.5121    219.8693     12.7311   4.5060710069e+01   2.7698292055e+01    0.3177486    0.1463737  66.15  0.001424241    2.217    0.549
       342 -10.3029     18.7174    165.0956   1.2539650862e+02   3.8845622513e+01    0.2452458     0.204596  17.34  0.001784057    1.592    0.372
       343  -8.7933     94.4450     12.4649   6.3851434023e+01   6.0123579360e+01    0.1426605    0.1330297  14.54 0.0002156574    1.018    0.018
       344  -9.5513     40.4810    163.3021   1.2018060228e+02   3.7085047926e+01     0.357085     0.110613 -76.86  0.001480762    3.379    0.704
       345 -10.3926     28.5415    161.6321   1.2288454233e+02   3.8646078461e+01    0.4101736    0.1565186 -68.52  0.002053532    2.466    0.595
       346  -9.8325    204.9844    162.9948   8.4453045201e+01   1.1430349250e+01    0.2403634    0.1590132  30.50  0.000611687    1.351    0.260
       347  -9.4341     79.2911    160.4003   1.1058283455e+02   3.2899843892e+01    0.2182662     0.141569  82.73  0.001173535    1.783    0.439
       348  -9.5987    215.2684    158.3623   8.1814404063e+01   1.0285672054e+01    0.2289312    0.1379413 -16.45 0.0009796664    1.743    0.426
       349  -9.2851    223.9885    156.7068   8.0059511568e+01   9.0299584103e+00    0.1760981    0.1399163  19.09 0.0005645301    1.087    0.080
       350 -10.4129    104.9234    154.4644   1.0361818704e+02   3.0243008175e+01    0.3735679    0.3285438 -70.60  0.002338083    1.215    0.177
       351 -10.1237      8.9208    156.2071   1.2721063552e+02   4.1506146375e+01    0.2480834    0.1357116 -75.92  0.001520681    1.685    0.407
       352 -12.3393     22.6121    149.5435   1.2347957676e+02   4.1754080870e+01    0.5709372    0.3778014 -48.93  0.001696703    1.956    0.489
       353 -11.1005     10.5441    127.5101   1.2510462788e+02   4.7609388064e+01    0.5183697    0.2619704 -68.65  0.002576387    1.785    0.440
       354 -10.5660     15.5738    147.7950   1.2512093457e+02   4.2742414780e+01    0.3303386    0.1990272  47.37  0.001122315    1.458    0.314
       355 -11.7911     12.5379    139.4713   1.2536728609e+02   4.4796806220e+01    0.8929177    0.4164031  78.69  0.004694116    1.988    0.497
       356 -10.7762     31.4338    152.9503   1.2154012938e+02   4.0190758152e+01    0.4520273    0.2647775  88.43  0.002646976    1.578    0.366
       357  -9.2395     74.7108    153.3484   1.1079974377e+02   3.4988986604e+01    0.2730051     0.174666  62.36  0.001311371    1.564    0.360
       358  -9.8745     70.7523    151.5859   1.1155981042e+02   3.5898335582e+01    0.2660389    0.1482966  55.08 0.0008970273    1.735    0.424
       359  -8.9413    141.3015    153.3038   9.5112651337e+01   2.4247027469e+01    0.1311289     0.102059   6.60 0.0002738185    1.592    0.372
       360  -9.5152     47.7650    151.9496   1.1737411013e+02   3.8673406001e+01    0.2539033    0.1955136  31.15 0.0009442427    1.434    0.303
       361 -11.1305     47.1092    146.7815   1.1701391645e+02   3.9864265038e+01    0.4714679    0.3938433 -77.12  0.003137282    1.199    0.166
       362 -10.9486      5.3779    141.9026   1.2734589831e+02   4.4814490429e+01    0.2982553    0.2387031  42.21  0.002166365    1.315    0.240
       363 -12.4647      4.0006    137.0711   1.2744285196e+02   4.5964024684e+01    0.3080455    0.2050692 -71.20 0.0003938524    1.449    0.310
       364  -9.7961    214.6788    151.1066   8.0490317506e+01   1.1319102038e+01    0.2295705    0.2069044  28.65 0.0008690964    1.223    0.182
       365 -11.1883     62.9094    150.0708   1.1334701755e+02   3.7249358884e+01    0.4164641    0.3492949  39.80  0.001726241    1.237    0.191
       366  -9.7021    239.8399    146.6985   7.5611319947e+01   7.6069386219e+00    0.2056842    0.1446592  -6.88 0.0006378916    1.273    0.214
