#   1 NUMBER                 Running object number                                     
#   2 MAG_AUTO               Kron-like elliptical aperture magnitude                    [mag]
#   3 X_IMAGE                Object position along x                                    [pixel]
#   4 Y_IMAGE                Object position along y                                    [pixel]
#   5 X_WORLD                Barycenter position along world x axis                     [deg]
#   6 Y_WORLD                Barycenter position along world y axis                     [deg]
#   7 A_WORLD                Profile RMS along major axis (world units)                 [deg]
#   8 B_WORLD                Profile RMS along minor axis (world units)                 [deg]
#   9 THETA_WORLD            Position angle (CCW/world-x)                               [deg]
#  10 FWHM_WORLD             FWHM assuming a gaussian core                              [deg]
#  11 ELONGATION             A_IMAGE/B_IMAGE                                           
#  12 ELLIPTICITY            1 - B_IMAGE/A_IMAGE                                       
         1 -12.6131    185.7706     36.9145   5.8012473427e+01   3.4365196942e+01     1.366446     0.978965  26.71  0.004535962    1.645    0.392
         2 -12.1779    208.5075      4.8948   4.5245105361e+01   3.2116818860e+01     0.981029    0.6582829  72.23  0.004460806    1.401    0.286
         3 -10.7541    177.8946    217.1392   1.0186126187e+02   5.8052230732e+00    0.3755847    0.1892778  32.66  0.001833908    2.201    0.546
         4 -11.0651    139.7889    248.4671   1.1213415324e+02   7.7898622185e+00    0.4051423    0.2809035 -59.31  0.002911927    1.853    0.460
         5 -11.1059    126.3549    246.3763   1.1406998857e+02   1.0142582420e+01    0.4809366    0.3586479 -81.48  0.003588535    1.560    0.359
         6 -19.5758     26.6249    150.7198   1.2275846232e+02   4.0618171936e+01     17.35964     2.616414 -72.55    0.0533238    6.141    0.837
         7  -9.2639    190.9978    191.1393   9.5395893261e+01   7.2040277875e+00    0.3933596    0.2425532 -74.43  0.001518436    4.244    0.764
         8  -8.7787    149.4172    189.2106   1.0291104114e+02   1.5284776621e+01    0.2515085    0.1838412  83.18  0.001393584    1.691    0.409
         9  -8.4622    135.0000    199.4612   1.0713135623e+02   1.6066743185e+01    0.2478741   0.07115776 -53.16 0.0009408244    3.984    0.749
        10 -10.2577     96.1318    188.5747   1.1307397542e+02   2.4350752460e+01    0.3540611    0.2132034  73.58  0.001273243    1.769    0.435
        11  -8.7889     52.9108    181.4913   1.2050234780e+02   3.1577646917e+01    0.1841515     0.163865 -65.64 0.0007817941    1.482    0.325
        12  -9.0339     99.3193    180.9077   1.1149811617e+02   2.5334805704e+01    0.2180379    0.1660535  46.69 0.0006003929    1.323    0.244
        13  -8.0021    149.3665    180.1629   1.0148326410e+02   1.6885535342e+01    0.1783834    0.1224748 -66.16 0.0006635895    1.738    0.425
        14 -11.0719    104.5001    172.0583   1.0925855674e+02   2.6257975462e+01    0.5326601    0.2800091  51.20  0.002693001    1.761    0.432
        15  -8.7675    164.4673    170.7750   9.6872473255e+01   1.5675331635e+01    0.2222274    0.1810291 -72.37  0.000745024    1.449    0.310
        16  -9.3597    123.9789    171.1934   1.0514492517e+02   2.3158390745e+01    0.1844911    0.1614556  68.65 0.0005462156    1.008    0.008
        17  -8.8303    110.5175    168.4882   1.0750036259e+02   2.5987710867e+01    0.1306937    0.1136653  75.55 7.768843e-05    1.002    0.002
        18  -7.8518    139.4428    167.4619   1.0135623581e+02   2.1083711959e+01    0.1355138    0.1211133  67.26 6.705462e-05    1.022    0.022
        19  -9.5883    156.6689    217.9305   1.0569968384e+02   9.3747998425e+00    0.2246915     0.144921  52.00 0.0004119511    1.291    0.226
        20  -9.1907    193.0910    165.1053   9.0185012142e+01   1.0906512349e+01    0.2440018    0.2290463 -35.58  0.001228099    1.169    0.145
        21 -10.1526     93.5217    160.0959   1.0982206736e+02   3.0414194267e+01    0.2596738    0.2082056 -65.18 0.0005051093    1.245    0.197
        22  -9.1910    131.0536    214.0381   1.0973509384e+02   1.4296761081e+01    0.1788995    0.1444254  60.45  0.000299434    1.017    0.017
        23 -11.1726     99.0578    152.9748   1.0754167249e+02   3.1037069954e+01    0.5569496    0.4222776 -30.28  0.003027512    1.986    0.496
        24 -10.5842     62.3402    155.0666   1.1577704566e+02   3.5813252434e+01    0.3422686    0.2499766  37.03  0.002161884    1.640    0.390
        25 -11.0103    112.9152    196.1031   1.1082349570e+02   2.0333896162e+01    0.6348884    0.4341489   3.31  0.002530073    5.074    0.803
        26  -9.9245    134.5037    148.4821   9.8972532583e+01   2.5755018201e+01    0.5334834    0.1382939 -52.99  0.001597756    4.361    0.771
        27  -9.1351    113.0162    151.0280   1.0415339827e+02   2.9131136766e+01    0.2312219    0.1569153  83.29  0.001148312    1.792    0.442
        28  -8.3660    143.6695    147.6537   9.6817611136e+01   2.4145326358e+01    0.1413604    0.1144129   0.78 0.0007049883    1.759    0.431
        29  -9.0846     84.0873    142.5369   1.0922544941e+02   3.5552700618e+01    0.2531794    0.1720609  65.08  0.001319444    1.515    0.340
        30 -10.5744    109.1349    138.8868   1.0285500493e+02   3.2362866851e+01    0.4335663    0.2717664 -38.00  0.002045624    2.080    0.519
        31 -10.8689     97.9795    138.6018   1.0537718150e+02   3.4275926699e+01    0.2644637     0.239131 -77.03  0.000463382    1.067    0.063
        32  -9.2478     78.4788    134.9408   1.0929915430e+02   3.8009747777e+01    0.2455015    0.1614857  60.19 0.0008908496    1.591    0.371
        33 -10.3488    115.8876    129.6987   9.9492655735e+01   3.3144243229e+01    0.3560715    0.2587457 -34.52  0.001344838    1.698    0.411
        34  -9.8212    103.7860    125.6884   1.0157271383e+02   3.6126179920e+01    0.2806592    0.2436175 -13.72 0.0007102631    1.540    0.351
        35  -8.8658    160.6551    127.3122   8.8739523333e+01   2.4669277583e+01    0.1535026     0.117783  89.00 0.0007046409    1.708    0.415
        36  -9.0077    135.4686    126.4771   9.4224613364e+01   3.0100983193e+01    0.2715428    0.1346039 -58.95  0.001035524    2.441    0.590
        37  -9.8759    105.9189    130.7870   1.0206812259e+02   3.4656453409e+01    0.3387708    0.2909654 -83.74  0.001246923    1.115    0.103
        38  -8.8474    110.9814    118.9234   9.8407150905e+01   3.6349958272e+01    0.2112155     0.197366 -70.39  0.000501456    1.028    0.027
        39 -10.5057    107.7577    203.4394   1.1266384706e+02   1.9837575321e+01    0.2438356     0.192345  47.48 0.0002702129    1.274    0.215
        40  -8.4177    167.9836    112.9560   8.3665287911e+01   2.5844218142e+01    0.2514856    0.1900239 -78.89  0.001131728    1.784    0.439
        41 -11.3000     66.3824    106.9365   1.0734563575e+02   4.5831596611e+01    0.8080404    0.2182063 -48.91  0.002794149    3.656    0.727
        42 -10.7369    103.0303    201.5120   1.1330453579e+02   2.0911692567e+01    0.3234099     0.200644  63.43  0.001773794    1.454    0.312
        43  -9.8754    115.0009    110.8091   9.5583946862e+01   3.7375374506e+01    0.3602247    0.2451822  -8.27  0.001455763    2.881    0.653
        44  -9.4312     87.2257    202.8671   1.1631720390e+02   2.3010240364e+01    0.3482507     0.173494 -65.01  0.001963637    2.061    0.515
        45  -8.6298    205.5220    110.0579   7.5285426954e+01   1.7614237401e+01    0.2335902    0.2054627  45.31 0.0006271668    1.134    0.118
        46 -10.0545     94.8437    200.1942   1.1465286155e+02   2.2385201986e+01    0.3060816    0.2052648  69.69  0.000911492    1.332    0.249
        47 -10.2843     99.4571    196.6849   1.1340640807e+02   2.2333118497e+01    0.2593347    0.2138865 -46.06  0.001166912    1.690    0.408
        48 -10.1470    167.3621     67.3082   7.1012196586e+01   3.4449784896e+01    0.6476256    0.3756723 -79.08  0.001858655    4.632    0.784
        49 -11.5325    171.3370     51.0822   6.5122540078e+01   3.6080305571e+01    0.5554007    0.4748751 -30.99  0.001050885    1.174    0.148
        50  -8.0874    168.9943    234.9047   1.0578856389e+02   4.9040896428e+00    0.1305846    0.1134566  48.58 0.0005791289    1.124    0.111
        51 -11.5119    190.2071     30.3773   5.5264120425e+01   3.4050388939e+01    0.6165277    0.4789838  52.62  0.001237756    1.254    0.203
        52  -9.0488    114.4692    206.5004   1.1180352209e+02   1.8246095467e+01    0.1213584   0.09758863  64.83  0.000316216    1.005    0.005
        53  -9.3878    189.8412     14.8564   5.0523868720e+01   3.5977250463e+01    0.2290804    0.1907336  41.62 0.0006556023    1.231    0.188
