#   1 NUMBER                 Running object number                                     
#   2 MAG_AUTO               Kron-like elliptical aperture magnitude                    [mag]
#   3 X_IMAGE                Object position along x                                    [pixel]
#   4 Y_IMAGE                Object position along y                                    [pixel]
#   5 X_WORLD                Barycenter position along world x axis                     [deg]
#   6 Y_WORLD                Barycenter position along world y axis                     [deg]
#   7 A_WORLD                Profile RMS along major axis (world units)                 [deg]
#   8 B_WORLD                Profile RMS along minor axis (world units)                 [deg]
#   9 THETA_WORLD            Position angle (CCW/world-x)                               [deg]
#  10 FWHM_WORLD             FWHM assuming a gaussian core                              [deg]
#  11 ELONGATION             A_IMAGE/B_IMAGE                                           
#  12 ELLIPTICITY            1 - B_IMAGE/A_IMAGE                                       
         1 -13.1272    242.3812     11.7023   4.3169394451e+01   2.2675208611e+01     2.532497     1.336783 -43.35   0.01307495    1.623    0.384
         2  -9.1260    137.8993      5.0047   5.1419671862e+01   4.9717906851e+01    0.2087175    0.2070036  40.06 0.0003158173    1.024    0.023
         3  -9.8559    242.2977    247.1984   9.1740583262e+01  -2.5830261572e+00    0.1939476     0.129757   3.90 0.0007953127    1.257    0.205
         4  -9.9521    224.6635    249.4862   9.4627812951e+01  -6.5825584914e-01    0.1755627    0.1475763  -7.48  0.001222106    1.514    0.339
         5 -10.6716    209.8563    248.6028   9.6766360712e+01   1.2485498545e+00     0.309922     0.223262   8.18  0.002417164    1.256    0.204
         6 -10.6248    178.0309    237.2716   1.0048895272e+02   6.5267482962e+00      1.20012    0.6766259 -19.88  0.007487188    2.579    0.612
         7  99.0000    204.6727    233.4756   9.5657527932e+01   3.3420625421e+00    0.8106727    0.4529668 -38.19  0.005462608    2.382    0.580
         8 -13.7311     62.0041    243.9581   1.2127573152e+02   2.0512278568e+01     5.777013     1.657251  29.19   0.02235961    5.316    0.812
         9 -11.5304    176.0441    226.5790   9.9503952068e+01   7.9970856746e+00     2.517913     1.300977 -10.86   0.01095827    4.855    0.794
        10  -8.9772    216.2967    232.1034   9.3637044690e+01   1.9420687123e+00    0.8227023    0.3840397  15.10   0.00433741    2.839    0.648
        11 -11.5821    149.8510    242.3880   1.0582790232e+02   9.7420726152e+00     3.221898     1.390356  23.34   0.01456511    3.717    0.731
        12 -11.5402    191.6967    226.1124   9.6801616456e+01   5.8649558440e+00     3.912316     1.365288 -26.92   0.01619155    5.428    0.816
        13 -12.3925    123.3507    238.8731   1.1008152243e+02   1.3702757506e+01      6.60738     3.085701  18.30    0.0201139    9.118    0.890
        14 -11.0977    215.6012    222.6936   9.2445403178e+01   2.9432092252e+00     1.311251    0.7522566  16.59  0.008555193    1.624    0.384
        15 -15.1862    242.4638    145.2791   7.4935391011e+01   7.3425296090e+00     5.629375     3.153262 -17.87   0.03109472    1.682    0.405
        16 -10.8815     26.3962    240.1612   1.2724244601e+02   2.4780720185e+01    0.4290324     0.297635  28.36  0.003292155    1.673    0.402
        17 -11.1898     13.1409    240.2352   1.2948707505e+02   2.6005714937e+01    0.5746639    0.1969023  33.86  0.003527753    2.337    0.572
        18  -9.6034    214.2140    240.1069   9.5020190387e+01   1.4670567827e+00    0.1848048    0.1378958   1.40 0.0007748663    1.287    0.223
        19  -9.3621    219.6372    239.2859   9.4076582263e+01   8.5061127764e-01    0.1680693     0.131199   8.06 0.0007266788    1.212    0.175
        20  -9.6683      4.5120    235.5555   1.3081677123e+02   2.7483861415e+01    0.2902165    0.1457378  27.05  0.001904812    2.221    0.550
        21 -10.3936     36.2189    231.2472   1.2517253701e+02   2.5184789589e+01    0.3426069    0.2671913 -10.02  0.002522099    2.477    0.596
        22 -10.7834     56.9901    230.8133   1.2141238425e+02   2.3040993576e+01    0.4793913    0.2899815  22.62  0.003113991    2.156    0.536
        23 -10.2437     11.6554    231.6165   1.2949715331e+02   2.7471560705e+01    0.2972189    0.1495267  25.03  0.001945928    2.404    0.584
        24  -9.8006     45.7005    229.5802   1.2339046641e+02   2.4462214131e+01    0.3049417    0.1812919  27.73  0.001779218    1.862    0.463
        25  -9.5656     93.3952    228.0722   1.1453382709e+02   1.9105753899e+01    0.2865094    0.2139885  16.03   0.00182773    1.773    0.436
        26  -9.4661     79.5290    228.5957   1.1713682810e+02   2.0753357898e+01    0.2851588    0.1842039  25.10  0.001522269    1.791    0.442
        27 -10.4079     70.0985    227.5506   1.1880393313e+02   2.2043791589e+01    0.4222908    0.2034683  29.97  0.002465308    2.113    0.527
        28  -9.0300     30.3298    228.8694   1.2612098477e+02   2.6150117350e+01    0.1930222     0.118131  36.83  0.001434122    1.449    0.310
        29 -10.3842     21.3000    226.8439   1.2765297465e+02   2.7345196560e+01    0.3418923    0.2710692   0.59  0.002579816    2.215    0.548
        30  -9.4995      3.1852    227.4335   1.3085095101e+02   2.8874655567e+01    0.2329665    0.1396837  33.09  0.001796735    1.631    0.387
        31  -8.5883     90.0055    224.5141   1.1486799262e+02   2.0071427014e+01    0.2018549    0.1162445  29.27  0.001028207    1.760    0.432
        32  -9.2623     92.8420    221.4100   1.1407018155e+02   2.0182734183e+01    0.2000554    0.1580156  -1.73 0.0008390184    1.979    0.495
        33  -9.3136      9.3060    225.1832   1.2972375739e+02   2.8706369142e+01    0.2139153   0.08595906  44.21  0.001421755    1.673    0.402
        34  -9.7840     51.3979    222.4812   1.2195608701e+02   2.4979423841e+01    0.2905497     0.191701  29.41  0.001969955    1.627    0.385
        35  -9.1138    115.2695    221.6370   1.0986884451e+02   1.7166947322e+01     0.231379    0.1769751  10.01  0.001410376    1.729    0.422
        36  -9.2951     98.2305    222.3360   1.1313515205e+02   1.9341735624e+01    0.2356901    0.1801994  22.57  0.001675701    1.512    0.339
        37  -9.1881     83.6104    222.8203   1.1593072029e+02   2.1137133078e+01    0.2645345    0.1319314  33.33  0.001387239    1.792    0.442
        38  -8.4208     88.2347    219.7808   1.1480443615e+02   2.1026280610e+01    0.1577372    0.1288241   6.86 0.0007543372    1.748    0.428
        39  -8.9946     75.6229    222.2902   1.1739537479e+02   2.2204287162e+01    0.2312679    0.1372832  37.49  0.001541264    1.396    0.284
        40  -9.8733     41.1007    220.7153   1.2377850307e+02   2.6372516183e+01    0.3077935    0.2074891  19.58  0.001819148    2.039    0.509
        41  -9.0654     30.0929    222.0326   1.2587454281e+02   2.7277142210e+01    0.2359156    0.1034305  41.55  0.001517602    1.653    0.395
        42  -9.8332     16.0545    221.5445   1.2840823949e+02   2.8693470382e+01     0.227368    0.1721907   9.18  0.001733043    2.137    0.532
        43  -9.3834     60.6955    220.5563   1.2009198686e+02   2.4246396241e+01    0.2390929    0.1632449  34.48  0.001193895    1.404    0.288
        44  -9.0773    109.9047    218.9210   1.1060682936e+02   1.8298387176e+01    0.2617615    0.1371783  28.83  0.001470539    1.970    0.492
        45  -8.6700    136.3499    217.9245   1.0553606701e+02   1.4748771662e+01    0.2252908    0.1242383  26.18  0.001013633    1.920    0.479
        46  -9.0581    120.1073    217.1322   1.0849126321e+02   1.7157577825e+01    0.2210744    0.1704845  21.16 0.0009388255    1.424    0.298
        47  -8.8584    104.7404    218.3959   1.1153579211e+02   1.9075524413e+01    0.1947848     0.133289  18.01 0.0009443701    1.896    0.472
        48  -7.6826    107.3171    215.3325   1.1074197669e+02   1.9193546659e+01    0.1047985     0.083202   8.64  0.000444705    1.690    0.408
        49 -10.0152    171.1850    214.8384   9.8820210438e+01   1.0099042349e+01    0.3066806    0.2120737  -7.64   0.00179837    1.827    0.453
        50  -8.6805    124.5401    215.4948   1.0747471445e+02   1.6774449124e+01    0.2324458    0.1431295  29.13  0.001307286    1.549    0.355
        51  -9.3776     83.7359    215.2991   1.1528826821e+02   2.2308944012e+01    0.2623758    0.1767055  20.73  0.001669709    1.904    0.475
        52  -8.5063     72.7129    216.5576   1.1751717213e+02   2.3475136654e+01    0.1947586   0.09025587  33.93 0.0007453357    1.910    0.476
        53  -8.8109     68.8559    220.8232   1.1856701829e+02   2.3250382001e+01     0.255163    0.1301865  27.41  0.001197885    2.220    0.550
        54 -10.0470      9.8396    215.6753   1.2934724463e+02   3.0226498121e+01    0.2883466     0.160974  22.44  0.001916233    2.292    0.564
        55  -9.2700    144.1634    214.3290   1.0365935116e+02   1.4120299509e+01    0.3289477    0.1689828  26.23  0.001397503    2.139    0.532
        56  -8.3400     91.2198    215.5761   1.1386564460e+02   2.1302522887e+01     0.157236   0.09204586  30.16 0.0009499086    1.697    0.411
        57  -9.0252     32.2309    214.3112   1.2512642815e+02   2.8350248673e+01    0.2631211    0.1736764  24.40  0.001843564    1.850    0.459
        58  -9.0401    132.6502    213.6477   1.0573222414e+02   1.5884361852e+01    0.2676359    0.1507179  28.70  0.001209367    1.734    0.423
        59  -9.6624     64.4332    213.0224   1.1885810869e+02   2.5049164448e+01    0.3017363     0.187923  25.82  0.001913557    1.862    0.463
        60  -9.4356     97.6144    212.2521   1.1231661153e+02   2.0985439419e+01     0.222556    0.1528497   8.38  0.001298139    2.406    0.584
        61  -8.4486     75.0146    212.4499   1.1675023368e+02   2.3865782060e+01    0.1724348   0.08880036  37.39 0.0007030686    1.599    0.375
        62  -8.9307     42.0673    212.1823   1.2313865751e+02   2.7697530041e+01    0.1490742    0.1338789  44.17  0.001227726    1.346    0.257
        63  -8.6381    125.3738    210.8888   1.0679736936e+02   1.7334835894e+01    0.2186079    0.1313891  25.63 0.0008823129    1.790    0.441
        64  -9.7821    177.4796    208.8135   9.6876889620e+01   9.9190083150e+00    0.3359658    0.2121417  22.54  0.001149372    1.491    0.329
        65  -9.3849    183.3432    205.6986   9.5395213051e+01   9.4281095133e+00     0.288031    0.1647513  11.25  0.001099454    2.401    0.584
        66  -9.4867    187.1273    201.4897   9.4107451725e+01   9.3760721051e+00     0.271112    0.1886186  20.92  0.001042395    1.274    0.215
        67  -9.4934    161.7408    208.9417   9.9727926384e+01   1.2253345988e+01    0.2959778    0.1898008  15.78  0.001436509    1.814    0.449
        68  -8.2892    149.6897    210.4054   1.0214229501e+02   1.3849596972e+01    0.1586381   0.09041058  31.16 0.0008272501    1.538    0.350
        69  -8.6700    107.2035    209.9174   1.1021093349e+02   2.0048665654e+01    0.2046644    0.1359017  17.21  0.001208056    2.041    0.510
        70  -8.5773    118.0348    212.2434   1.0835857635e+02   1.8176368489e+01     0.234989    0.1297515  29.61  0.001054744    1.786    0.440
        71  -8.3149     25.6562    210.6594   1.2620807642e+02   2.9621068567e+01   0.08829761   0.07903618 -36.28 -0.0001180479    1.780    0.438
        72  -8.0319    140.4752    209.5411   1.0376056783e+02   1.5332599560e+01     0.116984   0.09263233  35.59 0.0002194123    1.030    0.029
        73  -8.0963    131.3990    208.7033   1.0538597168e+02   1.6786222557e+01    0.1361986    0.1084547 -30.96 0.0009340252    1.628    0.386
        74  -9.5775     52.4703    212.9461   1.2117516495e+02   2.6436100002e+01    0.1900155    0.1395427  26.86  0.001233965    1.589    0.371
        75  -8.4456     93.8877    208.6632   1.1270370843e+02   2.2060242199e+01     0.174035    0.1265095  25.66  0.001023853    1.524    0.344
        76  -8.0490    167.3421    207.9517   9.8573545778e+01   1.1544611735e+01    0.1551893    0.1289274  17.69  0.000693951    1.136    0.120
        77  -8.0372    171.3598    206.3850   9.7628908000e+01   1.1143766214e+01    0.2322871    0.1668283  14.17 0.0006753965    1.422    0.297
        78  -8.5985    173.1407    202.2264   9.6713161817e+01   1.1413269605e+01    0.2029759    0.1484252  20.95 0.0007949609    1.246    0.198
        79  -8.6668    146.4660    207.5004   1.0237254352e+02   1.4734020520e+01    0.2126422    0.1441255  10.46 0.0008183341    1.933    0.483
        80  -8.6353    150.3217    205.1903   1.0134477395e+02   1.4481393151e+01    0.2661932    0.1670962  20.80  0.001215417    1.782    0.439
        81  -8.2477    135.1869    208.1751   1.0459712636e+02   1.6308677201e+01    0.1557557    0.1156337  51.08 0.0006222821    1.272    0.214
        82  -8.1323     79.4720    208.5049   1.1554547900e+02   2.3962843827e+01    0.1967437   0.09928547  26.67  0.001031375    2.358    0.576
        83  -8.4932    114.9242    206.8005   1.0836280629e+02   1.9453316373e+01    0.1751117    0.1383153  24.56 0.0009532173    1.346    0.257
        84  -7.9467    138.4805    213.5130   1.0462012325e+02   1.5060377404e+01    0.1157793   0.09111629  35.20 0.0002033406    1.044    0.042
        85  -8.5257    127.0525    205.5968   1.0585323253e+02   1.7887048644e+01    0.2306353    0.1280925  28.50  0.001269664    1.839    0.456
        86  -8.3655    120.6484    206.1085   1.0716266704e+02   1.8740093365e+01    0.1534002    0.1362953  38.53 0.0007748773    1.124    0.110
        87  -8.4720    111.4892    213.1583   1.0971685914e+02   1.8952610494e+01    0.1972832     0.120027  20.28 0.0008018984    2.178    0.541
        88  -8.8243     48.1886    206.0176   1.2157645671e+02   2.8099269109e+01    0.1842413    0.1286687  25.88  0.001150406    1.684    0.406
        89  -9.2307    139.8961    203.4580   1.0310234570e+02   1.6300725784e+01    0.2466824    0.2012711 -14.08  0.001303476    1.548    0.354
        90  -8.2121    104.0127    205.4979   1.1037752709e+02   2.1194741215e+01    0.1542994   0.09451649  17.32 0.0008094441    2.454    0.592
        91  -9.1702    179.4621    202.3268   9.5590146621e+01   1.0436205193e+01    0.2445387    0.1583921  18.66  0.001007828    1.554    0.356
        92  -9.1837      8.5104    203.4957   1.2920921509e+02   3.2439147538e+01    0.1636914    0.0958268  17.32  0.001044309    2.464    0.594
        93  -8.6186     87.0551    204.7733   1.1369644846e+02   2.3608186291e+01    0.2069334    0.1463771  23.80  0.001329027    1.656    0.396
        94  -9.2505    165.5271    200.1062   9.7801859059e+01   1.2864462102e+01    0.2886363    0.1858829   8.77  0.001471325    2.049    0.512
        95  -7.8666    155.3305    200.2861   9.9734054614e+01   1.4410211931e+01    0.1179823   0.08196266  15.64 0.0002496027    1.616    0.381
        96  -8.0928    144.6896    200.6559   1.0181280158e+02   1.5986827874e+01    0.1170075   0.08522372   9.09 0.0007045333    1.701    0.412
        97  -8.6171    132.3276    200.1508   1.0414947923e+02   1.7934852766e+01    0.2145172    0.1380442  30.31  0.001272525    1.446    0.309
        98  -8.6838    156.6486    205.0860   1.0014621026e+02   1.3540051270e+01    0.2001825    0.1530952  15.37 0.0008829173    1.350    0.259
        99  -8.7158    186.0378    188.7357   9.2318168529e+01   1.1165694418e+01    0.2446157    0.1791549  14.09  0.001160631    1.314    0.239
       100  -9.3837    184.7586    194.4776   9.3455928597e+01   1.0622994741e+01    0.3188099    0.2232712   7.86   0.00120777    1.527    0.345
       101  -8.9337    177.2278    195.4982   9.4971718889e+01   1.1665334798e+01    0.3644092    0.1712745  27.31  0.001751535    2.320    0.569
       102  -7.9524    162.3336    197.3201   9.7994855517e+01   1.3742565318e+01     0.121432   0.08307046  12.74 0.0007049287    1.699    0.411
       103  -8.7795    170.4653    195.9426   9.6278611871e+01   1.2662828564e+01    0.2287333    0.1392578  25.46 0.0008476535    1.584    0.369
       104  -7.8435    157.3003    196.3069   9.8798598090e+01   1.4669975293e+01    0.1174996   0.08408941  12.39  0.000371897    1.596    0.373
       105  -8.4762    149.9157    196.4849   1.0023633684e+02   1.5794062858e+01    0.1898227   0.09931692  37.14 0.0008048872    1.585    0.369
       106  -8.1064    125.7536    196.2110   1.0495267870e+02   1.9538365848e+01    0.1917482   0.08353291  31.13 0.0005956053    2.416    0.586
       107  -8.1372     89.6566    195.7035   1.1227641672e+02   2.4809388544e+01    0.1076925   0.08941423   6.00 0.0007033088    1.667    0.400
       108  -8.1829    141.1330    195.5942   1.0182049076e+02   1.7287620229e+01    0.1734715   0.09765769  30.03 0.0009319892    1.716    0.417
       109  -7.9539    152.4374    192.4594   9.9176283638e+01   1.5991660180e+01    0.1217149    0.1001577  29.89 0.0002935526    1.055    0.052
       110  -8.6239    190.4865    190.0391   9.1733073740e+01   1.0293545653e+01    0.2275466     0.135695 -18.53   0.00105601    2.044    0.511
       111  -8.9713    193.9169    186.1018   9.0483434582e+01   1.0252871791e+01    0.2723914    0.1718621   8.73  0.001075975    1.855    0.461
       112  -8.4507    162.0594    190.5098   9.7039806480e+01   1.4748830512e+01    0.2085228    0.1580592  -8.74 0.0008297307    1.581    0.368
       113  -7.6794    146.3400    191.2939   1.0019787018e+02   1.7127898809e+01      0.12127   0.08686483  13.85 0.0007028937    1.653    0.395
       114  -8.8620    172.7873    189.0870   9.4800194020e+01   1.3234000547e+01    0.2043969    0.1513023  -0.60 0.0009512628    1.541    0.351
       115  -8.8891    179.3771    188.1104   9.3428062814e+01   1.2311759167e+01    0.2319968    0.1599669  14.74  0.001043174    1.515    0.340
       116  -7.6443    140.2858    189.3594   1.0112220670e+02   1.8380255295e+01    0.1186845   0.09012005   4.05 0.0003717462    1.680    0.405
       117  -8.2026    157.0403    186.4850   9.7394864273e+01   1.6142869845e+01    0.1737848   0.09476338  21.77 0.0008081439    2.415    0.586
       118  -7.5792    151.3233    185.3168   9.8337511393e+01   1.7242995592e+01    0.1235911   0.08926793  10.89 0.0004787533    1.667    0.400
       119  -8.1863    166.9416    184.0591   9.5109302468e+01   1.4890088473e+01    0.1949919    0.1341799  11.10  0.001032205    1.716    0.417
       120 -10.0019    203.7192    181.3750   8.7976244166e+01   9.2869138567e+00    0.3124317     0.242586   3.52  0.001204464    1.192    0.161
       121  -9.0151    197.6260    180.9148   8.8958168614e+01   1.0321628187e+01    0.2461036    0.1415042  25.85 0.0008155025    1.668    0.400
       122  -8.6610    190.1855    183.5693   9.0726935544e+01   1.1177802852e+01    0.1712176   0.09610016  29.41 0.0008782303    1.631    0.387
       123  -8.0533    173.7960    183.4855   9.3719997385e+01   1.3852178357e+01    0.1721616   0.09973776  28.95 0.0009208549    1.633    0.387
       124  -9.0972    184.2221    180.8486   9.1352169112e+01   1.2510369755e+01    0.2543355     0.174064  17.93   0.00102314    1.464    0.317
       125  -8.6084    177.0086    179.0437   9.2386046364e+01   1.3949733692e+01    0.2012816     0.135838  10.75  0.001123262    1.725    0.420
       126  -9.4680    192.5452    176.4321   8.9088517905e+01   1.1735526264e+01    0.3874489     0.177209  31.84  0.001838871    2.137    0.532
       127  -9.5002    198.1530    174.6613   8.7779536523e+01   1.1044160623e+01    0.2989537    0.1857023  19.62 0.0009553582    1.658    0.397
       128 -13.3420    223.9994    190.5111   8.6149288229e+01   5.1062952886e+00     2.582714     1.048197  21.90   0.01029214    3.930    0.746
       129  -7.8701    169.4889    176.4454   9.3378738527e+01   1.5579205909e+01      0.12813    0.1049269  22.53 0.0002256638    1.098    0.089
       130  -8.9482    182.7017    173.9873   9.0460913361e+01   1.3710727257e+01    0.2405363    0.1501429  24.67  0.001067972    1.594    0.373
       131  -9.0699    193.2353    171.3602   8.8070321742e+01   1.2300909538e+01    0.2531477    0.1712468   8.25   0.00103253    1.637    0.389
       132  -8.3812    187.8706    170.8391   8.8952494921e+01   1.3277271832e+01    0.1963829    0.1463732  15.68 0.0008007474    1.290    0.225
       133  -8.6049    201.1772    170.0637   8.6424426412e+01   1.1143824955e+01     0.207861    0.1528847 -13.20  0.001088869    1.375    0.273
       134  -9.4842    205.6282    167.1681   8.5118881493e+01   1.0777416628e+01    0.3225969    0.1992906  17.94  0.001144523    1.713    0.416
       135  -8.4637    197.5448    168.2309   8.6733298375e+01   1.1995956720e+01     0.164216    0.1105228 -13.31 0.0006351636    1.619    0.383
       136  -8.2329    179.4053    166.7530   8.9798295354e+01   1.5309588441e+01    0.1681448    0.1159874 -19.67 0.0006967312    1.641    0.391
       137  -9.0872    192.2423    163.2258   8.6764814590e+01   1.3587104777e+01    0.2788378    0.1940471  10.66  0.001574115    1.545    0.353
       138  -8.4748    185.5867    163.3320   8.8010920706e+01   1.4729990832e+01    0.2521054    0.1592224  12.14 0.0009929709    1.982    0.495
       139  -9.1809    199.8532    162.3517   8.5233065558e+01   1.2393087002e+01    0.2503884    0.1804975 -24.12  0.001500576    1.417    0.294
       140  -8.9096    197.7871    154.5012   8.4093810164e+01   1.3831354182e+01    0.2855857    0.1965615  15.36  0.001034986    1.518    0.341
       141  -8.7471    197.2919    148.1319   8.2915319094e+01   1.4817196667e+01    0.2485767    0.1761608   3.83 0.0008398453    1.545    0.353
       142  -8.2016    191.5030    146.5043   8.3640528636e+01   1.6112737675e+01    0.1339928    0.1153909  14.33 0.0008103582    1.039    0.038
       143  -9.1288    200.7977    143.3751   8.1314688857e+01   1.4850398091e+01    0.2279431    0.1534605  -2.45  0.001092014    1.708    0.414
       144 -12.9159    246.1384    164.9193   7.8192188441e+01   4.5706797069e+00     1.126965    0.5614933 -11.74   0.00586905    2.203    0.546
       145 -13.6258    229.0106    196.1963   8.6290170481e+01   3.7711725504e+00     2.331111     1.065287  10.25  0.009456495    4.240    0.764
       146 -13.3938    244.4497    176.4258   8.0540038389e+01   3.6006497404e+00     2.299095    0.4914841  36.80  0.008278658    4.669    0.786
       147 -12.4562    238.2387    218.4904   8.8335585303e+01   3.4104955276e-01    0.7753268    0.3409737 -22.23  0.004631534    2.440    0.590
       148 -11.2815    201.6278    122.6655   7.6664084477e+01   1.7670733492e+01    0.7465287    0.3682081  -7.76   0.00231904    4.826    0.793
       149 -13.7476    247.8697    215.0570   8.6389355060e+01  -5.9139972176e-01     1.708111    0.3758255 -28.62  0.007377328    4.809    0.792
       150 -14.4145    242.9543    194.8759   8.3928161039e+01   1.9425774917e+00     4.127392     1.478634 -19.79   0.01880675    3.533    0.717
       151  -8.7983    180.1389    122.7542   8.0651534980e+01   2.1977957666e+01    0.2756204    0.1799436  -3.81  0.001239803    2.115    0.527
       152 -12.5159    248.6851    202.0978   8.4248718609e+01   4.7647987213e-01     0.728048    0.3121998 -11.48   0.00366683    3.033    0.670
       153  -9.0911      3.2379    250.2417   1.3134710715e+02   2.5390494574e+01    0.2162574    0.0961847  37.99  0.001596384    1.675    0.403
       154 -10.8539     16.9227    249.5247   1.2912169504e+02   2.4279544520e+01     0.643558    0.1914709  30.81  0.003501767    3.188    0.686
       155 -10.2003      9.1261    249.0092   1.3037425525e+02   2.5057132425e+01    0.3444373    0.1665376  39.49  0.001846986    1.530    0.346
       156 -10.1039    233.0566    246.0531   9.2940699375e+01  -1.3909728410e+00    0.2400927    0.1534453  14.29  0.001110721    1.194    0.163
       157 -12.1378    133.3806    241.6178   1.0858876043e+02   1.2026801339e+01     3.187936     1.581468  14.78   0.01027097    8.621    0.884
       158 -10.5379    225.0736    241.9229   9.3594384734e+01  -6.5044566725e-02    0.3052996    0.1897548 -20.13  0.002337381    1.776    0.437
       159  -9.9912      2.8707    242.6901   1.3124861114e+02   2.6537704309e+01    0.2849218    0.1329237  56.68  0.002164038    1.417    0.294
       160  -9.8996    201.6955    241.2695   9.7131700603e+01   2.9733791753e+00    0.2156207    0.1740514   1.23  0.001129132    1.298    0.230
       161  -7.9403    239.4800     75.4716   5.9620439099e+01   1.6350042566e+01    0.1331582    0.1156953 -15.79 8.975447e-05    1.019    0.019
       162  -9.8100    117.7274     66.0523   7.9336439084e+01   4.5987185726e+01    0.2532157    0.2301025  52.33 0.0002362493    1.122    0.109
       163  -9.8269    248.8203     63.7514   5.5678432749e+01   1.5851842425e+01    0.4662037    0.2297915  -4.09  0.001854873    3.056    0.673
       164  -9.6975    247.5033     59.8729   5.4864789957e+01   1.6558386410e+01    0.3330505    0.1865964  42.84  0.001671112    2.066    0.516
       165  -8.5617    250.4940     55.0141   5.3366038467e+01   1.6501450396e+01    0.2010125    0.1119145 -23.96  0.001018685    1.553    0.356
       166 -10.5981    191.5680    246.4123   9.9372890141e+01   3.7890083071e+00    0.3472951     0.267906   4.82  0.001873724    1.310    0.237
