#   1 NUMBER                 Running object number                                     
#   2 MAG_AUTO               Kron-like elliptical aperture magnitude                    [mag]
#   3 X_IMAGE                Object position along x                                    [pixel]
#   4 Y_IMAGE                Object position along y                                    [pixel]
#   5 X_WORLD                Barycenter position along world x axis                     [deg]
#   6 Y_WORLD                Barycenter position along world y axis                     [deg]
#   7 A_WORLD                Profile RMS along major axis (world units)                 [deg]
#   8 B_WORLD                Profile RMS along minor axis (world units)                 [deg]
#   9 THETA_WORLD            Position angle (CCW/world-x)                               [deg]
#  10 FWHM_WORLD             FWHM assuming a gaussian core                              [deg]
#  11 ELONGATION             A_IMAGE/B_IMAGE                                           
#  12 ELLIPTICITY            1 - B_IMAGE/A_IMAGE                                       
         1 -12.1332    207.5003     21.4202   4.6840786526e+01   3.0224136744e+01    0.9373125    0.7328842  21.23  0.004999168    1.584    0.369
         2 -12.2006    196.4481     34.2033   5.1911380239e+01   3.1523925368e+01    0.9848352    0.8800368  25.64  0.004041213    1.235    0.190
         3 -11.3567     32.7821     14.1185   8.7844849901e+01   6.8992815818e+01    0.6328512    0.1378196 -40.91  0.002311379    3.906    0.744
         4  -8.8092     24.4992      1.5261   8.5360802649e+01   7.1724023930e+01    0.1166777   0.08624279 -13.83 0.0001245113    1.023    0.023
         5 -10.3452     83.8079    232.2903   1.1913628092e+02   1.7106650970e+01    0.2713708    0.2189143  44.09  0.001480791    1.335    0.251
         6 -13.2327    247.9268    245.1835   9.2004229868e+01  -9.9567033367e+00     1.214457    0.6969189  -6.09   0.00758001    1.851    0.460
         7 -12.2270    244.2616    236.9800   9.1292279757e+01  -8.5985236100e+00    0.5668846    0.3551546   3.22   0.00249683    1.552    0.356
         8 -10.4064    220.4342    250.2983   9.7333598603e+01  -6.4933569845e+00    0.5727808    0.1272632  41.12  0.002260155    3.551    0.718
         9 -15.4007     53.0160    202.9376   1.2211237570e+02   2.6556826189e+01      7.73119     4.956535  70.90   0.03561801    1.343    0.256
        10 -10.3232     71.4040    179.6495   1.1602768922e+02   2.8967349981e+01    0.3782184    0.2538241 -39.45  0.002033913    2.222    0.550
        11 -10.2056     75.6250    174.3856   1.1446126768e+02   2.9513831120e+01     0.290563    0.2528897 -32.38  0.001255603    1.591    0.372
        12  -8.4182    208.3550    179.1553   8.7224647839e+01   4.9209327318e+00    0.2684231    0.1235965 -28.25  0.001092669    2.543    0.607
        13  -7.8477     99.6461    180.7236   1.1011750636e+02   2.4586883168e+01    0.1211971    0.1055331  -4.30 0.0003640963    1.647    0.393
        14 -10.2603    125.7985    173.7101   1.0330400460e+02   2.1629372910e+01    0.3742453    0.2619608  46.00  0.001962396    1.347    0.257
        15 -16.2204      4.6360    238.2684   1.3241485334e+02   2.5271246377e+01     17.82954     0.720596 -76.99   0.04655336   13.760    0.927
        16  -8.8034    195.5256    168.9572   8.7633056677e+01   9.0742471483e+00    0.2824955    0.2002739  39.64 0.0006803956    1.332    0.249
        17 -12.0291     68.0081    144.3449   1.1194580153e+02   3.7281249364e+01    0.9438663    0.5664198  74.36  0.004496722    2.106    0.525
        18 -11.8716     72.2937    160.3323   1.1330520102e+02   3.3064733136e+01    0.5517939    0.4553206 -35.20   0.00149458    1.609    0.378
        19 -11.0189    159.9890    227.0992   1.0465786575e+02   6.1403190851e+00    0.4126326    0.2713509  -7.14  0.002066944    2.814    0.645
        20  -9.9433     90.2335    157.7571   1.0873567843e+02   3.1026415714e+01    0.5023464    0.3466556 -24.87   0.00197069    2.445    0.591
        21  -9.7920    134.3581    147.1226   9.6290754785e+01   2.5620736831e+01    0.6655337    0.1401344 -50.96  0.001674575    5.345    0.813
        22  -8.4670     87.1074    146.1061   1.0753094992e+02   3.4143673788e+01    0.2347715    0.1566755  75.77  0.001133498    1.830    0.453
        23  -8.9869    103.7609    141.3646   1.0252801406e+02   3.2526495583e+01     0.435467    0.2680935 -24.98  0.001705603    2.968    0.663
        24 -10.5492     91.3494    141.9775   1.0573934033e+02   3.4429988455e+01     0.268227    0.2316313 -45.88 0.0004934533    1.245    0.197
        25  -8.5282    128.0000    139.9625   9.6278970018e+01   2.8409593865e+01    0.2458562   0.08310769 -49.23 0.0006937285    2.939    0.660
        26 -10.6376    126.0835    128.0150   9.4062787167e+01   3.1416303219e+01    0.4932369    0.2955793 -70.02  0.001892624    2.502    0.600
        27  -9.1772    119.8333    131.4155   9.6408831766e+01   3.1869606620e+01    0.2988149    0.1076883 -52.07  0.001000505    2.797    0.642
        28  -9.0360    112.7646    131.7317   9.8264197821e+01   3.3116937687e+01    0.3121094    0.1765291  37.58    0.0013435    1.903    0.475
        29  -8.5357    106.0598    130.8634   9.9788483075e+01   3.4518954858e+01    0.2339559    0.1971887  85.75  0.001240128    1.293    0.226
        30  -9.2821     99.6684    128.1488   1.0086272889e+02   3.6248400619e+01    0.3205019    0.2197314 -37.30 0.0008259832    1.653    0.395
        31  -9.4032    134.5675    128.3124   9.2030224662e+01   2.9648743385e+01    0.3037959    0.1456231 -51.09  0.001146908    2.147    0.534
        32 -10.4927     57.8759    128.1066   1.1189363725e+02   4.2352696710e+01    0.4031565    0.1728578 -66.54  0.001733985    2.146    0.534
        33 -10.6695     96.5800    225.2540   1.1616562734e+02   1.6510482293e+01    0.3946079    0.2463175  46.48  0.001259206    1.358    0.264
        34 -13.8691      9.7886    206.6780   1.3011192275e+02   3.0444571020e+01     1.161984    0.7935379 -54.72  0.008364365    2.078    0.519
        35 -10.0593    125.1215    117.6730   9.1809537495e+01   3.3894422494e+01    0.5869792   0.09136832 -45.39  0.001277152    6.288    0.841
        36  -7.9528    108.4068    120.1206   9.6763658624e+01   3.6547412704e+01    0.1921149     0.136383 -63.33 0.0006173673    1.476    0.323
        37 -10.3409    117.2026    125.4615   9.5718552737e+01   3.3703748702e+01    0.4137651    0.3084064  34.89  0.002025914    1.455    0.313
        38 -10.3222     83.8118    164.5388   1.1127159232e+02   3.0489119907e+01    0.3662523     0.244794 -70.11 0.0005123648    1.433    0.302
        39  -9.1984    134.5250    113.4372   8.8337282454e+01   3.2883033481e+01    0.3370202    0.1491515 -44.15  0.001219458    2.202    0.546
        40  -8.3212    168.2018    112.8066   8.0167480880e+01   2.5520822194e+01    0.2722125    0.1795107 -78.63 0.0009630944    2.907    0.656
        41 -10.4113    127.8209    106.3743   8.8179630235e+01   3.5812601788e+01    0.4602404    0.1468112 -42.03   0.00140508    3.124    0.680
        42 -10.9853    119.7059    109.4798   9.1131662451e+01   3.6784193227e+01    0.6265599    0.2460646 -46.71  0.002196898    2.438    0.590
        43  -8.9664    134.3429    102.5299   8.5447923729e+01   3.5251079789e+01    0.2734334     0.142461 -42.31 0.0008880093    1.861    0.463
        44  -9.8492    120.4119     99.0436   8.8125751351e+01   3.8920042903e+01    0.4630917    0.1417663 -42.05  0.001395987    3.227    0.690
        45  -8.3367     85.6660     99.2556   9.8006121111e+01   4.5207882373e+01    0.1375586    0.1105908  79.29 0.0001859398    1.567    0.362
        46  -9.9454    163.9623    231.5031   1.0453991099e+02   4.8293198130e+00    0.1682614    0.1637464  15.43 0.0006857201    1.211    0.174
        47  -9.7682    125.1210     89.0261   8.3966184958e+01   4.0054101653e+01    0.5613222   0.09630833 -42.15  0.001271256    5.595    0.821
        48  -8.0721    205.9976    110.2368   7.1728392313e+01   1.7207317437e+01    0.1977976    0.1292789  50.39 0.0008441416    1.595    0.373
        49 -10.1077    127.6611     75.3015   7.9030655272e+01   4.2240962104e+01    0.4506985     0.136378 -40.45  0.001368207    3.160    0.684
        50  -9.0446     61.1262     68.8344   9.7384610133e+01   5.5498562703e+01    0.1986843    0.1791914 -65.13  0.001064055    1.258    0.205
        51  -9.4446    125.0000     59.0133   7.4273180567e+01   4.5816251123e+01    0.4271853    0.0838339 -35.50  0.001054628    4.964    0.799
        52  -8.4347    115.0000     58.0051   7.6627167814e+01   4.8196780130e+01    0.2527986   0.08182944 -36.39 0.0008070638    2.975    0.664
        53  -8.2427    128.0000     54.9697   7.2077515638e+01   4.5817056449e+01    0.2482805   0.08398002 -33.79   0.00078425    2.900    0.655
        54  -9.7162    154.1556     57.0724   6.6625665971e+01   3.9165663765e+01    0.3919786    0.2831271 -81.57   0.00129695    2.005    0.501
        55  -9.0956    156.5779     50.9650   6.4084269843e+01   3.9506577815e+01    0.3093161    0.2355521 -67.16 0.0007855644    1.651    0.394
        56 -10.3275    103.0846    229.0249   1.1537518836e+02   1.4900638915e+01    0.3304963     0.180836  56.89   0.00188465    1.632    0.387
        57  -9.4048    167.5770    223.8420   1.0278463956e+02   5.3542897223e+00    0.2108143    0.1218893 -39.84  0.001147953    2.101    0.524
        58 -11.5374    187.3843     41.0382   5.5304083815e+01   3.2979899314e+01    0.4871553    0.4114115  35.71  0.001183217    1.259    0.206
        59  -8.4912    194.2337    192.7518   9.2558798748e+01   5.4170241173e+00    0.2182782    0.1432877   9.12  0.001054498    1.981    0.495
        60  -9.5343    127.6843     35.5014   6.5060897343e+01   4.8837850515e+01    0.2700723    0.1318336 -27.53  0.001094986    2.059    0.514
        61  -9.8255     91.9016    234.0388   1.1787467252e+02   1.5674675047e+01    0.2057163    0.1573463  89.40 0.0004190736    1.306    0.234
        62  -7.9579    145.3848     19.7094   5.5479650704e+01   4.6408795731e+01     0.147642     0.108231 -69.78 0.0007014137    1.755    0.430
        63  -8.6601    128.0000     15.5006   5.7357517003e+01   5.1151599827e+01     0.302791   0.07911161 -22.78 0.0009406373    3.982    0.749
