#   1 NUMBER                 Running object number                                     
#   2 MAG_AUTO               Kron-like elliptical aperture magnitude                    [mag]
#   3 X_IMAGE                Object position along x                                    [pixel]
#   4 Y_IMAGE                Object position along y                                    [pixel]
#   5 X_WORLD                Barycenter position along world x axis                     [deg]
#   6 Y_WORLD                Barycenter position along world y axis                     [deg]
#   7 A_WORLD                Profile RMS along major axis (world units)                 [deg]
#   8 B_WORLD                Profile RMS along minor axis (world units)                 [deg]
#   9 THETA_WORLD            Position angle (CCW/world-x)                               [deg]
#  10 FWHM_WORLD             FWHM assuming a gaussian core                              [deg]
#  11 ELONGATION             A_IMAGE/B_IMAGE                                           
#  12 ELLIPTICITY            1 - B_IMAGE/A_IMAGE                                       
         1 -14.4542    156.8452     54.9739   8.1129572121e+01   3.8645761055e+01      1.56695     1.269517  51.86  0.003855936    1.177    0.150
         2 -14.6811    169.1021     39.7998   7.4175053159e+01   3.7627909282e+01     1.208442     1.092097  19.22  0.004321349    1.258    0.205
         3 -14.6303    187.4836      7.4270   6.2227297334e+01   3.6542267856e+01     2.066223    0.8504225  63.87  0.008550939    2.064    0.515
         4  99.0000     13.4497    243.6660   1.4843633010e+02   2.4051229091e+01    0.2974095    0.0781436 -69.03  0.001495162    3.622    0.724
         5 -19.9478     64.5190    169.0516   1.3228055337e+02   3.3000527511e+01     17.80071     6.305249 -67.98   0.07073805    2.856    0.650
         6 -10.6062    153.7815    194.8086   1.1583529184e+02   1.2519613708e+01    0.2949031    0.2096491  72.48  0.001460151    1.893    0.472
         7 -11.1755    133.5475    249.8055   1.2755754688e+02   6.7923237146e+00    0.1777895    0.1198032 -52.60  0.001070289    1.914    0.477
         8 -10.1923    140.1806    200.5764   1.1966329283e+02   1.3971907121e+01    0.2990533    0.1902302  25.62 0.0008296416    1.922    0.480
         9  -9.9965    119.2169    244.0544   1.2959685493e+02   9.9615460417e+00    0.1407662    0.1023846  60.60            0    1.247    0.198
        10 -10.7405    112.1165    196.6323   1.2513596694e+02   1.9695917763e+01    0.4674463    0.2832378  14.13  0.001772555    3.814    0.738
        11 -13.5233    165.8203    188.7374   1.1223121330e+02   1.1330753556e+01    0.6844432    0.4467999  42.21  0.003458804    1.362    0.266
        12 -12.2662    173.7156    191.3625   1.1105512415e+02   9.3517247758e+00    0.3516199    0.2648423 -58.27  0.001335544    1.668    0.400
        13 -13.2262    175.2227    186.2800   1.0981656595e+02   9.9518792525e+00     1.036792    0.3053659 -47.79  0.003379879    4.143    0.759
        14 -12.1342    180.6681    193.7214   1.1005604186e+02   7.6268862035e+00     0.309963    0.2626937 -78.03  0.001321043    1.616    0.381
        15 -10.6833    104.1049    194.2284   1.2655882358e+02   2.1530195709e+01    0.3724387    0.2274977  21.57  0.001658147    2.587    0.613
        16 -11.8019    206.8258    178.1368   1.0191629672e+02   5.2234222870e+00     0.537973    0.3028111  23.38   0.00233185    2.241    0.554
        17 -11.0482    203.5301    175.5003   1.0202935678e+02   6.2880599450e+00    0.2442116    0.2021802 -19.60  0.000921151    1.238    0.193
        18 -11.2483    203.2990    170.8877   1.0114429059e+02   7.1001184248e+00     0.502984    0.2944388  27.66  0.002264585    1.924    0.480
        19 -11.6525    170.0868    183.8381   1.1043846199e+02   1.1386998608e+01    0.3754992    0.2461319  59.33  0.001568358    1.802    0.445
        20 -11.0765    169.6583    195.0917   1.1255498592e+02   9.4736331632e+00    0.1833773    0.1746104  22.49  0.001128398    1.097    0.088
        21 -10.2830    131.9118    236.4648   1.2629936613e+02   9.1489961003e+00    0.1729206    0.1421631  63.23 0.0002243275    1.197    0.165
        22  -9.6971    135.1650    234.8549   1.2547175125e+02   8.8746858035e+00    0.1671763    0.1504361 -89.75 0.0005492111    1.300    0.231
        23 -11.1978    151.2954    182.1111   1.1416378419e+02   1.5375012939e+01      0.21534    0.1815536 -27.41  0.001183371    1.395    0.283
        24 -10.7700     15.4346    236.7440   1.4778709117e+02   2.5066501552e+01    0.1467194   0.06501444  74.96 0.0008682925    1.947    0.486
        25 -10.5401     19.0000    235.7408   1.4713575429e+02   2.4873279406e+01    0.1413478   0.05018061 -78.82  0.000754441    2.620    0.618
        26 -12.7920    195.6492    169.3440   1.0233976631e+02   8.8801587482e+00    0.4407032    0.3996311 -32.02 0.0005297706    1.175    0.149
        27 -11.8792    193.1689    164.1694   1.0177060527e+02   1.0284806685e+01    0.4481363    0.3344927  33.94   0.00202123    1.282    0.220
        28 -11.3456    164.7749    171.3448   1.0919396094e+02   1.4761924093e+01    0.3736724    0.2524556 -86.33  0.001515345    2.786    0.641
        29 -11.0269    177.3464    169.7803   1.0618952603e+02   1.2501781107e+01    0.2030824    0.1344985 -31.62  0.000954613    1.712    0.416
        30 -11.8701    230.0098    166.4833   9.5266600893e+01   2.6924493987e+00    0.2561006      0.18602 -45.83  0.001152856    1.603    0.376
        31 -11.2243     22.8096    166.5291   1.4175798922e+02   3.8388059810e+01    0.3395542    0.2124515   5.34  0.001595039    2.944    0.660
        32 -11.6028    122.7777    165.9227   1.1775331875e+02   2.4158151687e+01    0.3089522    0.1918881  52.58 0.0002600222    1.569    0.363
        33 -10.3758    199.7431    162.0816   1.0001974740e+02   9.3110421087e+00    0.3401517     0.176555  31.27 0.0009329387    2.252    0.556
        34 -10.5978    219.2913    224.2143   1.0794952302e+02  -3.6698348162e+00     0.179805    0.1522464 -32.92 0.0006006293    1.467    0.318
        35 -12.2491    202.0603    223.7060   1.1101703610e+02  -7.7563493785e-01    0.2024785    0.1859392  81.65  0.001008578    1.603    0.376
        36 -14.6627    134.0094    145.6810   1.1104577738e+02   2.6310173439e+01     1.531059    0.6927018 -54.85  0.004825914    2.511    0.602
        37 -11.5249    134.6155    108.6387   1.0208832438e+02   3.4140363376e+01     1.233469    0.1601341 -45.09   0.00241518    7.884    0.873
        38 -13.6578    135.7354    127.7381   1.0658114309e+02   2.9823000092e+01     1.173912    0.3766215 -49.31  0.003609688    3.331    0.700
        39 -12.7614    135.2238    119.8375   1.0479432455e+02   3.1630283493e+01    0.5090995     0.434551  44.91  0.002118538    1.150    0.131
        40  -9.7616    176.8424    154.8447   1.0318912037e+02   1.5397740477e+01    0.1927975    0.1734266  87.85 0.0004618051    1.313    0.239
        41 -11.1283    110.0852    222.7801   1.2895306439e+02   1.5055380641e+01     0.223168    0.1665739  86.21  0.001355931    1.486    0.327
        42 -10.8593    174.3105    148.6622   1.0238559423e+02   1.7123670638e+01    0.3461406    0.2772232 -77.01  0.001196343    1.636    0.389
        43 -12.9508    144.1602    145.4571   1.0854498842e+02   2.4247513881e+01    0.5910839    0.4244265 -77.17  0.002633022    1.899    0.473
        44 -13.0928    142.8632    139.8975   1.0762936422e+02   2.5697518405e+01    0.5069101    0.4028369  77.78  0.002443436    1.505    0.335
        45 -10.4987    112.0555    214.3441   1.2751962130e+02   1.6284070181e+01    0.1650698    0.1307686  57.43 0.0002948402    1.071    0.066
        46 -12.3821      6.9754    139.5887   1.4310380428e+02   4.5714238435e+01    0.3934333    0.3011836   9.40  0.001791461    1.827    0.453
        47  -8.9785    116.3651    211.5854   1.2627019250e+02   1.6083368024e+01    0.3366244    0.1645772 -65.98  0.001365612    2.630    0.620
        48 -11.3796    152.5130    139.0880   1.0515001425e+02   2.3787637567e+01    0.2575777    0.2161352  72.70  0.001161363    1.331    0.249
        49 -12.7327      2.4736    125.6842   1.4294831688e+02   4.9134744363e+01    0.5150233    0.1888826 -70.88   0.00255391    2.074    0.518
        50 -11.6097    160.4785    127.9775   1.0069059233e+02   2.4293776945e+01     0.395029    0.3014072 -57.17  0.001863376    1.449    0.310
        51 -10.7231    168.0472    113.0232   9.5250010129e+01   2.5517962927e+01    0.3871067    0.2622059 -81.90  0.001493003    2.457    0.593
        52  -9.7350    130.2463    212.5324   1.2351422243e+02   1.3540689116e+01    0.1331762   0.09235099  77.89 0.0006833596    1.855    0.461
        53 -12.2364      3.6059    112.2933   1.4122858292e+02   5.2067036859e+01    0.3083286     0.296736 -19.58  0.001621505    1.321    0.243
        54 -12.0905     11.5503    110.6904   1.3873245249e+02   5.1912435059e+01    0.4716704    0.2165766   2.69  0.002121646    3.887    0.743
        55 -12.6065    107.3101    207.1821   1.2759642155e+02   1.8426578451e+01    0.5458286    0.3493657 -69.85  0.002961776    1.779    0.438
        56 -13.6273    118.2675    109.9798   1.0676454258e+02   3.7370095725e+01    0.7525399    0.4262082  51.80  0.003102545    1.863    0.463
        57 -11.5902     30.4139    205.1702   1.4321523380e+02   2.9456728491e+01    0.1772686     0.165218  42.74 0.0006302245    1.473    0.321
        58 -10.8105    205.4234    110.2028   8.7000687749e+01   1.7233946782e+01    0.3154663    0.2442731  48.63 0.0009055772    1.305    0.234
        59 -12.0032    160.6596    197.5645   1.1485126690e+02   1.0732887700e+01    0.3562667    0.2544084 -78.85  0.001754032    2.174    0.540
        60 -11.7985    163.7191    202.9603   1.1511883278e+02   9.2216021782e+00    0.2963427    0.2433853 -89.40 0.0008282642    1.633    0.387
        61 -10.3439    146.5156     80.4887   9.1206620949e+01   3.6935041757e+01    0.1546327    0.1495767  40.83 4.208041e-05    1.026    0.025
        62 -11.4354     96.6707     80.2296   1.0474886870e+02   4.7994679089e+01    0.5141842    0.2240117  49.62   0.00159894    2.599    0.615
        63 -12.0243    157.2213    200.5520   1.1606737431e+02   1.0844156587e+01    0.6606275    0.4225926  83.43  0.002682826    3.308    0.698
        64 -10.2676    150.7187    248.4604   1.2420498043e+02   4.2356546455e+00    0.1735036    0.1581582 -55.08  0.000858764    1.420    0.296
        65 -10.9640    125.0344    247.4380   1.2887757375e+02   8.5063066719e+00    0.2334894    0.1474851 -58.67    0.0014294    1.998    0.500
        66 -12.9603    173.1441     32.6072   7.1355330519e+01   3.7492963980e+01     0.420528    0.3852713  26.65 0.0009779913    1.233    0.189
        67 -10.7661     13.5061     59.6386   1.2909366298e+02   6.3008586642e+01    0.2028469    0.1603073 -50.13 0.0004047114    1.018    0.018
        68 -10.5920    134.3426     30.0561   7.7640139429e+01   4.7793891430e+01    0.2717126     0.197458  70.64    0.0006521    1.416    0.294
