#   1 NUMBER                 Running object number                                     
#   2 MAG_AUTO               Kron-like elliptical aperture magnitude                    [mag]
#   3 X_IMAGE                Object position along x                                    [pixel]
#   4 Y_IMAGE                Object position along y                                    [pixel]
#   5 X_WORLD                Barycenter position along world x axis                     [deg]
#   6 Y_WORLD                Barycenter position along world y axis                     [deg]
#   7 A_WORLD                Profile RMS along major axis (world units)                 [deg]
#   8 B_WORLD                Profile RMS along minor axis (world units)                 [deg]
#   9 THETA_WORLD            Position angle (CCW/world-x)                               [deg]
#  10 FWHM_WORLD             FWHM assuming a gaussian core                              [deg]
#  11 ELONGATION             A_IMAGE/B_IMAGE                                           
#  12 ELLIPTICITY            1 - B_IMAGE/A_IMAGE                                       
         1 -13.5390    226.8968      7.3497   3.3463853666e+01   2.8064037564e+01      1.97791    0.9260052  53.93  0.009704484    2.559    0.609
         2 -12.9488    183.0741     51.8639   4.9422181870e+01   3.2839919050e+01    0.9408468    0.8890713  15.47 0.0008695831    1.248    0.199
         3 -13.1267    195.2058     41.9197   4.4987326200e+01   3.1271359279e+01     1.060625    0.8999477 -63.97  0.003261789    1.113    0.101
         4 -13.4447    203.1639     33.9434   4.1947450665e+01   3.0407802258e+01     1.017781    0.8888087 -18.67  0.001433313    1.413    0.292
         5 -10.4812     59.3469      8.6600   6.4371276317e+01   6.6337458364e+01    0.1686894    0.1564367 -72.26 0.0009826344    1.719    0.418
         6 -11.4150    104.8128    210.0212   1.0364143093e+02   1.6625910088e+01    0.5421335    0.2743781 -53.00   0.00250161    2.173    0.540
         7 -11.3979    139.7807    248.0332   1.0110989618e+02   3.9411400555e+00    0.4607607    0.3172527 -60.54  0.002742149    1.865    0.464
         8 -18.6337     17.0793    197.3428   1.2189024938e+02   3.0767845820e+01     15.32665     4.801661 -80.22   0.06463034    2.994    0.666
         9  -9.4715     91.5584    183.5583   1.0305567192e+02   2.4591274878e+01    0.2569642    0.2213569  77.98 0.0006957652    1.124    0.111
        10 -11.5854    195.9819    203.9715   8.2662825702e+01   2.1941096346e+00    0.4451035    0.3041172  29.41  0.002392223    1.350    0.259
        11 -10.6470     99.2980    180.7925   1.0070906807e+02   2.3990782996e+01      0.29046    0.2460517  35.58 0.0006004191    1.207    0.171
        12 -10.6067    148.3318    187.4770   8.9999054921e+01   1.3839648432e+01    0.3595999    0.2771786 -81.12  0.001767927    1.760    0.432
        13 -11.0282     47.2665    173.4873   1.1277767332e+02   3.3090500529e+01    0.5587322     0.183174 -54.21   0.00202067    3.074    0.675
        14 -11.2762     45.9840    170.0118   1.1269745837e+02   3.4074123414e+01    0.4949353    0.4091148  29.73  0.002407359    1.399    0.285
        15 -10.1119    187.5177    175.9968   7.9035083442e+01   8.7649838849e+00    0.3416489    0.3256331 -63.69  0.001256191    1.248    0.199
        16  -9.0091    148.6810    175.3661   8.7639429732e+01   1.6329316025e+01    0.2950907    0.2127862  86.45  0.000804349    2.167    0.539
        17  -9.7167    146.4953    171.9844   8.7498050732e+01   1.7477733533e+01    0.2808157    0.2264024  71.41 0.0007596213    1.505    0.335
        18  -9.7561     83.9584    173.6864   1.0348915951e+02   2.8096133164e+01    0.2299839    0.1874963 -56.38 0.0003466744    1.267    0.211
        19 -11.6352    121.1343    196.2150   9.7855072679e+01   1.6856767153e+01    0.5956846    0.3284388 -79.76   0.00168671    3.450    0.710
        20  -8.7880    193.5029    170.9916   7.6751404585e+01   8.5862680849e+00      0.21513    0.1389066 -40.48  0.000568773    1.545    0.353
        21  -9.9086    137.1422    167.2023   8.8825206475e+01   2.0332552930e+01     0.395992    0.2395459  62.98  0.001551202    2.339    0.573
        22 -12.3586    112.8447    196.1616   9.9800960784e+01   1.8277651385e+01     1.557575    0.8691683   8.24   0.00430997    6.312    0.842
        23  -9.4714    185.1437    168.8562   7.8070949351e+01   1.0597076027e+01       0.3195    0.2067564 -57.47  0.001218886    1.986    0.497
        24  -9.8863    240.5569    169.2520   6.7456164634e+01   5.3033042320e-01    0.1863571    0.1127587 -25.67 0.0003607981    1.572    0.364
        25 -10.9325     51.4029    164.3528   1.1061457466e+02   3.4809590552e+01    0.4288403    0.2443742 -46.15   0.00202983    2.041    0.510
        26 -11.5144    111.7354    204.6172   1.0131014864e+02   1.6645387570e+01    0.4636114    0.3228604  72.53 0.0009621661    1.723    0.420
        27 -11.5010     92.5663    151.3931   9.7426936975e+01   3.2144439943e+01    0.7464279    0.6004255 -12.95  0.003704353    1.636    0.389
        28 -11.2602    133.8995    145.5618   8.5105630428e+01   2.5897568426e+01     1.304145    0.3530969 -55.30  0.003033594    5.747    0.826
        29  -9.0981    112.5113    150.9619   9.1902638173e+01   2.8761376557e+01    0.2858726    0.2055837  57.40 0.0006365732    1.513    0.339
        30  -9.2238    174.8495    149.1778   7.6055217062e+01   1.6627698037e+01    0.2308932    0.2129919 -89.64 0.0007135369    1.261    0.207
        31 -10.3723    104.8815    137.8614   9.1254151275e+01   3.3314323772e+01    0.5187421    0.3613971 -19.47  0.002192202    2.089    0.521
        32 -10.3261    105.8597    130.8306   8.9416923843e+01   3.4833119607e+01    0.4196504    0.3293086 -63.64  0.001050365    1.320    0.243
        33 -10.8229    183.8174    209.7718   8.6198148067e+01   3.2591143588e+00    0.5267386    0.2848526 -46.28  0.002496753    2.088    0.521
        34 -11.7245     92.4971    137.5006   9.4712250896e+01   3.5570687507e+01    0.2885314    0.2742763 -25.07  0.001583808    1.136    0.119
        35 -10.9437    192.1586    193.6961   8.1536039435e+01   4.6459628334e+00     1.163181    0.6671138 -68.34  0.003391905    6.414    0.844
        36 -10.6452    135.7119    128.6533   8.0701150819e+01   2.9397975039e+01    0.6486213    0.2020946 -50.69  0.001863688    3.508    0.715
        37 -10.3513    134.7651    119.5118   7.8674002451e+01   3.1663089274e+01    0.4911414    0.2087697 -44.06  0.001701246    2.361    0.576
        38 -10.0234    134.8037    104.8663   7.4800704657e+01   3.4873495946e+01    0.7137038    0.2088921 -42.85  0.002058682    3.448    0.710
        39 -10.7064    113.2240    128.9560   8.6891503949e+01   3.3888144348e+01     0.513772    0.3712784  16.59 0.0008743527    1.782    0.439
        40 -11.4625    119.8632    123.3346   8.3679478370e+01   3.3898656715e+01    0.5674311    0.4938594   2.38  0.002818771    1.323    0.244
        41  -9.3481    160.8428    128.3449   7.4373317478e+01   2.4023517574e+01    0.2276688    0.2064785 -60.63  0.001152613    1.158    0.137
        42 -10.3153    100.4100    124.8809   8.9629761074e+01   3.7263761813e+01    0.2896414    0.2426584 -14.14 0.0004844141    1.413    0.293
        43  -9.2378    108.9254    118.1366   8.5510314989e+01   3.7275084432e+01    0.2232227    0.2185146 -54.40 0.0003382674    1.011    0.010
        44  -9.8672    231.3652    113.7626   5.7056395037e+01   1.1652453292e+01    0.2493444    0.2406595 -30.11 0.0007753107    1.080    0.074
        45  -8.8619    167.9621    112.9761   6.8868134816e+01   2.5636959822e+01     0.260503    0.1957099 -80.88  0.001132703    1.825    0.452
        46 -11.0082    119.3125    104.1238   7.8848948973e+01   3.8383372878e+01    0.3976486    0.2909701 -25.46   0.00178193    1.597    0.374
        47 -10.1581    114.7031    110.3267   8.1834803358e+01   3.7939946243e+01    0.2763024    0.2217729 -58.15 0.0006253273    1.304    0.233
        48 -11.4418    117.5021    108.5034   8.0547957762e+01   3.7781673403e+01    0.7729096    0.4959741  83.28  0.002622347    3.311    0.698
        49  -9.3116    205.3158    110.2724   6.0639824944e+01   1.7733727793e+01    0.3055527    0.2018141  45.97  0.001189546    1.614    0.380
        50  -8.0519    142.6649    109.2975   7.3956612571e+01   3.2167221440e+01    0.1602799    0.1268186  88.75 0.0005348642    1.650    0.394
        51  -8.2498     73.2902    199.2625   1.0952154437e+02   2.3717265103e+01     0.116811    0.1047944 -23.00 0.0001806209    1.496    0.332
        52  -9.3927    130.7116     98.1555   7.4032241242e+01   3.7211424550e+01    0.3673534    0.2365078 -71.13  0.001115713    2.510    0.602
        53  -9.0704     81.9807    195.1201   1.0697506379e+02   2.3398598997e+01    0.2419282    0.1970145 -50.91   0.00138308    1.404    0.288
        54 -10.5067    107.5794    203.7312   1.0214306685e+02   1.7513477077e+01    0.2839018    0.2346659 -80.48 0.0007235989    1.297    0.229
        55 -10.5723     39.3725     88.5332   1.0132064190e+02   5.4694548244e+01    0.2394644    0.2122253 -38.68 0.0007798115    1.052    0.049
        56  -9.8711     89.9404    212.3339   1.0728679355e+02   1.8439306437e+01    0.2421358    0.2074696  73.44 0.0005318071    1.094    0.086
        57  -8.5377    157.4159     82.5051   6.2968579259e+01   3.4086681323e+01    0.1514625    0.1481613 -77.04  0.000138781    1.022    0.021
        58  -8.5091    184.3763     77.2898   5.6066670568e+01   2.8482495197e+01    0.1527232    0.1152071  25.71 0.0007020041    1.731    0.422
        59 -15.1142     69.9423    147.1516   1.0300607090e+02   3.6655241478e+01     4.321148     2.504017  73.51    0.0123223    2.542    0.607
        60 -11.6690    141.4380    237.5992   9.9408600117e+01   5.4421886275e+00    0.5074842    0.3498371 -25.86  0.002776227    1.997    0.499
        61  -9.6035    168.2349    232.9015   9.3198801488e+01   1.9311079661e+00    0.2099469    0.1829487  35.00 0.0005989397    1.117    0.105
        62 -11.0889    158.1423    222.8656   9.3765779212e+01   5.2950025384e+00     0.323407    0.2096127 -60.19  0.001171234    2.065    0.516
        63 -11.4987    163.7466    213.7306   9.1110801814e+01   5.9837401771e+00    0.5525872    0.2374765 -45.00  0.002339196    2.576    0.612
        64 -11.5983    220.2838     30.3927   3.9194585107e+01   2.6873711165e+01    0.5479725    0.3702496  25.71  0.002696547    2.635    0.620
        65 -10.6226    120.0491    186.0409   9.6459004921e+01   1.9266635064e+01    0.2180945    0.2047346  57.85 0.0003332176    1.016    0.016
        66 -10.4637    114.7688    199.7738   9.9895206948e+01   1.7174185734e+01    0.3431299    0.2060971 -56.54   0.00155839    1.792    0.442
        67  -9.4955     93.5113    205.3299   1.0560279615e+02   1.9396388818e+01    0.2611209    0.1629594  26.39  0.001266152    1.863    0.463
        68  -9.3694    189.6855     15.0261   3.8750384311e+01   3.5868087950e+01     0.182419    0.1592021 -72.76 0.0005140928    1.082    0.076
