#   1 NUMBER                 Running object number                                     
#   2 MAG_AUTO               Kron-like elliptical aperture magnitude                    [mag]
#   3 X_IMAGE                Object position along x                                    [pixel]
#   4 Y_IMAGE                Object position along y                                    [pixel]
#   5 X_WORLD                Barycenter position along world x axis                     [deg]
#   6 Y_WORLD                Barycenter position along world y axis                     [deg]
#   7 A_WORLD                Profile RMS along major axis (world units)                 [deg]
#   8 B_WORLD                Profile RMS along minor axis (world units)                 [deg]
#   9 THETA_WORLD            Position angle (CCW/world-x)                               [deg]
#  10 FWHM_WORLD             FWHM assuming a gaussian core                              [deg]
#  11 ELONGATION             A_IMAGE/B_IMAGE                                           
#  12 ELLIPTICITY            1 - B_IMAGE/A_IMAGE                                       
         1 -14.5619     68.4643    144.2720   1.1104371894e+02   3.7169394072e+01      5.09666     2.495147  70.26  0.003586726    3.634    0.725
         2 -14.4850    210.8734     19.9268   4.5332564341e+01   2.9617744967e+01     1.627768      1.18458  18.25  0.008275762    1.883    0.469
         3 -14.6117    198.9261     33.7102   5.0649319636e+01   3.0983912253e+01     2.516103     1.604035  30.64   0.00896985    2.099    0.524
         4 -13.9793      5.6999     14.5120   1.0112711409e+02   7.1495499209e+01     2.482546     0.539934 -46.96   0.01090194    2.907    0.656
         5  -9.9583     61.0037      7.7263   7.2201057589e+01   6.6038365872e+01     0.175428    0.1405153  19.35 0.0004079736    1.132    0.117
         6  -9.7021     49.6676      7.3091   7.6470841748e+01   6.7873048694e+01    0.1060199   0.09631788 -44.62  0.000364827    1.670    0.401
         7 -10.1402     41.4998      2.9919   7.7703914032e+01   6.9578211009e+01    0.1521191   0.09315033 -46.03 0.0008100184    2.495    0.599
         8  -9.8118     51.9933      1.4732   7.2458901257e+01   6.8205479271e+01    0.1403555    0.1118418  72.27 0.0004892684    2.499    0.600
         9  -9.6272    170.5362     20.4799   5.0753643779e+01   3.9931228762e+01    0.1426215     0.133558  60.10 -1.032237e-07    1.030    0.029
        10 -16.0139     81.9475    245.4704   1.1979092944e+02   1.4714226375e+01     8.362383     2.460156  36.94   0.03002352    3.757    0.734
        11 -13.8803     44.3963    208.7043   1.2348880987e+02   2.6199371843e+01    0.6918986    0.5723113  70.47  0.001502282    1.163    0.140
        12 -15.0712     54.3260    197.9095   1.2069076075e+02   2.7158970374e+01      2.19591     1.364987  79.09    0.0107476    1.467    0.318
        13  -9.8638     96.4735    192.6862   1.1154851550e+02   2.2342957566e+01    0.2521408    0.2041319 -20.22  0.001041447    1.977    0.494
        14  -9.3379     96.0099    201.0614   1.1269760031e+02   2.0733274287e+01    0.1919275    0.1582288  68.46 0.0004028447    1.037    0.035
        15 -16.5914      7.0260    208.8652   1.3011886836e+02   3.0077475911e+01     6.281888     1.269713 -71.20   0.02817097    3.773    0.735
        16  -9.6292    150.6667    182.1984   9.8396563114e+01   1.5038850054e+01    0.2030202    0.1708346 -81.74 0.0006223933    1.403    0.287
        17 -12.1896     69.4193    180.1566   1.1573135190e+02   2.8930461084e+01     0.414581    0.2690696 -42.52  0.002194349    2.202    0.546
        18 -11.9806     73.8064    174.6906   1.1410174483e+02   2.9515758815e+01    0.2990709    0.2484913 -47.38 0.0009341018    1.497    0.332
        19 -10.7808    207.6212    179.8350   8.6365775359e+01   4.5516876759e+00    0.6250741    0.2836593  30.50  0.002277902    2.626    0.619
        20  -9.8018     99.4964    180.5600   1.0924303598e+02   2.4387995078e+01    0.2284983    0.1965216  60.37 0.0005668378    1.074    0.069
        21  -8.9649    224.3261    179.2987   8.3128440795e+01   1.5387387176e+00    0.1404962   0.09501752   9.90  0.000702701    1.633    0.388
        22 -10.1655    204.4753    199.4632   9.0706279155e+01   2.0796287265e+00    0.1329004    0.1132311  21.01 2.976122e-05    1.004    0.004
        23  -8.8372    168.3288    176.6881   9.3644569971e+01   1.2688340502e+01    0.1407504    0.1114672  77.56 0.0005673571    1.668    0.401
        24 -10.7031    138.3101    172.0490   9.9258665422e+01   1.9376746732e+01    0.5277362    0.3431801 -85.30  0.002242916    2.504    0.601
        25 -12.8925     82.8811    164.5703   1.1065872779e+02   3.0454779027e+01      1.34401    0.4415396  48.56  0.001222128    3.151    0.683
        26 -13.6920     70.5627    160.7107   1.1297196224e+02   3.3087789632e+01    0.6812317     0.546726 -29.81  0.002630447    1.783    0.439
        27  -9.9932    174.1655    248.3663   1.0392329005e+02   2.8851248741e-01    0.2206047    0.1800371  76.69  0.001503066    1.723    0.420
        28 -12.3342     88.9044    157.9418   1.0822426889e+02   3.1037554127e+01    0.6790575    0.4914723 -39.99  0.001330401    1.724    0.420
        29 -10.8552    195.1120    168.6551   8.6537930200e+01   8.8439036622e+00    0.3361171    0.3073277  48.03 0.0007547553    1.185    0.156
        30 -10.3228    230.1868    166.3793   7.9389322988e+01   2.4333829824e+00    0.2094395    0.1766435 -66.62 0.0008405913    1.783    0.439
        31 -10.0132    145.9480    168.4894   9.6905132834e+01   1.8642267820e+01    0.2184497    0.1936575 -53.44 0.0006489917    1.189    0.159
        32 -10.6577     32.2640    165.4535   1.2218054723e+02   3.6583273306e+01    0.2261752    0.1359863 -76.96 0.0008275001    1.378    0.274
        33  -9.1858    161.0091    165.5093   9.3015872764e+01   1.6269167649e+01    0.1880477    0.1237379  67.68  0.000144474    2.138    0.532
        34 -16.3627      8.9655    243.3184   1.3139386313e+02   2.3690975468e+01     5.412116     1.721892 -79.66   0.02331993    2.763    0.638
        35  -9.5318    190.0169    160.9902   8.5950822809e+01   1.1231531307e+01    0.2169624    0.1833634 -84.20 0.0007787747    1.624    0.384
        36 -10.3948    189.3121    154.7743   8.4744988202e+01   1.2511980479e+01    0.3329725     0.261568 -87.30  0.001581189    1.927    0.481
        37 -11.0303    133.7041    144.0253   9.4791976638e+01   2.6216731431e+01     1.098908    0.2686725 -53.76  0.002688339    5.587    0.821
        38 -10.4122    174.4398    148.4699   8.6474903887e+01   1.6840473096e+01    0.3416572    0.2877316 -53.85  0.001040272    1.294    0.227
        39 -11.7131     54.1804    146.5734   1.1492485088e+02   3.8452030948e+01    0.6299119    0.3125829 -59.16  0.003099408    1.794    0.443
        40  -8.7668    109.3953    147.4784   1.0140801566e+02   3.0016926428e+01    0.1445098    0.1312521 -87.67 0.0001464266    1.058    0.055
        41  -9.9208     41.1591    147.1991   1.1816452871e+02   3.9781813195e+01    0.2041133      0.16354 -86.53 0.0009640675    1.026    0.026
        42 -10.7019     44.9873    144.8384   1.1694008434e+02   3.9912805809e+01    0.3305694     0.176217  38.71  0.001171273    2.014    0.503
        43 -12.4502     90.2229    142.1976   1.0520014416e+02   3.4457329250e+01    0.2730617    0.2555325 -55.86 0.0004874639    1.149    0.129
        44  -9.6291    143.6576    145.3270   9.2713255764e+01   2.3931500850e+01     0.156353    0.1187313  83.87 0.0007051135    1.739    0.425
        45  -9.9618     86.4390    145.4494   1.0673440635e+02   3.4292828024e+01    0.2577063    0.2061915  72.97 9.213782e-05    1.269    0.212
        46 -10.0745    101.6917    143.3266   1.0252119472e+02   3.2305806850e+01    0.2693194    0.2354882  81.97 0.0007818586    1.134    0.118
        47 -10.2611    104.2362    140.1432   1.0125856057e+02   3.2601074927e+01    0.3970774     0.277093 -25.09  0.001640083    2.128    0.530
        48 -10.1708    111.7262    131.6036   9.7566730498e+01   3.3226213910e+01    0.3042133    0.2498264   8.16  0.000970882    1.594    0.373
        49 -10.1579    106.0156    130.7799   9.8866372860e+01   3.4451427000e+01    0.3277109    0.2843465 -72.63  0.001212479    1.132    0.117
        50 -10.5929     32.3384    131.4580   1.1836043504e+02   4.4324764774e+01    0.2632374    0.1506294 -51.47   0.00143048    1.749    0.428
        51 -10.8943    160.1044    129.1181   8.5134632840e+01   2.3858509557e+01    0.5439326    0.3220696 -26.30  0.002108074    2.218    0.549
        52 -10.9901    135.5935    124.3975   8.9842382474e+01   3.0150648798e+01    0.4402598    0.1465288 -46.70  0.001388842    2.965    0.663
        53 -10.8359    117.5420    126.2555   9.4866103316e+01   3.3356111877e+01    0.6203588    0.3452324 -48.68  0.002625083    1.743    0.426
        54 -10.6283    120.6760    121.9984   9.3053517596e+01   3.3713592360e+01    0.4049918    0.2590412 -29.19    0.0016844    2.046    0.511
        55 -11.5923     45.4469    129.5869   1.1469660437e+02   4.3434397459e+01    0.3173391    0.2319279  21.27  0.001849698    1.797    0.443
        56 -11.1927     98.8745    128.0981   1.0016752832e+02   3.6323591995e+01    0.3237628    0.2630678 -13.58 0.0008658048    1.647    0.393
        57 -10.2689    125.5318    127.3297   9.3069966270e+01   3.1551151472e+01    0.3318213    0.2376374 -85.73  0.001081044    1.958    0.489
        58  -9.3819    164.3009    205.8816   9.9598085963e+01   8.2794992286e+00    0.1679281     0.160553   0.50 0.0003626933    1.155    0.134
        59 -12.8871     28.6794    121.6717   1.1800861508e+02   4.6945900458e+01    0.5795955    0.3120865 -57.18  0.003151678    1.592    0.372
        60 -10.5818     23.5527    116.5200   1.1868518771e+02   4.8585227533e+01    0.1979515    0.1522763 -76.60 0.0005968332    1.044    0.042
        61 -10.4995     46.0545    171.0161   1.1975289691e+02   3.3859554385e+01    0.4324435    0.2238662  86.34  0.002158304    2.066    0.516
        62  -9.8763    108.0219    120.0410   9.5926909587e+01   3.6569687022e+01    0.2136627    0.2031974 -64.37 0.0003031084    1.006    0.006
        63 -12.1744     43.9050    109.2388   1.1178636466e+02   4.8409261580e+01    0.3782673    0.3250574  80.89  0.001542224    1.222    0.181
        64 -10.2733    167.9677    112.6195   7.9143608129e+01   2.5452573299e+01     0.386611    0.2847323 -80.27  0.001303792    1.987    0.497
        65 -10.2306    205.3303    110.3341   7.0848209900e+01   1.7163046368e+01    0.3507813    0.2841726  20.11  0.001054173    1.377    0.274
        66 -11.2862    119.2864    110.1077   9.0459621800e+01   3.6666752163e+01    0.5372997    0.3510181  69.30  0.002181592    2.247    0.555
        67 -11.2493     22.4064    119.7571   1.1942831056e+02   4.7925616475e+01    0.2559846    0.2213676  88.33 0.0008610025    1.142    0.124
        68  -9.8210    108.0644    203.3727   1.1054530116e+02   1.8392452471e+01    0.1870768    0.1724642 -69.54 0.0004278066    1.242    0.195
        69 -11.5213    241.8191    101.7995   6.2490935148e+01   1.0459470156e+01    0.2593334    0.2368322 -19.00  0.001319249    1.044    0.042
        70  -8.5916     89.6556    101.2893   9.6504778195e+01   4.4117905255e+01     0.145411    0.1132006  81.91 0.0005231782    1.653    0.395
        71  -9.8263    121.5491     98.6660   8.6773301120e+01   3.8731636475e+01     0.255589    0.1907375  68.82 0.0009549047    1.705    0.413
        72  -9.2582     85.9388     99.1275   9.7054127869e+01   4.5223653504e+01    0.2043999    0.1812372 -84.76  0.001128406    1.237    0.192
        73 -10.6125    134.5699    103.7541   8.4756627015e+01   3.4866725460e+01    0.5900381    0.2321641 -43.08  0.002001826    2.480    0.597
        74 -11.8577    244.4510     96.8511   6.0885350089e+01   1.0683995770e+01    0.4677448    0.1680283 -38.90  0.001729212    2.436    0.589
        75 -10.9497     52.6212     94.0039   1.0607757189e+02   5.1027581115e+01    0.3976863    0.2488947  69.12  0.001850327    2.457    0.593
        76  -9.5445    157.4997     80.0382   7.2254732282e+01   3.4320601898e+01    0.2386738    0.1535082 -37.16  0.000483016    1.528    0.346
        77  -9.2004    184.2244     77.5419   6.5897389655e+01   2.8120893184e+01    0.2294317    0.1411002  42.82 0.0009481802    1.738    0.425
        78 -11.8718    193.4108    194.1390   9.1852191321e+01   4.9073707145e+00    0.8243117    0.5000224 -56.60  0.003840548    2.501    0.600
        79 -11.8342      1.9988     61.1542   1.1637244865e+02   6.2497460011e+01    0.4983137     0.123267 -69.17  0.001870026    3.659    0.727
        80 -10.7906     13.4401     59.8740   1.1180153718e+02   6.2144952676e+01    0.2217644    0.1888607 -63.34 0.0004256185    1.170    0.146
        81 -10.8742    150.7787     54.3448   6.5583030718e+01   4.0447276880e+01    0.3986806    0.2894166 -79.38 0.0009217042    1.936    0.483
        82  -8.8159    196.3124    245.2902   9.9606103531e+01  -2.8148574050e+00    0.1173347   0.07644781  18.39 0.0001788228    1.587    0.370
        83 -12.3530    189.8100     39.8844   5.3773560792e+01   3.2523729434e+01    0.7041901    0.5450192  43.35  0.001135826    1.372    0.271
        84 -10.2137     77.1835    235.6097   1.1978864833e+02   1.7034349541e+01     0.190452    0.1563218  81.38 0.0006797024    1.175    0.149
        85 -11.2195    152.1943     47.6110   6.3028609590e+01   4.1132527830e+01     0.382015    0.2993982 -79.37 0.0009690983    1.606    0.377
        86 -10.8436    182.4711    233.9534   1.0044464258e+02   8.8420558775e-01    0.2437041    0.1474666  49.70  0.001381415    1.610    0.379
        87 -10.5814    189.6381     15.1059   4.6477325365e+01   3.5560206191e+01    0.2705278    0.1912813  62.34 0.0005905026    1.330    0.248
        88 -10.1566     71.5589    230.1453   1.2031761708e+02   1.8755358729e+01    0.2344142    0.1441394  52.19  0.000551532    1.307    0.235
        89  -9.7979     60.4436    223.4422   1.2174360647e+02   2.1426601850e+01    0.1772995    0.1358884  82.54 0.0001541611    1.131    0.116
        90 -10.2219     61.7932    220.5617   1.2126473941e+02   2.1788762720e+01    0.2546352    0.1485101  73.39  0.000843172    1.579    0.366
        91 -10.3391    163.5936    214.8967   1.0114708535e+02   6.9243220499e+00    0.2991205    0.2222771 -69.74  0.001541217    1.872    0.466
