#   1 NUMBER                 Running object number                                     
#   2 MAG_AUTO               Kron-like elliptical aperture magnitude                    [mag]
#   3 X_IMAGE                Object position along x                                    [pixel]
#   4 Y_IMAGE                Object position along y                                    [pixel]
#   5 X_WORLD                Barycenter position along world x axis                     [deg]
#   6 Y_WORLD                Barycenter position along world y axis                     [deg]
#   7 A_WORLD                Profile RMS along major axis (world units)                 [deg]
#   8 B_WORLD                Profile RMS along minor axis (world units)                 [deg]
#   9 THETA_WORLD            Position angle (CCW/world-x)                               [deg]
#  10 FWHM_WORLD             FWHM assuming a gaussian core                              [deg]
#  11 ELONGATION             A_IMAGE/B_IMAGE                                           
#  12 ELLIPTICITY            1 - B_IMAGE/A_IMAGE                                       
         1 -13.9761    182.2295     53.0620   4.8493261442e+01   3.2930049836e+01     1.859872     1.094124  32.36  0.005992687    2.608    0.617
         2 -14.6325    202.8400     34.8597   4.0934436472e+01   3.0515044713e+01     1.385598     1.010231 -22.79  0.001483753    1.644    0.392
         3 -14.3196    226.0905      8.7458   3.2669975537e+01   2.8338581370e+01    0.8845661    0.7818474 -74.55  0.004048207    1.144    0.126
         4 -13.4038     59.1693      4.5071   6.0067281963e+01   6.6421310134e+01    0.5709996    0.3686455  26.34  0.003446157    1.348    0.258
         5 -13.7244     44.1658      4.9696   6.6216252660e+01   6.8898212207e+01    0.6236859    0.4143675  49.09  0.003788053    1.845    0.458
         6 -10.1083    167.9732    231.2991   9.1854075298e+01   2.0971019464e+00    0.1823636    0.1492503  25.43  0.000413838    1.054    0.051
         7 -16.9945     70.6513    146.2004   1.0108990067e+02   3.6607782093e+01     17.49472     8.736817  80.85    0.0270917    6.959    0.856
         8 -11.0485     26.1756    203.3412   1.1912846738e+02   2.8177623120e+01    0.3633125    0.1525482  48.54  0.001810451    2.111    0.526
         9 -10.7080     21.2812    203.4117   1.2016455939e+02   2.8656425023e+01    0.2041689    0.1430851 -66.50   0.00067255    1.447    0.309
        10 -17.8308      1.4877     94.2203   1.1409456268e+02   5.6090541123e+01     15.14138          nan -70.14   0.01844497   30.117    0.967
        11  -9.3086     71.5102    215.4714   1.1047116014e+02   2.0068163046e+01    0.1295163     0.110864  66.70 1.469292e-05    1.002    0.002
        12 -12.0612    193.5692    195.9105   8.0446689417e+01   4.0407245759e+00     1.040399    0.5708011 -64.25  0.003259748    5.449    0.816
        13 -12.0434     62.5015    200.0090   1.1079293258e+02   2.4688718791e+01    0.3991909    0.2084256 -62.65  0.001261652    1.864    0.464
        14 -11.2025     66.0273    194.9441   1.0939456159e+02   2.5381036748e+01    0.2859927    0.2671146 -83.67 0.0008214314    1.137    0.120
        15 -11.6819    203.3023    200.0844   7.9280169589e+01   1.6801833916e+00    0.3597027    0.1635106  23.78  0.001357788    3.045    0.672
        16 -13.1444     50.8756    195.4051   1.1295829681e+02   2.7208165985e+01    0.4424508    0.3360276 -28.86  0.001391668    1.950    0.487
        17  99.0000     63.0113    213.9983   1.1216549463e+02   2.1519657686e+01    0.4532891    0.2004245 -77.54  0.001736761    2.586    0.613
        18 -10.1311     82.2110    194.9655   1.0558286737e+02   2.3108647310e+01    0.2365419    0.1953537  43.26  0.001006528    1.189    0.159
        19 -12.8932    148.6695    189.0942   8.8918674019e+01   1.3329350882e+01     0.832438    0.4977016 -75.36  0.003029986    3.417    0.707
        20  -9.1981     65.5048    206.9585   1.1087818532e+02   2.2733425442e+01    0.3178456    0.2418469 -47.52  0.001404444    1.606    0.377
        21 -11.1124     34.8447    190.8896   1.1617306036e+02   3.0086846882e+01    0.2859383    0.1727492  61.89 0.0004848368    1.568    0.362
        22 -11.2458     61.9336    250.4148   1.1564296988e+02   1.4324012200e+01    0.3590327    0.1467486  35.53  0.001790484    2.235    0.552
        23 -13.4739     62.0856    183.3495   1.0892184105e+02   2.8619666548e+01    0.8398256    0.7037855 -27.12  0.003597825    1.581    0.367
        24  -9.8091     70.5425    184.9837   1.0706698420e+02   2.7095119172e+01    0.1889075    0.1594961 -85.08 2.499355e-05    1.106    0.096
        25 -11.0273     57.2230    211.3918   1.1316184449e+02   2.2831236956e+01     0.339467    0.2663006  43.73 0.0006875205    1.256    0.204
        26 -11.4511     55.4938    206.1718   1.1302181751e+02   2.4200578384e+01     0.329044    0.2248449 -86.84 0.0009491281    1.397    0.284
        27 -11.7029    186.8702    174.9965   7.7693231643e+01   9.1346522728e+00    0.3951995     0.334775 -46.89  0.001088358    1.270    0.213
        28 -11.0568    184.5642    212.2832   8.5292407259e+01   2.6641092972e+00    0.2467875    0.1305786 -46.70  0.001149145    2.121    0.528
        29 -11.2599    147.3116    173.2621   8.6206133586e+01   1.6957909551e+01    0.5560602    0.3222213 -73.08  0.001566715    3.495    0.714
        30 -11.6632    240.2868    169.5512   6.6376561726e+01   7.9533154631e-01    0.2278184    0.1298389  45.07 0.0008362446    2.068    0.516
        31 -11.3089     47.2497    171.6835   1.1115981438e+02   3.3264746114e+01    0.4840226    0.3845509 -70.76  0.002790403    1.155    0.134
        32 -11.8674     51.6672    164.3739   1.0909590061e+02   3.4535486351e+01    0.4341034    0.2035711 -47.71  0.001837277    2.386    0.581
        33 -10.4141    135.2516    165.2179   8.7504875707e+01   2.1031884659e+01    0.3585107    0.2199792  54.24  0.001455232    1.878    0.467
        34 -10.0564    133.1550    162.3922   8.7448802312e+01   2.2074340798e+01    0.2547432    0.2109393  68.33  0.001228949    1.386    0.279
        35  -9.3244     58.6287    225.8651   1.1422669058e+02   1.9572231520e+01     0.372028    0.1501396  58.40  0.001603814    2.694    0.629
        36 -12.6258     92.6727    150.9845   9.5809590505e+01   3.2050908176e+01    0.7171477    0.5406607 -20.67  0.002820155    1.753    0.430
        37 -11.9445    133.8606    145.5591   8.3648415851e+01   2.5819758061e+01     1.219284    0.3266854 -54.83  0.002825803    5.686    0.824
        38 -10.8718     89.3127    211.1676   1.0603097861e+02   1.8462415420e+01    0.2369401    0.1935065  70.85 0.0005459447    1.173    0.147
        39 -10.3919    174.8744    149.1489   7.4683162837e+01   1.6681344337e+01     0.229062    0.2128769 -79.04 0.0005435648    1.244    0.196
        40 -11.1063    105.1438    137.5557   8.9555666252e+01   3.3200185195e+01    0.5303082    0.3206586 -26.35  0.002004266    2.506    0.601
        41 -11.3207    106.0061    130.7846   8.7776551172e+01   3.4683872763e+01    0.4156879    0.3312165 -62.29  0.001194704    1.284    0.221
        42 -12.3859     92.8239    137.0219   9.2937076893e+01   3.5478287019e+01     0.300622    0.2689024 -42.30  0.000416409    1.123    0.109
        43 -11.1249    163.8710    209.8478   8.9220706422e+01   6.5645961770e+00    0.2621067    0.1553151  29.28  0.001075622    1.654    0.396
        44 -11.1912    136.0000    129.3921   7.9289017007e+01   2.9101487635e+01    0.5300152   0.08854268 -46.75  0.001150086    5.872    0.830
        45 -11.1853    113.2915    128.6820   8.5227818368e+01   3.3819876993e+01    0.3245649    0.2750609   4.12 0.0007076739    1.384    0.277
        46 -11.0522    100.5591    124.7115   8.7917376375e+01   3.7141291884e+01     0.285265    0.2379651  -8.21  0.000606261    1.424    0.298
        47 -11.4571    119.7953    122.9903   8.2027728114e+01   3.3886589261e+01    0.3524049    0.2710785   9.15  0.001590351    1.665    0.399
        48 -10.7930    135.0000    120.0318   7.7195429150e+01   3.1427283507e+01    0.3812535   0.08863032 -45.69 0.0009686513    4.213    0.763
        49 -10.0877    109.0174    118.0565   8.3825797036e+01   3.7152313067e+01    0.2235971    0.2172553 -34.35  0.001191884    1.012    0.012
        50 -10.6609    231.3282    113.8358   5.5826345202e+01   1.1973907509e+01    0.2397322    0.2320132 -78.81 0.0008278225    1.152    0.132
        51  -9.5711    167.9582    112.7226   6.7353566839e+01   2.5736563499e+01    0.2832246    0.1679667 -72.45 0.0008931986    3.597    0.722
        52 -10.1606    205.5136    110.2238   5.9265314705e+01   1.7914572007e+01    0.2538522    0.2077611  50.29  0.000684363    1.321    0.243
        53 -11.9528    117.1636    108.3561   7.8955432610e+01   3.7771520159e+01    0.5992785    0.4439289 -19.97  0.002689223    1.645    0.392
        54  -9.4000     60.3880    218.9317   1.1321440840e+02   2.0801667689e+01    0.1664891   0.08953065  76.44 0.0005072113    2.174    0.540
        55 -11.1566     41.6519    207.3717   1.1615545379e+02   2.5598261604e+01    0.4100326    0.1936181  80.10  0.001840612    2.539    0.606
        56  -9.9152    135.0761    102.9575   7.2609941532e+01   3.5146174085e+01    0.2550453    0.1964311  -1.43  0.001132438    1.703    0.413
        57 -18.4043     14.1427    234.9675   1.2352997213e+02   2.2763664237e+01     8.294395     4.845602 -85.24   0.04933648    1.501    0.334
        58  -9.6710    184.5147     77.4446   5.4678379227e+01   2.8523431684e+01    0.1440093    0.1411471 -64.23 0.0001171218    1.050    0.048
        59 -11.5831     72.0209    245.8846   1.1332118293e+02   1.3863665802e+01    0.3662556    0.1761938 -68.81  0.001942559    2.266    0.559
        60 -13.7655    196.5307     41.6452   4.3421955119e+01   3.1108802695e+01    0.7485197    0.6549196   7.48  0.003942354    1.494    0.331
        61 -10.2845     75.8067    246.1911   1.1260663795e+02   1.3300568282e+01    0.3171487   0.07371863 -60.92  0.001215327    4.324    0.769
        62 -10.8106     49.2195    217.3131   1.1542188599e+02   2.2541440490e+01    0.4066829    0.3055781  58.31  0.002594927    1.143    0.125
        63 -11.4449     78.8547    236.8443   1.1111625857e+02   1.4677945922e+01    0.2500836    0.1975265 -56.61 0.0007925745    1.507    0.336
