#   1 NUMBER                 Running object number                                     
#   2 MAG_AUTO               Kron-like elliptical aperture magnitude                    [mag]
#   3 X_IMAGE                Object position along x                                    [pixel]
#   4 Y_IMAGE                Object position along y                                    [pixel]
#   5 X_WORLD                Barycenter position along world x axis                     [deg]
#   6 Y_WORLD                Barycenter position along world y axis                     [deg]
#   7 A_WORLD                Profile RMS along major axis (world units)                 [deg]
#   8 B_WORLD                Profile RMS along minor axis (world units)                 [deg]
#   9 THETA_WORLD            Position angle (CCW/world-x)                               [deg]
#  10 FWHM_WORLD             FWHM assuming a gaussian core                              [deg]
#  11 ELONGATION             A_IMAGE/B_IMAGE                                           
#  12 ELLIPTICITY            1 - B_IMAGE/A_IMAGE                                       
         1  -8.9226    249.7621      5.5161   5.7746671841e+01   2.1510141848e+01    0.3933117    0.1973772 -65.64  0.001935569    1.981    0.495
         2  -9.6375    249.7814     13.0289   5.9416283508e+01   2.0701483502e+01    0.2774968    0.1793174 -24.83  0.001069022    1.723    0.420
         3  -9.1908    148.4342     15.7178   7.2205667501e+01   4.6203800406e+01     0.404887    0.1919541  47.02  0.001451988    1.960    0.490
         4  -8.8382     93.7022     14.6569   8.4422851761e+01   5.9517465502e+01    0.4347631    0.2819838  31.32   0.00227975    1.444    0.307
         5  -8.9449    162.4592      9.6514   6.7906514017e+01   4.3103584239e+01    0.2519963     0.194855 -56.64  0.001347102    1.423    0.297
         6  -8.6779     95.3645      6.9419   8.0543292208e+01   5.9951140188e+01     0.324449    0.2650845 -10.33  0.001955877    1.256    0.204
         7  -8.1602    102.7748      7.9064   7.8984304013e+01   5.8208712890e+01    0.2451957    0.2057933  65.81  0.001442667    1.323    0.244
         8  -8.0300     81.3225      7.6873   8.5073320683e+01   6.2820643230e+01    0.1176128    0.1038822 -63.90 0.0007039431    1.656    0.396
         9  -7.6203    230.2836      5.3523   5.9202293239e+01   2.6071118279e+01    0.1242702   0.09644804  38.14 0.0007018226    1.659    0.397
        10  -8.4490    153.7821      5.0978   6.7719450892e+01   4.5799977627e+01     0.294306    0.1597475 -77.80  0.001171497    2.667    0.625
        11  -7.9226     53.0221      3.5226   9.3430545565e+01   6.8369496603e+01    0.1471685    0.1110611  67.52 0.0008101573    2.566    0.610
        12  -8.4802    214.2540      2.0279   5.9755927221e+01   3.0334729411e+01    0.1882738    0.1654802 -78.80  0.001168048    1.037    0.035
        13  -8.3715     47.4968      2.5003   9.5275189653e+01   6.9342474106e+01    0.1226164   0.09556556   3.42 0.0008106731    1.009    0.009
        14  -7.9685    159.6241      2.8221   6.6114410551e+01   4.4460522600e+01    0.1858507    0.1234197 -37.17 0.0007986811    1.651    0.394
        15  -7.6698    118.1626      1.3907   7.2715630544e+01   5.5154894140e+01    0.1819389    0.1222526  74.97 0.0003686867    1.613    0.380
        16  -7.8868    106.2120     99.4263   1.1059996741e+02   4.2259026504e+01      0.29081    0.1465131  38.02  0.001147089    2.087    0.521
        17  -8.0220     81.6539    100.2906   1.1824917832e+02   4.6380079835e+01    0.1429431    0.1099567  75.80  0.000484123    1.660    0.398
        18  -9.6930     33.4942     96.8101   1.3288088922e+02   5.3089967346e+01    0.3993601      0.32645  58.38  0.002566235    1.395    0.283
        19  -9.1346     73.5343     91.3710   1.1859548798e+02   4.9630521616e+01    0.2780052    0.2293927  -8.99  0.001532474    1.411    0.291
        20  -9.8316     70.1057     95.5587   1.2074667514e+02   4.9182889456e+01    0.3200584    0.2307047  78.83  0.001573611    1.937    0.484
        21  -7.5299    159.2955     97.6515   9.6039644195e+01   3.0850463447e+01    0.1618813    0.1261733 -76.33 0.0007032981    1.677    0.404
        22  -8.8995     61.0270     91.5102   1.2273834808e+02   5.1325332411e+01    0.2493334    0.1382062  24.64  0.001158306    2.174    0.540
        23  -7.5833    139.9016     86.4920   9.7575931282e+01   3.7672383970e+01    0.2287122    0.1529006  49.47 0.0004002511    1.472    0.321
        24  -7.2592     92.6453     86.2923   1.1107827926e+02   4.7628565317e+01    0.1453197     0.116064  80.05 0.0007029708    1.684    0.406
        25  -8.2785    105.7517     71.9986   1.0263079449e+02   4.8059438491e+01    0.5544522    0.1767654 -43.00  0.001793168    3.109    0.678
        26  -9.1823    242.0311     70.8847   7.3888271689e+01   1.5080307116e+01    0.3008214    0.1746486  44.45  0.001382208    1.989    0.497
        27  -8.6492    124.0879     68.2153   9.6065128982e+01   4.4805622836e+01    0.3826044     0.222415  62.12  0.001506935    2.196    0.545
        28  -8.7762    248.9573     64.5223   7.1484345396e+01   1.4426135637e+01    0.2233598     0.173839 -37.62  0.001249287    1.180    0.153
        29  -8.2441     47.7132     64.5569   1.2040550200e+02   5.8815959464e+01    0.2290757     0.188453 -39.25 0.0007915527    1.045    0.043
        30  -9.5968     32.2375     63.4495   1.2608196807e+02   6.0596028993e+01    0.4936729    0.2311594  34.13  0.002475461    2.471    0.595
        31  -8.3146     70.2052     62.2082   1.1127733195e+02   5.6328976371e+01    0.1819455    0.1680559 -82.99  0.001082713    1.372    0.271
        32  -7.7465     76.0014     54.0046   1.0637061423e+02   5.6991626481e+01    0.1707025    0.1538185  -9.81 0.0007245916    1.018    0.018
        33  -7.2043    134.6921     53.6799   8.8383057831e+01   4.4775905492e+01    0.1583304      0.11446  20.17 0.0004385257    1.640    0.390
        34  -8.1271     57.5321     45.6882   1.1035999365e+02   6.1324077383e+01    0.2543965    0.1957763   9.75  0.001501918    1.333    0.250
        35  -8.0942     52.1257     44.1140   1.1197056275e+02   6.2332496655e+01    0.2030355    0.1537325 -17.40 0.0006912509    1.245    0.197
        36  -8.1076     85.7386     43.4437   9.8998617646e+01   5.7133783561e+01    0.1963275    0.1242411  30.41 0.0009492004    1.627    0.385
        37  -8.3183    104.3081     42.6707   9.2724916709e+01   5.3521193162e+01    0.2414874    0.1384098  56.74  0.001044962    1.988    0.497
        38  -8.1837      7.8183     39.6810   1.2998659422e+02   6.7189792695e+01    0.2456481    0.1058459  39.30  0.001212166    3.424    0.708
        39  -8.0717    143.6462     39.1975   8.1291541197e+01   4.4665245095e+01    0.2122478    0.1903709  67.29  0.001135901    1.129    0.114
        40  -9.0587    238.4993     34.2692   6.5386325329e+01   2.0839440751e+01    0.3179401    0.2653743 -22.73  0.001864031    1.338    0.253
        41  -8.3921     42.6256     31.9806   1.1136984548e+02   6.5674385610e+01     0.309808    0.1560302  10.34  0.001363334    2.993    0.666
        42  -8.0059    176.0000     27.9014   7.1582596838e+01   3.7571219833e+01    0.3877192   0.08467686 -25.97  0.001054844    4.966    0.799
        43  -8.3944      5.1413     28.2019   1.2785865696e+02   6.9550278739e+01    0.2629985    0.1031777 -47.51  0.001435209    1.799    0.444
        44  -7.8864     94.7335     27.9748   8.9803186746e+01   5.7671445502e+01    0.1755741     0.116411 -24.72 0.0008871098    1.519    0.342
        45  -7.4897    185.4734     26.5034   6.9749023271e+01   3.5215170663e+01    0.1450678    0.1332828  76.36 -0.0001046011    1.009    0.009
        46  -8.1974    244.3096     28.3356   6.3399690552e+01   2.0202301898e+01    0.1269441    0.1006571  31.22 0.0003296566    1.679    0.404
        47  -8.0028     14.4507     23.0898   1.2137151189e+02   6.9911165707e+01    0.1744629   0.08893447 -47.55   0.00101507    1.562    0.360
        48  -7.3453    115.5971    245.1990   1.3308945169e+02   1.0930908413e+01    0.1295432    0.1123076 -49.09 0.0006196164    1.585    0.369
        49  -7.4550     80.1467    182.1121   1.3314980715e+02   2.8047802938e+01    0.1729583    0.1284066  73.46            0    1.264    0.209
        50  -8.7873    202.4008     19.2140   6.5487261527e+01   3.1593405801e+01    0.2024434    0.1182095 -41.80 0.0009395579    1.701    0.412
        51  -7.3220    193.0003    173.0265   1.0656510327e+02   9.0832786378e+00    0.1740786    0.1543228  25.84 0.0004798278    1.003    0.003
        52  -8.4057    219.0501     13.1983   6.2129998038e+01   2.8007396475e+01    0.2388664    0.1322333 -71.77  0.001088272    1.988    0.497
        53  -8.4387    115.9675     13.5322   7.8054259097e+01   5.4585450363e+01     0.212213   0.08575474  40.58 0.0008084172    2.435    0.589
        54  -8.0932     96.8632    165.7833   1.2696255617e+02   2.8979794514e+01    0.1958033     0.190022  36.00 0.0006087673    1.206    0.171
        55  -8.8407     25.0970    158.4317   1.4312647902e+02   3.9826727595e+01    0.2660114   0.06777133  40.28  0.001139275    3.311    0.698
        56  -7.4728    121.6705    154.6788   1.1898315049e+02   2.7022930049e+01    0.1440772     0.117323  -3.72   0.00070487    1.692    0.409
        57  -9.3507    156.2488    149.6407   1.0967111472e+02   2.1090426112e+01    0.3948274    0.3209789  44.83  0.001687466    1.155    0.134
        58  -7.3247    123.4305    148.5236   1.1734305922e+02   2.8023731871e+01    0.1467608    0.1380413  67.21 0.0001310289    1.019    0.018
        59  -7.2831      3.0061    112.0142   1.4416957904e+02   5.1832726890e+01    0.1389776     0.105405 -77.49 0.0003110616    1.023    0.023
        60  -7.9101    177.0863    110.1549   9.5409440417e+01   2.4145695989e+01    0.2380221    0.2102266  20.84 0.0004665809    1.188    0.158
        61  -8.8973    161.1062    107.9979   9.8447076937e+01   2.8393790818e+01    0.4369648    0.3958739 -10.25  0.002214308    1.182    0.154
        62  -9.5790     25.4563     98.3289   1.3570324126e+02   5.3415050048e+01     0.270188    0.2334342  82.83  0.001419654    1.211    0.174
        63  -7.4486    174.3251    103.3315   9.4195085925e+01   2.6102604448e+01    0.1649822    0.1236539  13.89 0.0007050769    1.706    0.414
        64 -10.1039    125.5073     99.4918   1.0514967452e+02   3.8292115266e+01    0.9146118    0.4153415 -37.00  0.003250068    2.478    0.596
