#   1 NUMBER                 Running object number                                     
#   2 MAG_AUTO               Kron-like elliptical aperture magnitude                    [mag]
#   3 X_IMAGE                Object position along x                                    [pixel]
#   4 Y_IMAGE                Object position along y                                    [pixel]
#   5 X_WORLD                Barycenter position along world x axis                     [deg]
#   6 Y_WORLD                Barycenter position along world y axis                     [deg]
#   7 A_WORLD                Profile RMS along major axis (world units)                 [deg]
#   8 B_WORLD                Profile RMS along minor axis (world units)                 [deg]
#   9 THETA_WORLD            Position angle (CCW/world-x)                               [deg]
#  10 FWHM_WORLD             FWHM assuming a gaussian core                              [deg]
#  11 ELONGATION             A_IMAGE/B_IMAGE                                           
#  12 ELLIPTICITY            1 - B_IMAGE/A_IMAGE                                       
         1 -14.0876     68.5598    144.3562   9.8672083767e+01   3.7655868502e+01     4.758477     2.207213  65.02  0.006301433    5.334    0.813
         2 -13.3875    201.6456     42.1160   4.1501198721e+01   2.9919201354e+01     1.215037     1.021092 -39.75  0.004776571    1.292    0.226
         3 -13.6146    212.4512     31.7354   3.7896436444e+01   2.8837892256e+01    0.9262224    0.8112258  34.50  0.002166106    1.594    0.372
         4 -12.3332    241.2377      6.2876   3.0227509361e+01   2.5731019300e+01    0.6827039    0.4237359 -46.41  0.004452311    1.432    0.301
         5 -12.1066    234.7957      6.7960   3.0758433581e+01   2.6979369522e+01    0.6714378    0.2968219 -42.92  0.003705479    1.943    0.485
         6  -8.7728     59.3227      7.3046   5.9744757524e+01   6.5941266474e+01    0.1271643   0.07686645  22.80 0.0003690425    1.638    0.390
         7 -11.3958    184.4827    212.9922   8.2374696935e+01   2.5701616095e+00     0.493016    0.2925284 -11.40  0.002137961    2.606    0.616
         8  -9.5536    140.7190    250.4265   9.7155366835e+01   2.9482181751e+00    0.2539932   0.09922389  40.19 0.0008331341    2.127    0.530
         9  -9.9580    102.0000    249.0386   1.0498694443e+02   8.9737842466e+00    0.2440072    0.1797515 -77.38  0.001088546    1.596    0.373
        10 -10.8458    101.3979    243.9437   1.0455248900e+02   1.0014666678e+01    0.4581988    0.2239909 -68.66  0.002177896    2.601    0.616
        11 -15.3179     41.7067    195.7812   1.1275006649e+02   2.8462317678e+01     7.804891     2.589064  62.09    0.0218413    6.051    0.835
        12 -13.3325     52.6656    186.6501   1.0912812848e+02   2.9299869145e+01     1.453275     1.072955  72.30  0.008152857    1.296    0.228
        13 -10.8859    192.6429    193.9101   7.7263091010e+01   4.6492566536e+00    0.7174847    0.4292672 -71.49  0.002301262    5.360    0.813
        14  -9.8779    122.2509    198.6153   9.3754839722e+01   1.5984415928e+01    0.3747346    0.2553016 -72.85  0.001511447    1.815    0.449
        15  -8.8683     67.8512    199.8582   1.0698544440e+02   2.4188370259e+01    0.1876192    0.1833499 -68.92 0.0005411177    1.209    0.173
        16  -9.0848     82.3830    195.0348   1.0285801353e+02   2.3221785817e+01    0.2351722    0.1970569  25.60  0.001060956    1.340    0.254
        17 -15.4196      6.2363    173.5358   1.1922995639e+02   3.7212184164e+01     12.16553     1.114493 -75.22   0.02816926    8.720    0.885
        18 -14.8522      9.5762    207.5129   1.2084962600e+02   2.9143417444e+01     1.291716     1.062315 -19.27  0.008624687    1.898    0.473
        19  -8.9845    118.6069    191.2252   9.3422621401e+01   1.8241903657e+01     0.196758    0.1345999 -45.65   0.00056712    1.584    0.369
        20 -10.0423    147.8498    188.2094   8.5947785047e+01   1.3710609101e+01     0.464743     0.302141 -81.90  0.001847372    2.816    0.645
        21  -8.8196     85.0375    185.9442   1.0091906929e+02   2.4957213644e+01    0.2396514     0.160222  71.34  0.001128334    1.735    0.424
        22  -8.1446     75.7179    184.3362   1.0304599725e+02   2.6732867483e+01    0.1469415    0.1000467  71.59 0.0006524595    1.620    0.383
        23  -8.9030     82.5051    182.4470   1.0104764086e+02   2.6177340864e+01    0.2507737    0.1944021 -37.61 0.0007632759    1.564    0.361
        24  -8.7540     79.1834    181.5948   1.0177194242e+02   2.6881211879e+01    0.2933545    0.2195841  76.84  0.001513169    1.417    0.294
        25  -9.6289     99.4453    180.7736   9.6464784819e+01   2.3892281414e+01    0.2663845    0.2455082  47.84  0.000571663    1.066    0.062
        26  -8.5012     88.4839    178.4829   9.8908973667e+01   2.6206291139e+01    0.1447787    0.1341161  73.83 0.0001516366    1.011    0.011
        27  -9.1542     89.0660    210.6496   1.0331411298e+02   1.8682533046e+01    0.2130941    0.1731753  86.54  0.001221268    1.258    0.205
        28 -10.1935    186.9691    175.3787   7.4833294029e+01   9.1531341687e+00    0.3510825     0.302663 -58.63  0.001144142    1.336    0.251
        29  -8.4901     91.2872    176.6512   9.7892367691e+01   2.6202470088e+01    0.1520983    0.1075283  74.07 0.0004627158    1.659    0.397
        30 -10.6671    234.2373    173.9270   6.5594084453e+01   1.3170916609e+00     0.264413    0.1665865 -22.40  0.001374156    1.633    0.388
        31 -11.9693     80.4646    159.0717   9.7864450466e+01   3.2210052174e+01    0.9599607    0.5198636  62.33 0.0004216727    2.569    0.611
        32 -12.8621     68.5363    154.2689   1.0038916978e+02   3.5170889887e+01    0.6422749    0.4372919 -53.24 0.0009102236    1.437    0.304
        33  -8.0537    224.2942    206.3673   7.3463161031e+01  -2.4965932271e+00    0.1346289   0.08731232  -7.58 0.0007028657    1.719    0.418
        34  -9.9496     33.4970    156.1346   1.1047702001e+02   3.8969844746e+01    0.2486242    0.2081337  55.35 0.0007468773    1.219    0.179
        35 -11.5059     87.6815    152.5781   9.4689377120e+01   3.2682614679e+01    0.6442072    0.4807183 -13.75  0.002984336    1.896    0.473
        36 -10.5507    133.6593    144.7207   8.0631612366e+01   2.6138425246e+01     1.115389    0.3011881 -54.96  0.002675295    5.378    0.814
        37  -8.7123    111.9972    150.1972   8.7511562817e+01   2.9032886583e+01    0.2553949    0.1700744  65.89  0.001064711    1.955    0.488
        38  -9.3766    174.5484    149.1490   7.1956364535e+01   1.6843274823e+01    0.2776164     0.217393  44.10 0.0006978683    1.307    0.235
        39 -10.1665     54.0946    148.1645   1.0353505074e+02   3.8630952759e+01    0.6531622    0.2363685 -58.95  0.002493867    2.406    0.584
        40 -10.4323     58.3939    145.8058   1.0190198733e+02   3.8676314209e+01    0.3565554     0.254973 -73.17  0.001679118    1.350    0.259
        41 -10.4297    101.7956    138.6463   8.7892218570e+01   3.3690608524e+01    0.5724106    0.3635392 -21.58  0.002189786    2.580    0.612
        42 -11.5338     89.0728    138.0217   9.1423896304e+01   3.6056888133e+01    0.2964469    0.2665745 -39.48 0.0003716744    1.156    0.135
        43  -9.7940     26.1678    137.7088   1.1019758889e+02   4.4260387113e+01    0.3247925    0.2045146  42.00  0.001102594    1.706    0.414
        44 -10.1639    106.0447    130.9199   8.4964858128e+01   3.4772468919e+01    0.4155052    0.3713989 -62.78  0.001412632    1.119    0.106
        45  -9.6391    111.0933    129.3609   8.3175857765e+01   3.4185038076e+01    0.3139554    0.2476613  -6.95 0.0009016502    1.663    0.399
        46 -10.6243    135.0707    127.9382   7.6381550297e+01   2.9677723053e+01    0.6038628     0.343041 -49.89  0.002460507    1.771    0.435
        47 -11.4922     71.8333    167.5115   1.0159532979e+02   3.1399200360e+01    0.5252736    0.2984778 -56.00  0.001434577    1.708    0.414
        48  -9.0088    160.5189    128.0120   7.0225874279e+01   2.4230662842e+01    0.2208404     0.132549 -66.49 0.0008097865    2.501    0.600
        49 -10.5664    240.2503    169.4072   6.3700443765e+01   1.1297613939e+00     0.222694     0.150241 -45.24 0.0007139886    1.474    0.321
        50 -10.2666     98.2344    125.2479   8.5917544462e+01   3.7569435220e+01    0.3102134    0.2689955  -3.28 0.0007258052    1.344    0.256
        51  -9.1937     34.9714    171.9459   1.1192818341e+02   3.4917271469e+01     0.203876    0.1707454  84.11 0.0005179306    1.048    0.046
        52 -10.0318    117.5290    123.6765   8.0025174636e+01   3.4251450273e+01    0.3827358      0.24237  11.47  0.001371882    2.861    0.650
        53  -8.4729    163.4911    121.4528   6.7970285015e+01   2.4963614536e+01    0.1527346    0.1471144 -75.54 0.0004661409    1.046    0.044
        54  -9.9025     67.1172    126.6961   9.5733549596e+01   4.2273853565e+01    0.5460999    0.2892917 -61.65  0.002330116    1.830    0.454
        55  -9.2109    107.4724    118.4062   8.1575382386e+01   3.7453506534e+01    0.2467339    0.2208007  24.24 0.0004062519    1.183    0.155
        56  -8.9098     85.2668    119.1247   8.8407309968e+01   4.1305755771e+01    0.2813842    0.1871428  64.44 0.0007556697    2.033    0.508
        57 -10.2276    231.3968    113.7706   5.3660418717e+01   1.2242677782e+01    0.2752218    0.2592145  63.56  0.000833994    1.198    0.165
        58 -10.8787     53.0402    109.3358   9.6674336031e+01   4.8408633674e+01    0.5171856    0.1847099 -55.63   0.00194786    2.431    0.589
        59  -9.3862    205.5033    110.1816   5.7002921036e+01   1.8072178574e+01    0.2950229    0.2100395  44.18  0.001132526    1.562    0.360
        60  -9.7650    115.2286    109.0035   7.6960807421e+01   3.8050411079e+01    0.2858814    0.2095398  24.64  0.001295268    1.603    0.376
        61  -9.6178     33.8919    108.6807   1.0309086924e+02   5.0690517200e+01    0.2516567     0.162434 -51.24    0.0013221    1.364    0.267
        62  -9.9017    248.5056    105.9919   4.9636135572e+01   1.0373629127e+01    0.1816039    0.1078863 -19.49 0.0008106259    2.586    0.613
        63  -8.9545    134.7678    105.9695   7.0900298992e+01   3.4557554614e+01    0.2105904    0.1283659 -43.90 0.0006288522    1.643    0.391
        64 -10.4212     37.1730    101.5288   1.0052723313e+02   5.2078746567e+01    0.3059192    0.2198789  50.41  0.001651373    1.657    0.397
        65 -11.6061    196.5667    204.3976   7.8405097832e+01   2.1218227396e+00    0.5353185    0.2381088  25.63  0.002072171    2.933    0.659
        66 -11.4805     67.2284    172.4425   1.0355739442e+02   3.0833148659e+01    0.4759513    0.3217867 -33.75  0.002258276    2.000    0.500
        67 -14.0998     19.5804    220.5238   1.1960777637e+02   2.5335135776e+01    0.9612992    0.7209399  62.31  0.003602466    1.101    0.092
        68  -8.5071     75.2731     85.3954   8.2927983134e+01   5.0683830943e+01    0.1914727    0.1332235  45.39 0.0005452972    1.560    0.359
        69  -8.9928    159.2315     83.0276   5.8989459886e+01   3.3477868212e+01    0.1959565    0.1235013 -39.58   0.00045256    1.607    0.378
        70  -8.9774    151.0640     82.8861   6.0710799463e+01   3.5418979791e+01    0.2322472    0.1937561 -81.41 0.0005320153    1.340    0.254
        71  -8.2008     69.1992     81.3828   8.3892800863e+01   5.2515361419e+01    0.1836573    0.1288716  45.90 0.0003930028    1.591    0.371
        72  -8.7399    109.9610     79.9819   7.0292987870e+01   4.5222177024e+01     0.223068    0.1824319  86.84 0.0005910714    1.582    0.368
        73  -8.3380     58.3515     67.2593   8.3609320423e+01   5.7049355660e+01    0.1376621   0.09831969  -6.90 0.0002826766    1.608    0.378
        74 -11.1491     12.9190     59.4691   1.0036297003e+02   6.3509041278e+01    0.3812939    0.2874897  80.83  0.001443639    2.014    0.503
        75 -12.9882    191.7202     49.4056   4.4556644200e+01   3.1202836842e+01      1.05981    0.7998266  48.90  0.001140274    1.502    0.334
        76  -9.5854    107.6050    203.8310   9.8027470308e+01   1.7281319787e+01    0.1906645    0.1329548 -77.70 0.0009237597    1.696    0.410
        77  -8.1045    120.5075    165.5190   8.8339222326e+01   2.3818067157e+01    0.1498506    0.1458592  64.13 9.807397e-05    1.002    0.002
        78  -9.5529    111.0074    203.2747   9.7140359424e+01   1.6847908792e+01    0.1977099     0.171553  51.58 0.0004287492    1.067    0.063
        79 -17.0392     14.4915    242.4698   1.2188716408e+02   2.1337940854e+01      5.52657     2.098979  26.35   0.02554458    3.490    0.713
        80  -9.7556    119.9537    244.5503   1.0072600331e+02   7.1273131151e+00    0.1796679    0.1682016 -76.60 0.0005457997    1.238    0.192
        81 -10.6790    119.6689    214.0391   9.6715221289e+01   1.3130865394e+01    0.4224176    0.2547467 -63.28  0.002037764    1.921    0.479
        82  -9.1220    198.4031     23.3134   3.7444142929e+01   3.3021737633e+01    0.2124185    0.1248894 -27.92 0.0009983452    2.028    0.507
