#   1 NUMBER                 Running object number                                     
#   2 MAG_AUTO               Kron-like elliptical aperture magnitude                    [mag]
#   3 X_IMAGE                Object position along x                                    [pixel]
#   4 Y_IMAGE                Object position along y                                    [pixel]
#   5 X_WORLD                Barycenter position along world x axis                     [deg]
#   6 Y_WORLD                Barycenter position along world y axis                     [deg]
#   7 A_WORLD                Profile RMS along major axis (world units)                 [deg]
#   8 B_WORLD                Profile RMS along minor axis (world units)                 [deg]
#   9 THETA_WORLD            Position angle (CCW/world-x)                               [deg]
#  10 FWHM_WORLD             FWHM assuming a gaussian core                              [deg]
#  11 ELONGATION             A_IMAGE/B_IMAGE                                           
#  12 ELLIPTICITY            1 - B_IMAGE/A_IMAGE                                       
         1 -12.4299     75.2769     52.0411   7.8850998329e+01   5.7324086404e+01     1.432426    0.8669128 -48.38  0.006873819    1.846    0.458
         2 -13.1537     42.0387     45.6541   8.9681064966e+01   6.3254903075e+01      1.14214    0.6172854  42.70 0.0005009638    2.494    0.599
         3 -12.0325    124.9724     27.9628   5.5080908788e+01   5.0533343332e+01    0.8564601    0.3908032  46.16  0.002128921    2.031    0.508
         4 -12.4097    120.3461     57.5452   6.6689059029e+01   4.7373420197e+01     1.931148     1.270252 -71.33  0.007648067    2.766    0.639
         5 -11.6740    137.5397     23.0785   5.0741941282e+01   4.8067537209e+01     1.035029    0.5491329  56.60  0.004677373    1.670    0.401
         6 -11.8389    152.2487     24.4179   4.8502381847e+01   4.4292878048e+01     1.571659    0.5230176  57.95  0.005898426    2.531    0.605
         7 -12.5711    162.2324     28.8629   4.8219629389e+01   4.1291506864e+01    0.8632722    0.4021699  46.88  0.001033607    2.204    0.546
         8  -9.7934    141.6225     12.2316   4.6343150546e+01   4.8179169244e+01    0.2197016    0.1725181  16.48 0.0005642693    1.457    0.314
         9 -11.5655    145.8258     47.4652   5.7187096741e+01   4.2917670789e+01     1.007378    0.4283673 -22.77  0.003484258    3.157    0.683
        10 -10.2876     46.9853     18.9922   7.6313690097e+01   6.6990004808e+01    0.3322216    0.2894787 -20.99   0.00146247    1.298    0.230
        11  -9.9838     31.9318     12.1463   8.0024448048e+01   6.9939447604e+01    0.2036639    0.1861234  33.03 0.0006198945    1.647    0.393
        12 -11.7820      5.2197     35.1584   1.0322460412e+02   6.8408925207e+01    0.8678697    0.4586852 -44.72 0.0007668718    1.397    0.284
        13 -11.6670     13.9680     23.7095   9.4599195168e+01   6.9925382142e+01    0.5510958     0.422619 -38.26  0.002174847    1.207    0.171
        14 -12.1324     36.6362     18.2708   8.0714279244e+01   6.8485651585e+01    0.7422579    0.4470792 -17.34  0.003608909    1.560    0.359
        15 -12.1741     49.0372     12.8447   7.2453289316e+01   6.7498889708e+01    0.5435065    0.2951851  40.36  0.002980818    1.860    0.462
        16 -11.9258     20.1888     21.9934   9.0627368806e+01   6.9689262453e+01     1.331548    0.1865879 -46.27  0.004292137    5.238    0.809
        17 -11.9847     22.9408     11.4956   8.4320110044e+01   7.1056297777e+01    0.8424089    0.4754349  -0.46  0.004133004    1.914    0.477
        18 -11.3337     78.3718     35.3085   7.1202593099e+01   5.9514871715e+01    0.7775825    0.4974723 -11.85  0.003900033    1.742    0.426
        19 -12.3786    104.5586     12.9780   5.4194617027e+01   5.6858034897e+01    0.5191643    0.3940628 -20.95  0.001574305    1.409    0.290
        20 -11.1435    105.9244     20.7881   5.6951781917e+01   5.5740147841e+01     0.418523    0.3078289 -33.93  0.001225726    1.494    0.331
        21 -11.0287    214.2150     23.6824   4.0014845594e+01   2.9212170186e+01    0.5794107    0.3894677  14.95  0.002811372    2.578    0.612
        22 -12.1504    132.1209     15.0348   4.9005318924e+01   5.0222712332e+01     1.568556    0.5640945  58.12  0.006288035    2.311    0.567
        23 -10.5090     87.1152      7.3684   5.6432760760e+01   6.1155519521e+01    0.5619782    0.3144382  56.69  0.002899159    1.737    0.424
        24 -11.1846     90.7739     21.1432   6.1278898208e+01   5.8959580243e+01    0.5780784    0.3660611 -22.66  0.002291507    1.620    0.383
        25 -11.3326     86.0752     14.2383   5.9733731885e+01   6.0690275148e+01    0.7015736    0.4049514  11.88  0.002708601    2.122    0.529
        26 -10.8865    178.8094     21.0905   4.3483173406e+01   3.8052639036e+01    0.5681448    0.2659186  46.96  0.001859718    2.349    0.574
        27 -11.9661     68.2163     17.9795   6.7314457227e+01   6.3692311539e+01    0.5075851    0.4161882  12.56  0.002126325    1.022    0.022
        28 -12.0457    237.5311     16.0956   3.6123024200e+01   2.4840668900e+01    0.5216506    0.3855206  63.41  0.002307132    1.477    0.323
        29 -11.3136    165.0309     17.9726   4.4488663387e+01   4.1810711105e+01    0.4554874    0.2726897  39.55  0.001493353    1.910    0.477
        30 -12.0884    246.9728      6.9666   3.3470256787e+01   2.3842942062e+01     0.592994    0.4334843 -14.31  0.002823761    1.929    0.482
        31 -10.9833    242.5156      3.7957   3.3113758061e+01   2.5119044455e+01    0.3434811    0.1810263  70.83  0.001925832    1.834    0.455
        32 -10.4934    226.2345     15.6563   3.6973501070e+01   2.7383395654e+01    0.3510306    0.2161476 -43.98  0.001400428    1.473    0.321
        33  -9.4015    191.8751     16.5115   4.0618147303e+01   3.5345908111e+01    0.4412273    0.2401891  38.51  0.001970565    2.544    0.607
        34 -11.4167    192.6472      7.8087   3.8250137526e+01   3.6056685932e+01    0.6517673     0.437449  17.67   0.00295704    2.281    0.562
        35 -10.2980    147.5079     16.2104   4.6662272574e+01   4.6341974702e+01    0.5127991    0.3316981  42.06   0.00262333    1.565    0.361
        36  -9.3650      3.9677     12.4768   9.5378716990e+01   7.2545345332e+01    0.1982161    0.1462188  32.36   0.00138586    1.905    0.475
        37  -7.9072      5.3057      9.3296   9.3169035600e+01   7.2959200421e+01    0.2237265   0.09734268 -22.67  0.001050728    2.354    0.575
        38 -11.3353    211.8557      9.7380   3.6866794935e+01   3.1311443143e+01    0.5160279    0.3322522   4.96  0.001961444    2.705    0.630
        39  -9.7157    168.9776      9.6492   4.1492197317e+01   4.1665963004e+01    0.3610564    0.1590219  49.25  0.001558482    2.285    0.562
        40  -9.2703    163.3084     10.1826   4.2400222863e+01   4.3017720986e+01     0.230961    0.1803871  77.02  0.001215148    1.167    0.143
        41 -10.6385     63.6901      6.6923   6.3620366804e+01   6.5767513515e+01    0.3011501    0.2550024  24.31  0.001291527    1.130    0.115
        42 -10.6320    237.2384      5.3507   3.3813155699e+01   2.6082541062e+01     0.264336    0.1642228 -38.63  0.001572146    1.521    0.343
        43 -10.7849    232.6386      7.4215   3.4603295585e+01   2.6862597233e+01    0.3235641    0.2057257 -63.66    0.0015519    1.388    0.280
        44 -10.0733    228.3276      3.5077   3.4066465121e+01   2.8220726058e+01    0.2844543    0.2233556 -46.28  0.001660814    1.237    0.192
        45 -10.9355    218.7915      3.2673   3.4752460537e+01   3.0382238815e+01     0.319623    0.2674862 -43.01  0.001028972    1.254    0.202
        46 -10.5085    223.5026      1.9843   3.4091835808e+01   2.9449098236e+01    0.3341494    0.2015295  76.19  0.001044159    1.518    0.341
        47  -9.2565     78.4908      7.5147   5.9047929289e+01   6.2892541162e+01     0.222873    0.1715014  46.04 0.0006321854    1.247    0.198
        48 -11.1170     75.2002      3.4235   5.8180439858e+01   6.3921032018e+01    0.6843768    0.3058778  41.89   0.00315896    1.900    0.474
        49 -10.9971     41.2395      4.7876   7.1785982975e+01   6.9628815118e+01    0.4505643    0.2357234  -6.47  0.002288103    2.261    0.558
        50  -9.4455      1.1391      7.2934   9.4708614082e+01   7.3570857974e+01    0.2270638   0.05719742 -49.16 0.0006801896    3.290    0.696
        51 -11.2052      2.9348      1.8829   9.0959927604e+01   7.4275709252e+01    0.3666793    0.1650445  10.11  0.002062122    2.404    0.584
        52 -10.2514    183.5115      4.6711   3.8385685183e+01   3.8569578908e+01    0.3715738    0.2676086 -31.20  0.001990078    1.512    0.339
        53  -9.7903    153.7496      7.0001   4.2765481099e+01   4.5674917313e+01    0.2269285     0.164509  78.83 0.0005631763    1.304    0.233
        54 -10.9063    176.7355      5.6612   3.9412014150e+01   4.0131618863e+01    0.4248819    0.2168867  81.79  0.001001199    1.959    0.489
        55  -9.6183    169.8574      2.9231   3.9444831875e+01   4.2066478899e+01    0.3060808    0.1612081 -69.05  0.001371833    2.358    0.576
        56  -8.8889    162.9361      6.0011   4.1203880683e+01   4.3496761785e+01    0.1541671    0.1426207  80.54 0.0005558104    1.052    0.049
        57 -10.8039    114.4973      3.5850   4.8299881077e+01   5.5427754259e+01    0.5715012    0.2279882  51.28 0.0008994291    2.030    0.507
        58 -10.9141    106.5264      1.8128   4.9287859523e+01   5.7397735233e+01    0.6183258    0.2867308  65.01  0.002272847    2.083    0.520
        59 -12.5633     17.1741     12.2792   8.7814883492e+01   7.1514039347e+01    0.6966085    0.4796103 -21.86  0.003352608    1.120    0.107
        60  -8.1412    122.2690      5.3399   4.7421657401e+01   5.3461819360e+01    0.1363019   0.08719506  32.68 0.0001891342    1.602    0.376
        61 -12.1453    134.1525      2.4892   4.4304819604e+01   5.0850872729e+01    0.4518305    0.2628173  68.65  0.001144537    1.556    0.357
        62 -10.4414    142.7197      2.7564   4.3039388068e+01   4.8747230462e+01    0.3677906      0.25585  50.82  0.001166681    1.303    0.232
        63  -8.5152     54.7325      4.3201   6.5819899663e+01   6.7565005872e+01    0.1038532   0.09365673 -35.63 0.0001845939    1.560    0.359
        64 -10.1877    207.9078      2.6859   3.5523011643e+01   3.2942492542e+01    0.2741555    0.1931042  75.74 0.0007171019    1.286    0.222
        65 -10.1240    204.2114      1.5590   3.5572739004e+01   3.3914650049e+01    0.3005526    0.1400577  65.27 0.0008179146    1.933    0.483
        66  -9.7532    158.2397      2.3683   4.0729229088e+01   4.4971215427e+01     0.361091    0.1716854  48.56  0.001664571    2.049    0.512
        67 -10.0077     12.7626      1.8562   8.5013385985e+01   7.3444205516e+01    0.2939866    0.1395954  19.65  0.001697679    2.108    0.526
        68  -9.2659    151.8458      1.3387   4.1269650177e+01   4.6628277925e+01    0.2561491    0.1125007  72.91 0.0008793041    2.116    0.527
        69  -9.2230    122.6690      1.1372   4.5817026313e+01   5.3705574099e+01    0.3752307   0.04126353  61.31  0.001075104    4.722    0.788
        70  -9.0635     82.0439      1.0000   5.5027456750e+01   6.2758768202e+01    0.1896096   0.06339879  56.55 0.0003618109    2.705    0.630
        71 -10.8380    249.6442    142.8828   6.3249310280e+01   3.4475348290e+00     0.641519    0.2272062 -35.77  0.002520627    2.457    0.593
        72  -9.8758    132.9671    140.4912   8.6905211256e+01   2.7329620730e+01    0.3148881    0.2702083 -53.53  0.001470038    1.166    0.143
        73 -11.1282     22.7282    127.1705   1.1542554021e+02   4.6554294112e+01    0.2627179    0.2061131  37.46 0.0002862635    1.481    0.325
        74 -11.7113     23.1681    135.1266   1.1631302470e+02   4.4585179469e+01    0.9956235    0.4095432  44.16  0.004559136    2.646    0.622
        75 -11.7407     30.0218    132.8007   1.1411071926e+02   4.4560919211e+01    0.4502783    0.3305186 -88.24 0.0003977784    1.272    0.214
        76  -9.6099    216.3036    137.0064   6.7643969342e+01   1.0695146870e+01    0.3841507     0.187886 -35.03  0.001581621    1.930    0.482
        77  -9.9143     80.2669    136.8250   1.0045634623e+02   3.7552877874e+01    0.4420806    0.2789426 -26.18  0.001855023    2.391    0.582
        78 -10.5402     67.3421    135.6486   1.0392141705e+02   3.9682875190e+01    0.3892322    0.2121512 -49.47 0.0007029648    1.765    0.433
        79 -10.2304     47.2889    135.8402   1.0967475341e+02   4.2087874577e+01    0.4620514    0.1468703 -62.04  0.001437369    2.568    0.611
        80 -10.0927     40.2487    137.9852   1.1197137670e+02   4.2306747998e+01    0.2197868    0.1810853  60.92 0.0004107318    1.275    0.215
        81  -9.1848    192.4515    136.4821   7.2163826312e+01   1.5698679419e+01    0.1511451    0.1423789 -20.81 0.0001119081    1.009    0.009
        82 -10.1130     93.0000    135.0024   9.6484196641e+01   3.5992716352e+01    0.3102134     0.159533 -61.47 0.0009993271    2.011    0.503
        83 -10.4374     93.0318    129.4597   9.5290768532e+01   3.7338022356e+01     0.537311    0.2985048 -69.46  0.002095346    2.288    0.563
        84  -9.3707    107.8987    146.0940   9.4696198207e+01   3.0753457888e+01    0.2332844    0.1980358  78.25 0.0005564159    1.294    0.227
        85 -10.1160     74.1682    132.5225   1.0136997344e+02   3.9509039805e+01    0.3240514    0.2106411 -31.22   0.00146252    1.994    0.499
        86 -10.0134     61.8706    132.0777   1.0485553671e+02   4.1285669917e+01    0.4305998    0.3546093 -13.30  0.002372634    1.531    0.347
        87  -9.3030    103.8656    130.8461   9.2523523099e+01   3.5132653369e+01     0.219237    0.2033488  -9.37 0.0003621768    1.189    0.159
        88 -11.0291     10.6671    127.1891   1.1882562436e+02   4.7440036486e+01    0.4953319    0.2044699 -60.49 0.0008879839    1.897    0.473
        89 -10.1635     82.1552    125.3474   9.7568438953e+01   4.0088475707e+01     0.473033    0.3167204 -17.83  0.001630264    2.266    0.559
        90  -9.2287    224.0005    126.9529   6.3938490687e+01   1.0960078509e+01    0.2192842    0.1671306 -61.85 0.0005227259    1.621    0.383
        91  -9.8540     49.5286    122.9665   1.0688176689e+02   4.5022373838e+01    0.3086192    0.2113869  14.45  0.001266328    1.867    0.464
        92 -11.0317     45.4960    120.0579   1.0759059499e+02   4.6180486095e+01    0.5616757    0.3114735 -86.09  0.002106323    2.350    0.574
        93  -9.8524      2.6895    126.0780   1.2090430366e+02   4.8210277129e+01    0.3193059     0.196441  89.17  0.001870103    1.457    0.313
        94  -9.7313      4.2915    120.9724   1.1991541430e+02   4.9327799429e+01     0.406361    0.1879565 -70.95  0.002039112    1.652    0.395
        95  -9.9218      7.0204    114.5157   1.1837572258e+02   5.0702816344e+01    0.2903726    0.1646515 -68.72 0.0009704774    1.362    0.266
        96 -11.8173      2.2785    111.6401   1.1943178853e+02   5.1655219399e+01    0.3555002    0.2162418 -83.97 0.0009541032    1.437    0.304
        97 -11.4642      3.7876    105.5483   1.1822428530e+02   5.3013889896e+01    0.4716038    0.3823569  88.18  0.002605133    1.220    0.180
        98  -9.4257     33.4913    126.4828   1.1222103776e+02   4.5793077422e+01    0.1331272    0.1118458 -72.97 0.0002242346    1.012    0.012
        99 -10.6205     33.5601    144.5170   1.1467088849e+02   4.1370188668e+01    0.4006137    0.2385736  50.89  0.001933359    1.790    0.441
       100 -11.7283     18.8338    122.3764   1.1591587436e+02   4.8019520598e+01    0.2638798    0.1730268 -69.78   0.00022693    1.229    0.186
       101 -12.0303    104.1748    122.3293   9.0461789897e+01   3.7115772804e+01    0.4482834    0.4067587 -32.22 0.0008232599    1.128    0.113
       102  -9.3652     39.1109    132.8214   1.1154103264e+02   4.3693062675e+01    0.2049767    0.1650934  77.92 0.0006603362    1.262    0.208
       103  -9.1695     71.4301    120.7365   9.9801473289e+01   4.2804026357e+01    0.2038271    0.1224746 -48.78 0.0006753305    1.549    0.354
       104 -10.9440     33.2429    119.3619   1.1120070772e+02   4.7561738437e+01     0.650784    0.2926475 -60.73  0.001258484    1.787    0.440
       105 -11.0470     51.1734     96.1000   1.0089136148e+02   5.1364279417e+01     1.360634    0.5162382 -63.44  0.005036043    2.766    0.638
       106  -9.8463     25.7764     86.6321   1.0773182211e+02   5.6041541840e+01     0.767368    0.4965456 -73.22  0.003436716    1.533    0.348
       107 -11.4565     42.0496     93.8070   1.0351882453e+02   5.2895436904e+01    0.3772262    0.2746633 -87.54 0.0002605802    1.690    0.408
       108 -11.7512     35.5679     92.8937   1.0557762807e+02   5.3739545121e+01     1.242742    0.6003718 -72.23  0.005373148    2.332    0.571
       109 -11.9819     18.6096    106.4302   1.1370817959e+02   5.1882871700e+01    0.3786185    0.1790487 -54.13 8.274429e-05    1.712    0.416
       110 -11.6058     17.1379    101.0389   1.1333183181e+02   5.3273717844e+01    0.2906003    0.2348361 -58.91 0.0003878758    1.050    0.047
       111 -11.5727      9.5712     97.0065   1.1518006814e+02   5.4706094111e+01    0.5611251    0.4563375  86.79    0.0016887    1.291    0.226
       112 -11.9984      7.1669     88.5438   1.1465367731e+02   5.6818617136e+01    0.5071204    0.4477982  38.97  0.002462295    1.415    0.293
       113 -12.7692     25.3838    106.8226   1.1161103691e+02   5.1279897858e+01      1.15497    0.9843314  -1.00  0.007446117    1.430    0.301
       114 -11.8183     22.5247     94.9094   1.1048133790e+02   5.4346345941e+01    0.6085421    0.2966846  11.90  0.002915594    2.714    0.632
       115 -11.9928     18.3653     89.5845   1.1093984823e+02   5.5894870617e+01    0.6100175    0.2413627 -56.88  0.001787272    1.879    0.468
       116 -11.3848     22.5567    114.0565   1.1363683365e+02   4.9752336288e+01    0.4106651    0.2537389  -1.17  0.001488694    2.292    0.564
       117 -11.2763     28.3248    113.1321   1.1171384148e+02   4.9512086256e+01    0.4223568    0.2656762   7.82  0.001961823    2.128    0.530
       118 -11.8519     44.3677     85.3358   1.0071800832e+02   5.4631831427e+01    0.5382575    0.4177518  -0.29  0.001834017    1.478    0.323
       119 -10.9286     37.6919     86.1453   1.0332678655e+02   5.5118731610e+01    0.3250884     0.276677  29.15 0.0008782172    1.372    0.271
       120 -10.7608     55.1284    123.7024   1.0532636074e+02   4.4193011459e+01    0.5495055    0.4200201 -12.32  0.002930785    1.706    0.414
       121  -9.0571    148.4921    119.9889   7.7991718150e+01   2.8674465927e+01    0.2253659    0.1376095 -20.73 0.0008094179    2.471    0.595
       122  -9.4683     78.7984    128.7861   9.9276804453e+01   3.9753534458e+01     0.255115    0.1694134 -56.73 0.0005069932    1.386    0.279
       123  -9.8374    113.9070    115.7211   8.6057030039e+01   3.6838182371e+01    0.3105082    0.2407724  12.44 0.0008760447    1.603    0.376
       124  -9.8553     94.6182    112.2778   9.0814574980e+01   4.1203549860e+01     0.350524    0.2967208  22.93  0.001813587    1.295    0.228
       125 -10.7001    107.5383    112.0085   8.6927065156e+01   3.8922086605e+01    0.5158285    0.3625959 -70.40   0.00226123    1.798    0.444
       126 -10.9753    102.5225    109.5022   8.7748445207e+01   4.0441414683e+01     0.675545    0.5821815 -10.37  0.002872509    1.302    0.232
       127  -9.2710     79.4325    114.2688   9.5922586152e+01   4.3206078340e+01     0.287121    0.1277125 -50.89  0.001119556    2.033    0.508
       128  -9.6640     66.8445    113.9833   9.9772244985e+01   4.5091920204e+01    0.3695318    0.2485075  72.44  0.001677756    2.112    0.527
       129  -9.7042     66.9969    110.6255   9.8984099623e+01   4.5888166008e+01    0.3282705      0.22034  29.55  0.001624473    1.666    0.400
       130  -9.5125    126.8938    113.7557   8.1954555764e+01   3.4672416431e+01    0.2399858    0.2141578   0.96  0.001101831    1.235    0.191
       131  -9.8385     48.9571    112.1886   1.0505022202e+02   4.7735897361e+01    0.2393237    0.2224112  41.91  0.001130859    1.223    0.182
       132 -11.1403    170.3283    110.4819   7.0380126162e+01   2.5769704050e+01    0.4572739    0.3717145 -34.18   0.00132613    1.213    0.175
       133  -8.9395     82.4296    102.5219   9.2115146798e+01   4.5540031837e+01    0.1482637    0.1353367 -42.57 0.0001730048    1.015    0.015
       134 -11.5171     79.2624    108.2761   9.4555807623e+01   4.4673858527e+01     0.760878    0.4092211  30.83  0.003245912    2.089    0.521
       135 -10.6923     90.3489    104.1457   9.0045952323e+01   4.3851113228e+01    0.4174898    0.3678901 -29.70  0.001090619    1.134    0.118
       136 -10.3337     85.9917    103.9969   9.1368441713e+01   4.4615883451e+01    0.4058523    0.2819158 -37.89  0.001647242    1.441    0.306
       137 -10.1843    120.4157    109.2710   8.2541907868e+01   3.7015792343e+01    0.4020953    0.2478182 -32.36  0.001642821    1.846    0.458
       138  -9.4935     58.4244    108.6363   1.0128850664e+02   4.7488275228e+01    0.2622739    0.1292763 -64.37 0.0007049897    2.001    0.500
       139 -10.2238    157.3140    106.7229   7.2347439066e+01   2.9513489504e+01    0.3964177    0.3085895  -6.88  0.001795088    1.611    0.379
       140 -10.4168    143.6342    106.1130   7.5515939765e+01   3.2733270365e+01    0.3276891    0.2936583  71.55  0.001347967    1.240    0.194
       141 -11.8082    145.4394    100.7779   7.3584209366e+01   3.3448096269e+01    0.5851462    0.4828424 -18.07  0.002683309    1.339    0.253
       142  -8.8704     45.5509    105.5631   1.0482990091e+02   4.9718007923e+01    0.1370804    0.1174156 -55.00  0.000105574    1.020    0.020
       143  -9.3184    181.1863    103.8446   6.6301644831e+01   2.4579308621e+01    0.3409266    0.1711848 -55.88  0.001165994    2.755    0.637
       144 -10.2287    120.2105    102.0237   8.0616712806e+01   3.8672907783e+01    0.4663689    0.2668637 -18.65  0.001504311    3.391    0.705
       145  -9.9266     57.2506    102.4692   1.0030573458e+02   4.9121807300e+01    0.3638528    0.1643938 -53.90  0.001145326    1.890    0.471
       146 -10.1842     57.5123     97.5277   9.9069127352e+01   5.0267253544e+01    0.2736595    0.2167974 -20.92  0.001500112    1.390    0.281
       147  -9.0455    208.7894    100.9861   6.0314883072e+01   1.8822544551e+01    0.2196934      0.19013 -13.12   0.00035016    1.246    0.197
       148  -9.7443    209.6837     97.6780   5.9329149462e+01   1.9209875868e+01    0.2797828    0.2239233 -37.95   0.00144915    1.163    0.140
       149 -11.0921     90.0389     89.2553   8.6039888428e+01   4.7292300647e+01    0.8009397    0.4301915 -28.62   0.00302788    2.518    0.603
       150  -9.8684     66.8411     88.5313   9.3584889867e+01   5.1125436469e+01    0.3402663    0.2079774 -30.14  0.001062419    1.853    0.460
       151 -10.4119     67.0940     81.9135   9.1648002839e+01   5.2577336844e+01    0.4387404    0.3653824   1.54  0.002455214    1.292    0.226
       152 -10.0839     80.7061     98.4376   9.1603715898e+01   4.6768113043e+01    0.3123762    0.2494792  25.61 0.0008242941    1.365    0.268
       153  -9.5698     77.2737     96.6427   9.2247484639e+01   4.7721550502e+01    0.2752932    0.2197154  -2.15 0.0006696047    1.472    0.321
       154 -10.8424     79.0609     82.2772   8.7611148576e+01   5.0673386216e+01    0.6531882    0.5008716 -67.64  0.002699812    1.605    0.377
       155 -11.2754     73.9997     77.4271   8.7889997394e+01   5.2523885154e+01    0.6207957    0.4589677 -15.18  0.003158824    1.521    0.342
       156 -10.2769     82.9407     93.4939   8.9541833484e+01   4.7544373389e+01    0.3350768     0.266012  16.36  0.001000127    1.414    0.293
       157 -11.0369     76.9093     92.9345   9.1372888136e+01   4.8631946747e+01    0.5437129    0.3896946  17.66  0.001647927    1.638    0.390
       158 -11.5921     67.2361     95.3060   9.5235980191e+01   4.9506996451e+01     0.465126    0.4367206  -1.33  0.001507143    1.135    0.119
       159 -10.0369    117.1860     93.4734   7.9030487862e+01   4.1156643508e+01    0.3723219    0.2821271 -15.75  0.001301361    1.581    0.368
       160 -10.8796    124.5305     93.6489   7.7021292108e+01   3.9568739178e+01     0.652503    0.3936254  42.10  0.002071037    1.697    0.411
       161 -11.3977    120.6686     86.8307   7.6068382095e+01   4.1816924796e+01    0.7351169    0.4108644 -45.66  0.003016597    1.787    0.440
       162 -11.0573    152.5260     91.7839   6.9306438695e+01   3.3635614150e+01    0.5672724    0.4752247  81.08  0.002689076    1.421    0.296
       163 -10.8792    100.8124     91.2153   8.3223845493e+01   4.4897493955e+01    0.5906114    0.3930549  53.23  0.002356464    1.769    0.435
       164 -10.4289    104.5996     86.5238   8.0671983462e+01   4.5178982128e+01    0.4557477    0.3158881 -21.37  0.002036029    1.726    0.421
       165 -10.9342    113.5653     83.5172   7.7086588321e+01   4.3995422405e+01    0.4144333    0.3773292 -56.50  0.001495342    1.181    0.153
       166  -9.1509    200.8105     89.0070   5.8650031581e+01   2.2753143293e+01    0.3384787    0.2072362 -85.54   0.00123069    3.053    0.672
       167 -10.4958    183.5959     85.8922   6.0983662318e+01   2.7355794189e+01    0.6651413    0.2929335 -44.82  0.002443352    2.267    0.559
       168 -10.7886    108.9009     80.8375   7.7628573247e+01   4.5502545141e+01    0.4051676    0.3246765 -10.13   0.00150491    1.403    0.287
       169 -10.3788    165.4991     83.6049   6.4024622576e+01   3.2112397425e+01    0.4346614    0.3422307 -56.25   0.00144531    1.360    0.265
       170 -11.3602    142.8869     84.0230   6.9358680347e+01   3.7399291483e+01    0.4534795    0.3714069  37.64  0.000901953    1.251    0.201
       171 -11.8158    122.9011     68.8694   6.9789662995e+01   4.4820482520e+01    0.5702851    0.5362305  26.74  0.001658692    1.043    0.042
       172 -11.3483     58.0768     77.6936   9.3675510510e+01   5.4740214202e+01    0.5709952    0.3186038 -65.99 0.0003499945    2.378    0.580
       173 -12.4537     52.4490     73.7954   9.4640187668e+01   5.6302384092e+01    0.6278493    0.3388942 -60.44 0.0007296693    2.015    0.504
       174 -11.1582     47.0837     74.5368   9.6879100026e+01   5.6769545503e+01    0.3688646     0.228966 -59.50  0.001876575    1.594    0.373
       175  -9.7974    103.0000     79.9811   7.9146146724e+01   4.6858693736e+01    0.3683935    0.1707866 -36.55  0.001378727    2.252    0.556
       176 -10.3596    103.9429     75.4234   7.7407573497e+01   4.7593317488e+01    0.4605163    0.3033567 -50.44  0.001385685    1.631    0.387
       177  -9.2021    138.6509     93.0120   7.3080745797e+01   3.6584725938e+01     0.331924    0.1934575  24.01  0.001168097    2.717    0.632
       178 -10.2830    232.9261     77.3317   5.0769982449e+01   1.7492482496e+01    0.3923878     0.190447 -35.74  0.001214299    1.863    0.463
       179 -11.7660     14.1019     74.6512   1.0955804519e+02   5.9601629815e+01    0.5146083    0.3037332 -64.92  0.001790713    1.435    0.303
       180 -10.3993     14.7712     67.2609   1.0766990709e+02   6.1205793718e+01    0.3082844    0.2299342  -1.58  0.001981084    1.529    0.346
       181  -9.0907    170.2229     77.8185   6.1373675769e+01   3.2014074811e+01    0.2122115    0.1807054  22.22  0.001055534    1.337    0.252
       182 -10.0886    142.9372    249.3498   1.0320190978e+02   3.7555099710e+00    0.1834972    0.1354034  37.25  0.001166813    1.109    0.098
       183  -9.9254     94.5060     76.1875   8.0612400622e+01   4.9264776048e+01    0.5274361    0.3681515  26.54  0.002519737    1.569    0.362
       184 -11.7334     85.6930     73.3874   8.2606857607e+01   5.1433660260e+01    0.7510422    0.5274056  40.48  0.002693096    1.509    0.337
       185 -11.0624     79.7141     67.7938   8.2816194292e+01   5.3592398285e+01    0.5802231    0.4516704  23.78   0.00310892    1.331    0.249
       186 -11.2404     91.2278     62.8662   7.7240824735e+01   5.2489463615e+01    0.6466519    0.3787062  55.23  0.002767477    2.263    0.558
       187 -12.0542     89.5550     57.8428   7.6024314612e+01   5.3727796531e+01     1.059873    0.7170641  48.63  0.005224503    1.639    0.390
       188 -10.9027     13.1446     47.3245   1.0317486308e+02   6.5529562585e+01     1.020511    0.1834194 -38.64   0.00291245    6.315    0.842
       189  -9.3430     22.8040     37.2053   9.5343302946e+01   6.6776602718e+01    0.5870652     0.359559  41.62  0.002929903    2.370    0.578
       190  -9.0653    213.3424    248.3225   8.9711151538e+01  -6.6374214311e+00    0.1252643   0.07651286   7.91 0.0007050501    1.727    0.421
       191 -12.0584     48.3145     60.3387   9.2122437553e+01   5.9641845636e+01     0.719999    0.5796925  30.15  0.004061544    1.408    0.290
       192 -11.6760     26.5251     56.7177   1.0003595804e+02   6.2608065433e+01     1.119838    0.5549413 -43.27  0.005802863    1.629    0.386
       193 -11.1008     20.4704     55.3971   1.0225316840e+02   6.3362016732e+01    0.3288543    0.3158766  70.75  0.001004726    1.394    0.283
       194 -11.7126      1.8842     71.1169   1.1352744335e+02   6.1044201142e+01    0.5458978    0.1601377 -65.51  0.001888399    2.519    0.603
       195 -12.5321      6.3641     62.9198   1.1008737193e+02   6.2635067092e+01    0.8098456    0.4221556 -27.61  0.004447001    1.987    0.497
       196 -11.1291     33.8587     58.2411   9.7392555949e+01   6.1632538253e+01     0.427006    0.2302722 -25.88  0.002088952    2.045    0.511
       197 -11.3205     40.9793     57.1293   9.4075166139e+01   6.1132844594e+01    0.4910607     0.349922  56.93  0.001770939    2.254    0.556
       198 -11.7676     40.5855     70.5853   9.8275400525e+01   5.8337571571e+01    0.5391585    0.2998229 -49.13  0.001678407    1.498    0.333
       199 -11.4789     32.0929     71.9917   1.0197009192e+02   5.8844863255e+01    0.5630918    0.2754796  24.60   0.00200649    2.326    0.570
       200 -12.2356    186.2361     70.0219   5.6120993643e+01   2.9447219726e+01     1.129843    0.6178584 -39.75  0.004053193    1.757    0.431
       201 -10.3268     64.0924     75.1453   9.0729455077e+01   5.4481758960e+01    0.4290641    0.3159457  21.27  0.001242537    1.478    0.323
       202 -10.3778    127.6334     82.9739   7.2976830562e+01   4.1077330013e+01    0.3259238    0.2913279 -38.29 0.0009865833    1.107    0.097
       203  -9.4313     24.4221     73.3653   1.0529683605e+02   5.9175794260e+01    0.4979222    0.1711669 -67.00  0.001854539    3.283    0.695
       204 -10.8037     21.2337     65.5558   1.0465114319e+02   6.1139300837e+01    0.2793327    0.2385359 -85.38 0.0005462287    1.446    0.308
       205  -9.1523     25.7584     65.6108   1.0282876341e+02   6.0780191539e+01    0.1615913    0.1247642   5.60 0.0003558851    1.449    0.310
       206  -9.7215    192.3914     65.7017   5.3878192939e+01   2.8652442024e+01    0.2798632    0.2162658 -73.85 0.0007750654    1.444    0.307
       207  -8.8110    154.4508     72.4981   6.3165420207e+01   3.6779370688e+01    0.2348099    0.1393177  42.77 0.0006950864    1.761    0.432
       208  -9.7602    162.2503     70.9121   6.1004965844e+01   3.5158727824e+01    0.2839805    0.2542933 -87.04 0.0008525617    1.209    0.173
       209  -8.8707     19.6688     71.6903   1.0675541736e+02   5.9899053511e+01     0.135016   0.07468358 -36.94 0.0007041818    1.669    0.401
       210 -10.7047    171.6043     66.6031   5.7854403783e+01   3.3588810605e+01    0.6784092    0.3236271 -44.52  0.002637354    2.136    0.532
       211 -10.3613    127.3512     77.2230   7.1267212988e+01   4.2261625982e+01    0.4083648    0.2741523 -52.02 0.0008791679    1.661    0.398
       212 -11.4087    219.8776     66.6001   4.9945298737e+01   2.2048777349e+01    0.5503254    0.3559627  66.15  0.002132098    1.648    0.393
       213 -10.4039     59.4938     63.5581   8.8795472852e+01   5.7546931259e+01    0.4089822    0.2354187 -34.03  0.001592824    1.669    0.401
       214 -10.0869     57.3074     61.2951   8.8888606214e+01   5.8302216288e+01    0.2527798    0.2011422 -12.08 0.0005674977    1.229    0.186
       215  -9.6931     53.1790     66.0762   9.2034389657e+01   5.7859911256e+01     0.262826    0.1864005  36.37  0.001072229    1.611    0.379
       216 -11.3733    234.2326     61.1039   4.6753766111e+01   1.9680541539e+01    0.4717385    0.4058215  75.68  0.001934794    1.228    0.186
       217 -10.0956    200.0478     63.7248   5.2115744470e+01   2.7121109629e+01    0.5664545    0.2956151  78.81   0.00213423    2.805    0.644
       218  -9.9688    106.1374     64.1160   7.2987333880e+01   4.9305242067e+01    0.3135166    0.2478299 -23.57  0.001604615    1.271    0.213
       219 -10.8100    106.1971     58.5381   7.1039675198e+01   5.0286898662e+01     0.425385    0.3184778  55.27   0.00143406    1.488    0.328
       220 -10.2468    159.0334     62.3630   5.9103036954e+01   3.7375797670e+01    0.5273481    0.2390389  45.01  0.001965601    2.327    0.570
       221  -9.7567    174.7063    247.0605   9.6763288746e+01  -7.6144040514e-01     0.262062     0.156662  30.45  0.001495518    1.419    0.295
       222  -9.1979    199.2413    244.4435   9.1721937434e+01  -4.0850457193e+00    0.1752996   0.09822389  42.68 0.0009564963    1.759    0.432
       223 -12.5178    117.5569     42.8787   6.2270261727e+01   5.0293178124e+01    0.7059617    0.5810288  86.04  0.002860202    1.577    0.366
       224 -13.0756    117.7596     38.0941   6.0483971959e+01   5.0920598312e+01     1.249612    0.6380317  52.13  0.001888331    1.835    0.455
       225  -9.4163    148.5005     60.8867   6.0902363160e+01   4.0193364051e+01    0.4918693    0.1670671  60.81  0.001455373    3.715    0.731
       226 -11.4330    156.4387     53.2876   5.6841085525e+01   3.9440053606e+01    0.9789667    0.5184025 -42.22  0.004115955    1.939    0.484
       227 -10.4810    162.5361     44.5173   5.2962781759e+01   3.9198279164e+01    0.5166396     0.382075  27.94    0.0025482    1.622    0.383
       228 -10.7835    138.0444     33.5930   5.4218836646e+01   4.6702521814e+01    0.5280448    0.3376519 -57.07  0.001627923    2.014    0.503
       229 -10.9944    127.1243    241.7520   1.0536485496e+02   7.4239304382e+00    0.3447183    0.2030068 -63.02  0.001895526    2.138    0.532
       230  -9.8050     68.0345    240.4955   1.1674240889e+02   1.6115141185e+01    0.1766712   0.09947548  39.84 0.0008702711    1.582    0.368
       231  -8.4817    221.6716    239.3370   8.6774684575e+01  -6.6599376456e+00    0.1050696   0.09430105  51.51 0.0007051908    1.729    0.422
       232 -11.0311    148.8968    237.8988   1.0054025462e+02   4.6770020123e+00    0.4552701    0.2244756  33.50  0.002154346    1.828    0.453
       233 -11.1696    155.6770     42.0981   5.3490194146e+01   4.1239832968e+01    0.4122534    0.3865253  48.11    0.0011269    1.053    0.050
       234 -11.7502    153.0380     35.9429   5.2038339257e+01   4.2710630046e+01     0.276599    0.2697553 -75.27 0.0003524823    1.063    0.060
       235 -10.4787    136.4550     56.5324   6.2267866211e+01   4.3799174472e+01    0.6311952    0.4231662   2.55  0.002681346    2.167    0.539
       236 -10.2060    134.5264     50.3488   6.0667570603e+01   4.5224342408e+01    0.3643005     0.254079 -51.04  0.001726749    1.647    0.393
       237 -10.7575    198.5582    232.8368   9.0033700592e+01  -2.3488948152e+00    0.3457039    0.3018465  15.02  0.002346541    1.115    0.103
       238  -9.8196    187.6931     55.3412   5.1797405972e+01   3.1392728800e+01    0.2786477    0.2262804  62.07  0.001217768    1.222    0.182
       239  -9.6864     68.2480     32.8990   7.3871175057e+01   6.1659685542e+01    0.5262231     0.483116 -86.41  0.003237992    1.688    0.408
       240 -10.3883     66.6528     54.5948   8.2975447239e+01   5.8253107673e+01    0.3980028    0.2437411 -52.97  0.001910275    1.930    0.482
       241 -11.0766     60.7565     36.4217   7.8244687035e+01   6.2327071875e+01    0.4185775    0.2386783 -32.61 0.0007590867    1.633    0.387
       242 -11.6268     58.0114     30.2065   7.6721925279e+01   6.3721510378e+01    0.4428657    0.2981574  -0.22  0.001493658    1.558    0.358
       243 -11.6060     48.9534     30.1115   8.0475762729e+01   6.5062926950e+01    0.5685731    0.2835843  28.13  0.002245361    2.075    0.518
       244 -10.1332     61.9087     53.8459   8.4520989132e+01   5.9106499206e+01    0.2563572    0.2192895  -0.75  0.001542472    1.104    0.094
       245 -12.0362     60.3329     46.1111   8.2267196183e+01   6.0752764700e+01    0.8735261    0.4963658 -41.60  0.004392524    1.663    0.399
       246  -9.7954    248.7700     52.6005   4.3170599275e+01   1.7804586633e+01    0.2614371    0.1818513 -77.08 0.0007775937    1.520    0.342
       247  -9.7140    244.9420     51.2967   4.3278924996e+01   1.8786558479e+01    0.2313432     0.169574 -83.27 0.0007675386    1.420    0.296
       248 -11.0269    240.4592     49.8136   4.3419129454e+01   1.9945592917e+01    0.4759952    0.3129103 -20.88   0.00103116    1.873    0.466
       249 -12.0884     21.5362     46.6334   9.9143155715e+01   6.5065486779e+01    0.5467127    0.3415179 -44.48  0.003270265    1.272    0.214
       250  -9.9278    211.2902     52.9553   4.7683581449e+01   2.6066697305e+01    0.2528568    0.1724729  50.03  0.001279001    1.614    0.380
       251 -11.0901    173.8795     47.9325   5.1980330803e+01   3.5889803644e+01    0.5980603    0.4743107  80.35  0.003131458    1.305    0.234
       252 -11.3793    201.3441     48.5972   4.7916140388e+01   2.9051677148e+01    0.8984735    0.4409634 -43.06  0.003305937    1.927    0.481
       253 -10.1103     91.2372     47.8888   7.1817007618e+01   5.5117428042e+01    0.3111678    0.2064956 -38.84  0.001316105    1.535    0.348
       254  -9.7711      2.3615     48.6908   1.0843117322e+02   6.5849653552e+01    0.2261381     0.191857 -10.29  0.001348954    1.308    0.236
       255  -9.3824    193.3846     45.9081   4.8331231342e+01   3.1356698370e+01    0.2795785    0.1777366 -82.18  0.000921411    1.956    0.489
       256 -10.6518    135.7996     45.6470   5.8789936486e+01   4.5616000169e+01    0.5761179    0.2090025  57.59  0.002014722    2.732    0.634
       257 -10.2535    139.8328     43.6027   5.7205277507e+01   4.4932468562e+01    0.3682197    0.2386769  52.77  0.001751609    1.451    0.311
       258  -8.6329    219.6404     45.3054   4.4709825541e+01   2.5199484421e+01     0.147115   0.09220705 -66.84 0.0004052467    1.728    0.421
       259  -9.9453    231.4775     38.4821   4.1753312932e+01   2.3434912820e+01    0.3428193    0.1700328 -43.83  0.001653896    1.768    0.434
       260  -9.3749    227.3325     36.8026   4.1794240265e+01   2.4580369546e+01    0.2561361    0.1524826 -61.70  0.001244018    1.686    0.407
       261  -9.3511     94.9879     36.1860   6.6119958643e+01   5.6150531075e+01    0.2274089    0.2071919  57.04 0.0009758647    1.284    0.221
       262  -9.1421    101.4882     44.5150   6.7357043772e+01   5.3571814088e+01    0.2053501      0.13034 -42.31 0.0006891983    1.718    0.418
       263 -11.0810     94.4265     41.1307   6.8221811662e+01   5.5543276848e+01    0.7061926    0.2921695  49.41  0.002813705    2.436    0.589
       264  -9.5586     15.2478    233.7330   1.2592594861e+02   2.3480595214e+01    0.2013112    0.1206042 -76.77 0.0009789146    1.575    0.365
       265 -10.0789    247.4890    231.5181   8.0895743524e+01  -9.2174553935e+00    0.2140373    0.1026298 -32.05 0.0008181838    2.034    0.508
       266  -9.7433    243.1835    231.8553   8.1699039414e+01  -8.6836329941e+00    0.1748481    0.1478535   6.91  0.001250489    1.238    0.192
       267  -9.8129     23.5273    231.8936   1.2436073507e+02   2.2989908229e+01    0.2092544    0.1110739  54.88  0.001032901    1.493    0.330
       268 -11.8169     26.7173     27.9348   8.9843137334e+01   6.8068935377e+01    0.4859202    0.3867669  12.10  0.002292119    1.307    0.235
       269  -9.5389    108.4597    230.0002   1.0771389714e+02   1.2374605887e+01    0.1715827    0.1236131 -65.08 0.0005881186    1.565    0.361
       270  -8.9385    190.2080    229.6084   9.1126807285e+01  -5.7121619403e-01    0.1814789    0.1030751  27.24 0.0009353677    1.631    0.387
       271  -9.4074    181.3312    228.3050   9.2662061881e+01   1.0406748037e+00    0.1313629   0.09040077   7.73 0.0006611424    1.658    0.397
       272  -9.9168    234.1783    223.0705   8.1775178819e+01  -6.2892160545e+00    0.1972539     0.137774   3.86 0.0007105295    1.277    0.217
       273  -9.7555     77.3302     42.1511   7.4324931342e+01   5.8645851722e+01    0.3140597    0.1888377 -33.29  0.001072734    1.603    0.376
       274 -10.0128     86.2952     30.9984   6.6765916563e+01   5.8620318331e+01    0.3576795    0.2554975  17.59 0.0008549934    1.422    0.297
       275 -10.1357     82.2374     40.3944   7.1917632167e+01   5.8029054946e+01    0.3055389    0.2254205  51.38  0.001142818    1.574    0.364
       276 -10.3359    164.9564    212.3475   9.3414566091e+01   6.4154696681e+00    0.2675047    0.1792326  50.93  0.001210269    1.603    0.376
       277  -9.6803    193.7975     39.0085   4.6403750758e+01   3.2188048223e+01    0.2189368     0.186946  72.93 0.0003575166    1.129    0.114
       278  -8.7308    184.4598     38.4948   4.7592281485e+01   3.4550547274e+01    0.1404255    0.1294367 -82.32 0.0001821374    1.022    0.022
       279 -11.2118    176.7533     36.3118   4.8131572822e+01   3.6746228717e+01    0.3793354    0.3018788 -31.59  0.001636986    1.325    0.245
       280  -9.8775    171.6752     33.0001   4.7952984679e+01   3.8430486035e+01    0.3706746    0.2355266  78.08  0.001766993    1.661    0.398
       281  -9.6064    133.1898     37.0779   5.6454401137e+01   4.7428362562e+01     0.383417    0.2527864 -82.82  0.001639676    2.421    0.587
       282  -9.8116    207.3729     36.7828   4.4058201477e+01   2.9205957914e+01    0.3351775    0.1930316  54.70  0.001623857    1.801    0.445
       283  -9.8981    145.4958     39.4977   5.4655257715e+01   4.4110780385e+01    0.2415624    0.1351173  58.71 1.325103e-05    1.689    0.408
       284  -9.6407    153.0959    207.8817   9.5192225389e+01   9.2624830967e+00    0.2104218    0.1788543  59.70 0.0008395121    1.294    0.227
       285  -9.5086     61.1280    206.7069   1.1505634284e+02   2.3780123421e+01    0.2054061    0.1505378  80.76 0.0005969882    1.243    0.196
       286 -12.1195    106.0507     32.7280   6.1567549148e+01   5.4267773379e+01    0.5632606    0.3289757  16.70  0.001478186    2.397    0.583
       287 -12.2477    113.5924     25.2803   5.6764318458e+01   5.3498553430e+01    0.7593692    0.3886925  50.27  0.003030192    1.741    0.425
       288  -9.4063    249.0000     33.9768   3.9051555901e+01   2.0238650166e+01    0.2048835   0.06363634 -33.14 0.0008031997    2.948    0.661
       289 -10.4109    240.0902     31.6875   3.9355585598e+01   2.2419853373e+01    0.4372806    0.3258183 -39.59  0.002041458    1.280    0.219
       290  -9.3359    240.4754     26.4614   3.8158727980e+01   2.2983182263e+01    0.1265181    0.1056408 -65.83 6.670985e-05    1.006    0.006
       291  -9.4087    216.2505     32.7640   4.2020015833e+01   2.7632165498e+01    0.2890917    0.1848741   5.94  0.001262651    2.986    0.665
       292 -10.6144    198.0958     29.0352   4.3186409116e+01   3.2403306369e+01    0.5012561    0.3947931 -32.04  0.002175274    1.347    0.258
       293  -9.4553    199.9794     24.5067   4.1780011674e+01   3.2488223295e+01    0.2188333    0.1817818  29.53  0.000407712    1.528    0.346
       294  -9.2671    186.6505     32.6860   4.5661696798e+01   3.4751180179e+01    0.2390346    0.1476602  47.46 0.0005258312    1.747    0.427
       295 -10.5504    189.6102     27.4866   4.3840221639e+01   3.4656287336e+01    0.3946594    0.2929448  15.99   0.00147164    1.885    0.469
       296  -9.2219     36.1600     31.8820   8.6965533226e+01   6.6390323667e+01    0.1702302     0.156528 -16.39 0.0005004369    1.293    0.227
       297 -10.7363    176.8379     30.1823   4.6351529564e+01   3.7489340900e+01    0.4272263     0.234348  48.30  0.001945012    1.893    0.472
       298 -11.3086    182.9442     25.3581   4.4130031633e+01   3.6546829486e+01     0.533011     0.295863  50.72   0.00251267    1.839    0.456
       299  -9.5923    221.8101     29.6477   4.0671097169e+01   2.6739116614e+01    0.2058332    0.1696491 -32.14 0.0005734779    1.313    0.238
       300  -9.0601     99.4976     30.4627   6.2523034837e+01   5.5981488378e+01    0.2216248    0.1261086  51.54 0.0007002992    1.698    0.411
       301  -9.8270     97.9093     26.7891   6.1514258104e+01   5.6785115724e+01    0.2775722    0.2181424 -41.08  0.001107369    1.478    0.323
       302 -10.0270    230.5729     27.5009   3.9298858444e+01   2.5025220659e+01     0.330054    0.1683396 -36.78  0.001651027    1.804    0.446
       303 -10.1099    238.3503    204.5428   7.7682762412e+01  -4.3163096935e+00    0.2515856    0.1433062 -29.37  0.001356693    1.640    0.390
       304  -9.5925    250.5411     26.4471   3.7300530504e+01   2.0855484171e+01    0.2484135    0.1091235 -33.43  0.001197005    2.135    0.532
       305 -10.3066    189.2939     40.9172   4.7559686857e+01   3.3038361881e+01    0.6112705     0.201391 -26.43  0.002001827    3.737    0.732
       306  -8.4774    206.2578     25.6501   4.1358391224e+01   3.0852161555e+01    0.1398435   0.08726485 -59.94  0.000329117    1.602    0.376
       307  -9.3883     45.0509     24.5498   7.9736847643e+01   6.6455550270e+01    0.2067354    0.1600943 -39.26 0.0006662738    1.472    0.321
       308  -9.7570      4.4530    204.2994   1.2634393135e+02   3.0373639482e+01    0.2933492   0.07516491 -72.21  0.001307997    3.088    0.676
       309  -9.1953     86.1606     23.8623   6.3833766603e+01   5.9572754310e+01    0.1797064    0.1337793  19.87  0.001007723    1.276    0.217
       310 -11.0334      5.8694    198.4301   1.2574167870e+02   3.1484345550e+01    0.4044147    0.1315757 -77.66  0.001933106    2.535    0.606
       311 -10.6797    234.3922    197.3191   7.7028259407e+01  -2.6513159972e+00    0.4654502    0.3251517 -15.09  0.002508244    1.324    0.245
       312 -10.5951    245.6422    200.8812   7.5713256657e+01  -4.8736943976e+00    0.2142331    0.1510509  15.51  0.000657421    1.304    0.233
       313  -9.7520     59.6355     23.9759   7.3316763528e+01   6.4370128422e+01    0.2115294     0.159378  -0.10 0.0004327284    1.197    0.164
       314 -10.2072     60.3347     19.8776   7.1169699201e+01   6.4808175924e+01     0.268053    0.2252123 -48.33  0.001264142    1.699    0.411
       315  -9.3879    241.2948    199.3602   7.6186591723e+01  -4.0080547202e+00    0.1347762   0.08484865  -2.80 0.0007031535    1.703    0.413
       316  -9.2906    223.4962     22.0309   3.8700650123e+01   2.7271097755e+01     0.202473    0.1508833  82.28  0.000668885    1.266    0.210
       317  -8.7067    195.3280    199.6584   8.4932283702e+01   3.4001616957e+00    0.1279484    0.1106081  78.53  0.000673658    1.740    0.425
       318  -9.4577     74.5094     19.5315   6.5788801804e+01   6.2354754923e+01    0.2201673    0.1904613 -17.07 0.0006740468    1.214    0.176
       319  -8.9706     83.5234    195.9550   1.0892067417e+02   2.3058424958e+01    0.1890054    0.1253372 -67.61 0.0005354973    1.512    0.339
       320  -9.9284    169.8434    191.4850   8.8723509757e+01   9.3852835330e+00    0.3573028    0.2135762  26.00  0.001269105    1.845    0.458
       321  -8.8817    162.4985    190.9915   9.0227676030e+01   1.0814843144e+01    0.1811618    0.1281488 -77.95 0.0004531327    2.327    0.570
       322 -10.0834    239.5219    185.1749   7.3750153582e+01  -1.6115835700e+00    0.4394014    0.2298032 -12.34  0.001792214    2.744    0.636
       323 -12.1078      4.8237    184.3452   1.2509898726e+02   3.4614736315e+01    0.5878606    0.4248001  76.61  0.002945871    1.102    0.093
       324 -10.3114    250.1933    178.5540   7.0590545227e+01  -2.2756011159e+00    0.4766962    0.1419334 -30.99  0.001673747    3.548    0.718
       325 -10.1203     51.7286    172.9638   1.1353584663e+02   3.2560923133e+01    0.3336313    0.1708575 -85.07  0.001382443    2.145    0.534
       326 -10.2569    186.3806     15.2425   4.0916181805e+01   3.6820147473e+01    0.2494224     0.210205  81.24 0.0005047441    1.069    0.065
       327  -9.6225     28.0357    175.9931   1.1940934047e+02   3.4418796427e+01    0.1994227    0.1551263  79.97  0.001041261    1.082    0.076
       328  -9.0057      5.9978     16.4703   9.5940417079e+01   7.1743815943e+01    0.1482254   0.09844289   6.58 0.0004761132    1.509    0.337
       329 -10.0470    231.2603    175.4870   7.3275244256e+01   1.2728138171e+00    0.3905254    0.1289309  42.07  0.001469339    3.163    0.684
       330  -9.7105     57.1893    174.4580   1.1239963761e+02   3.1544968128e+01    0.2180261    0.1444836 -79.87 0.0008822121    1.414    0.293
       331 -10.3328    211.3497     18.8944   3.9136358522e+01   3.0433306384e+01     0.224921     0.195178 -86.45 0.0003249361    1.047    0.045
       332  -9.9033    247.7191    173.9403   7.0079044975e+01  -1.1810033944e+00    0.4260698    0.1634932  28.29  0.001483153    4.164    0.760
       333  -9.0783     94.4933     12.4288   5.6564141681e+01   5.9114504568e+01    0.1311045    0.1133438  32.11 0.0001281817    1.025    0.025
       334  -9.6111     39.4982    173.4997   1.1650978831e+02   3.3820251683e+01    0.2549193    0.1847991  81.39 0.0009509622    1.240    0.193
       335 -10.6839     35.5696    170.1158   1.1708689414e+02   3.5028468165e+01    0.3915483    0.2026588 -80.71    0.0016197    1.778    0.437
       336  -9.8584     66.1283     10.3758   6.4517202887e+01   6.4941367719e+01    0.2663179    0.1154118  50.13  0.001015137    2.340    0.573
       337  -9.9439      8.9973    156.3215   1.2211352674e+02   4.0647299485e+01    0.2781413    0.1509749 -64.98  0.001572491    1.569    0.362
       338 -11.5329      9.4782    167.0565   1.2287373970e+02   3.8124627402e+01    0.4576924    0.3300952  87.24  0.002140577    1.106    0.096
       339 -11.2332     13.5683    159.8665   1.2133230601e+02   3.9461427443e+01     0.466458    0.2215832 -68.89  0.001510316    1.710    0.415
       340  -9.1257    198.1081    167.8883   7.8054233592e+01   8.5545457972e+00     0.202094    0.1624092  -4.01 0.0008277732    1.292    0.226
       341  -9.8094    188.5074    165.6599   7.9566641543e+01   1.0817525905e+01    0.5733994    0.2208526 -31.55  0.001803366    3.618    0.724
       342  -8.6245    156.4745    166.4601   8.6814723382e+01   1.6925628722e+01    0.1480598    0.1426091  17.57  0.000219895    1.004    0.004
       343  -9.0837    152.2151    166.5972   8.7831912349e+01   1.7725630010e+01      0.19769    0.1396413  29.17 0.0002897044    1.496    0.332
       344 -10.1492     18.9911    164.8830   1.2049717323e+02   3.7834260032e+01    0.2753713    0.2503139 -18.42  0.001391827    1.520    0.342
       345 -10.0088    205.1392    162.9993   7.5597120494e+01   8.1197525274e+00    0.2978052    0.2107845  39.32 0.0006302746    1.439    0.305
       346  -9.9333    208.4858    160.4901   7.4395710440e+01   7.9417156628e+00    0.2790436    0.1335374 -35.42  0.001143202    2.035    0.509
       347 -10.3528     28.2688    161.5045   1.1795461521e+02   3.7785900026e+01    0.4185879    0.1569542 -65.56  0.001888658    2.179    0.541
       348  -9.4056     78.9559    159.9935   1.0490204113e+02   3.2073370458e+01    0.2336784    0.1601197  74.04  0.001127326    1.692    0.409
       349  -9.2879    224.2274    157.3598   7.0737546521e+01   5.5590370123e+00    0.2478959    0.1662493 -51.57  0.001200711    1.804    0.446
       350  -9.3643    215.4525    158.0092   7.2513981892e+01   7.0726405309e+00    0.2229878    0.1310626 -34.95  0.001028458    1.601    0.375
       351 -10.1176     21.9934    155.5188   1.1888485347e+02   3.9778580974e+01    0.3278624    0.2306367  23.84  0.001836983    1.778    0.438
       352 -12.1640     22.5217    149.4438   1.1812255026e+02   4.1183246169e+01    0.6024085    0.2915348 -41.61  0.002764822    2.768    0.639
       353 -10.6346     15.5790    147.5861   1.1969308814e+02   4.2199427970e+01    0.3159051    0.2548585  75.32  0.001170139    1.172    0.147
       354 -11.3338     12.8808    138.4422   1.1945394213e+02   4.4588071312e+01    0.7329889    0.3898695 -84.59  0.003757049    1.667    0.400
       355 -10.5125    104.7079    154.0134   9.7111867112e+01   2.9418174235e+01    0.3701142    0.3266299 -28.62  0.001982317    1.285    0.222
       356 -10.6951     31.7787    153.3423   1.1619523656e+02   3.9402496248e+01    0.4548668    0.2788275  76.09   0.00241174    1.694    0.410
       357  -9.9580      3.4540    152.6080   1.2312805209e+02   4.1915627793e+01    0.3385035    0.1656861  75.56  0.001738042    2.054    0.513
       358 -11.0315      3.6257    147.3456   1.2264948108e+02   4.3132086022e+01    0.4461987    0.2633888  54.23  0.002035576    1.740    0.425
       359 -11.4957      3.1539    140.8444   1.2219890856e+02   4.4690073083e+01     0.632171    0.3532296  82.22  0.003525754    1.680    0.405
       360 -10.1693     72.2182    151.7132   1.0533695622e+02   3.5051176974e+01    0.4916579     0.264639  56.32  0.002107739    2.204    0.546
       361 -10.8985     62.9247    150.4321   1.0762641817e+02   3.6613183117e+01    0.4153129    0.3582138 -50.42   0.00208352    1.223    0.182
       362 -11.1815     45.9169    147.9455   1.1182249711e+02   3.9258070445e+01    0.6921607    0.3996138 -59.64  0.003523901    1.537    0.349
       363  -9.3559    214.8844    151.1966   7.1122464357e+01   8.4024588191e+00    0.2698351     0.175791  66.66  0.001143139    2.576    0.612
       364  -9.6735    234.5878    149.9662   6.7285582429e+01   4.9407987843e+00    0.3051062    0.1870431 -12.74  0.001378972    2.053    0.513
       365  -9.6679    239.8422    146.7115   6.5680869420e+01   4.5440543649e+00    0.2323826    0.1704597 -22.23 0.0005891813    1.256    0.204
