#   1 NUMBER                 Running object number                                     
#   2 MAG_AUTO               Kron-like elliptical aperture magnitude                    [mag]
#   3 X_IMAGE                Object position along x                                    [pixel]
#   4 Y_IMAGE                Object position along y                                    [pixel]
#   5 X_WORLD                Barycenter position along world x axis                     [deg]
#   6 Y_WORLD                Barycenter position along world y axis                     [deg]
#   7 A_WORLD                Profile RMS along major axis (world units)                 [deg]
#   8 B_WORLD                Profile RMS along minor axis (world units)                 [deg]
#   9 THETA_WORLD            Position angle (CCW/world-x)                               [deg]
#  10 FWHM_WORLD             FWHM assuming a gaussian core                              [deg]
#  11 ELONGATION             A_IMAGE/B_IMAGE                                           
#  12 ELLIPTICITY            1 - B_IMAGE/A_IMAGE                                       
         1 -10.8284    189.6768     43.6838   3.6002891146e+01   3.2559770547e+01     3.432315     0.604045 -36.81   0.01083866    4.146    0.759
         2 -11.1176    212.8971     24.1024   2.8737404827e+01   2.9733966979e+01    0.9020886    0.5413975   1.24   0.00413637    3.344    0.701
         3 -12.6535    184.8442     89.9991   4.8823293148e+01   2.6746630228e+01     4.489164    0.9516155 -36.74   0.01256292    4.376    0.771
         4 -14.3283    177.9167     72.6948   4.5472590133e+01   3.1121826774e+01     14.97758     6.936759 -65.26   0.03449337    8.131    0.877
         5 -13.4856    243.0657     53.5232   3.2580770424e+01   2.0138395302e+01     3.806852    0.2820607  55.37  0.009921635    9.782    0.898
         6 -11.4482    220.1845     35.4870   3.0709733815e+01   2.6894964228e+01     11.42282          nan -41.38   0.01889391   17.265    0.942
         7 -12.1634    250.0014     29.0631   2.6959984105e+01   2.1784167721e+01     1.988352    0.5096616 -27.69  0.006892846    5.111    0.804
         8 -14.0047    223.5245     73.1129   3.8984837338e+01   2.1264435494e+01     3.747219     2.046246 -72.30   0.01588024    3.054    0.673
         9 -11.1870    206.7685     15.9213   2.7339695673e+01   3.1927150815e+01    0.7639618    0.4051932 -30.83  0.004116171    1.873    0.466
        10  -9.7118    110.7932     32.7183   4.6438077916e+01   5.2966519439e+01     0.367009    0.2237166 -36.71  0.001714307    1.757    0.431
        11 -10.3307    171.3898     21.2632   3.2203071180e+01   3.9468432583e+01      0.33767     0.219512 -27.76  0.001292388    1.655    0.396
        12  -8.8070    225.0882     18.8460   2.6584623032e+01   2.7755722117e+01    0.3039638     0.191554  27.23  0.001549958    3.026    0.670
        13  -7.0779    229.1871     31.0043   2.8928599540e+01   2.5577761494e+01     1.318037      1.24313  37.29  0.009536661    1.391    0.281
        14 -10.4831    134.8189     16.1213   3.5681326603e+01   4.8919190622e+01    0.3761101    0.2233601 -24.95  0.001500383    1.865    0.464
        15 -11.0263     92.4367     13.6658   4.3396369719e+01   5.9406954443e+01    0.4553887    0.2565055 -19.96  0.001146378    1.984    0.496
        16  -8.5359    232.7609     14.1770   2.5051058881e+01   2.6701613221e+01    0.2031254    0.1204454 -46.62  0.001080302    1.389    0.280
        17  -8.2504    241.5962     12.0860   2.4068264688e+01   2.5195699090e+01    0.1647431    0.1213246  32.23  0.001046555    2.206    0.547
        18  -9.6087    246.2607     11.9636   2.3770858822e+01   2.4323709949e+01    0.2323775    0.1747717 -29.22  0.001637831    1.465    0.317
        19 -10.3471    249.9909      2.9142   2.1799172889e+01   2.4533573672e+01    0.3704794    0.2104389  -9.59  0.001957066    3.291    0.696
        20  -9.9323    120.1576      9.3803   3.5788626196e+01   5.3146431634e+01    0.3268436    0.3115295 -36.49   0.00107628    1.180    0.153
        21  -8.7220    184.0823      8.6686   2.7502292569e+01   3.7734663967e+01    0.2111874     0.168478 -33.16 0.0007900104    1.345    0.256
        22  -8.7166    188.0456      5.7803   2.6421475897e+01   3.7092954980e+01    0.1932446    0.1591077 -54.78 0.0003606519    1.148    0.129
        23  -8.6385    235.4664      3.4394   2.2661286581e+01   2.7242814469e+01    0.2229148    0.2138242   1.21  0.001752548    1.461    0.315
        24  -7.9714     79.4260      4.5332   4.2777497096e+01   6.3202105810e+01    0.1292392    0.1113336  41.18  0.000102792    1.027    0.026
        25  -8.2819    182.1930      3.0416   2.6217245339e+01   3.8682300731e+01     0.183213    0.1597846  57.58  0.001223064    1.282    0.220
        26  -9.1033    118.9869      3.2798   3.3766418748e+01   5.3932068484e+01    0.1911782     0.150367  64.86 0.0004367601    1.098    0.089
        27  -8.4650    171.4807      2.1856   2.6939700435e+01   4.1257429417e+01    0.2075634    0.1438158 -72.00 0.0006913942    1.365    0.268
        28  -8.7225    147.8897      2.0998   2.9367079234e+01   4.6935581912e+01    0.2247284    0.1647373  74.37 0.0005595469    1.189    0.159
        29  -8.4238    137.0306      1.4404   3.0495896525e+01   4.9644885613e+01    0.1992085    0.1110637  70.62 0.0003807843    1.547    0.354
        30 -12.9083     29.0437    154.3661   1.0593405962e+02   3.9601535332e+01     1.966831     1.014362  11.23  0.001416737    2.529    0.605
        31  -8.9859    136.8571    249.7848   9.0709884122e+01   5.5650442748e+00    0.3622791    0.1404067  41.76  0.001644969    2.418    0.586
        32 -12.4064     40.7395    149.5273   1.0187089342e+02   3.9689508700e+01    0.9645842    0.8333464 -67.95   0.00266521    1.093    0.085
        33  -9.3522    178.1883    246.8585   8.1951446997e+01   5.5376383997e-01    0.2506016    0.2093628  51.29  0.001320194    1.796    0.443
        34  -9.3821    113.1009    242.5724   9.4872195833e+01   9.9356286931e+00    0.3904908    0.1857873  52.91  0.001747868    2.753    0.637
        35 -10.3211    199.1863    241.2309   7.7077201996e+01  -1.3386156825e+00    0.2039071    0.1637692   1.57 0.0002154366    1.108    0.098
        36  -9.2692    165.6938    240.6179   8.3558208177e+01   3.1208774366e+00    0.2638528    0.1735328  31.62  0.001172938    1.319    0.242
        37 -13.4789    228.7649     92.5636   4.2724221364e+01   1.7385266323e+01      3.88762     1.407124 -52.53  0.009458926    4.348    0.770
        38 -12.3843    246.8273     59.4227   3.3478510969e+01   1.8682229718e+01    0.6495518    0.3688077 -66.20  0.002402964    2.045    0.511
        39  -9.3808    167.4622    236.1467   8.2552860670e+01   3.5670282405e+00    0.2280623    0.1752707  17.34 0.0003304922    1.056    0.053
        40 -10.4449    194.1205    157.2956   6.2888893670e+01   1.2888416521e+01    0.7333928    0.4292612 -59.81  0.002919998    3.080    0.675
        41  -7.7758    219.4881    159.4795   5.8644170241e+01   8.2777822438e+00    0.1328381    0.1129008 -17.58 0.0001326345    1.038    0.036
        42  -9.7589    167.3987    158.2923   6.8704191281e+01   1.7480433157e+01     0.259264    0.2313425  -0.31 0.0002855523    1.050    0.047
        43 -12.2195    203.0517     80.0504   4.3378146424e+01   2.4432697687e+01     1.422686     1.060539 -68.35  0.003485323    1.529    0.346
        44  -7.7612    172.5954    155.5007   6.6962836367e+01   1.7075139469e+01    0.1445846    0.1318166 -12.84   0.00080273    1.025    0.024
        45  -8.3648    110.9892    153.0193   8.1705516178e+01   2.8875074132e+01    0.2109368    0.2017912  13.91            0    1.022    0.022
        46  -8.0854    203.8780    152.3168   5.9964503385e+01   1.2074372575e+01    0.1943887    0.1803001  63.26 0.0008413522    1.426    0.299
        47  -8.8266    173.2433    149.0615   6.5418847521e+01   1.8202447051e+01     0.325809    0.2022262 -42.37  0.001239403    1.580    0.367
        48  -9.0965    133.8677    146.4534   7.4184922674e+01   2.6215529918e+01    0.6011301    0.2257759 -56.19  0.001784831    3.832    0.739
        49 -10.1404    162.5943    146.0757   6.7118040535e+01   2.0809198540e+01    0.5565112    0.3879416 -76.82  0.001053579    2.669    0.625
        50 -10.1465     53.6797    138.9100   9.6283799427e+01   4.0956358816e+01    0.6504489    0.3245752  40.78  0.002774722    2.044    0.511
        51 -10.6914     58.7109    146.6451   9.5948642792e+01   3.8370143206e+01    0.6268294    0.5547376 -36.52  0.003529507    1.200    0.167
        52  -9.9332     70.2715    145.5539   9.2207642173e+01   3.7121555639e+01    0.4505299    0.3384383  34.83  0.001514006    1.341    0.254
        53 -10.5419     66.4993    143.5202   9.3018543266e+01   3.8150367373e+01    0.4810412    0.4154962 -79.75  0.001698527    1.178    0.151
        54  -8.9686    223.8630    145.6559   5.5040713755e+01   9.8217601871e+00    0.2836174    0.2214092  71.69  0.001098332    2.086    0.521
        55 -10.0042    210.9781    138.5736   5.5720203712e+01   1.3198620330e+01     0.321351    0.2853832 -48.26 0.0004634304    1.268    0.212
        56 -10.0623    217.3685    144.6544   5.5923113282e+01   1.1070218381e+01    0.3892479    0.2681418 -27.97  0.001204709    1.293    0.226
        57  -8.9683    214.5410    140.4578   5.5510337339e+01   1.2256225302e+01    0.2280451    0.1966011 -39.02 0.0004910686    1.186    0.157
        58  -8.7304    192.3116    144.2776   6.0431437129e+01   1.5560829859e+01    0.2314821    0.2179589  16.45 0.0005344841    1.130    0.115
        59 -10.3629    192.8344    139.7621   5.9325604692e+01   1.6283663765e+01    0.5433351    0.3581726 -66.62  0.002024712    2.685    0.628
        60  -9.7516    174.6170    140.2136   6.3136891403e+01   1.9654377732e+01    0.3713161    0.2552005 -59.88  0.001598117    1.937    0.484
        61  -9.9369    145.9645    141.5043   7.0018794574e+01   2.4969156198e+01    0.5961711    0.2494966 -46.48  0.002157064    2.406    0.584
        62 -10.0307    142.7762    136.1251   6.9563377684e+01   2.6742738470e+01    0.4873638    0.3049375 -72.87  0.001724461    3.161    0.684
        63 -10.7457    179.0856    135.7974   6.1181953354e+01   1.9635448773e+01    0.5688467    0.4007435 -63.09  0.002616192    1.985    0.496
        64  -9.6322    223.5003    129.4798   5.1651037377e+01   1.2516351189e+01    0.3594846     0.254524 -68.60   0.00124195    2.272    0.560
        65  -9.3268    190.3794    131.7408   5.7980890146e+01   1.8206425262e+01    0.2907602    0.2390288 -78.50  0.001506706    1.717    0.418
        66 -10.0845    232.0096    129.6707   5.0371926266e+01   1.1033083968e+01    0.2896064    0.2607742 -67.56  0.001064455    1.415    0.293
        67  -7.6949    203.3029    131.3159   5.5472892409e+01   1.5839462276e+01    0.1413233    0.1034724  -2.77 0.0003183404    1.620    0.383
        68  -9.7689    159.9863    129.1062   6.3764646772e+01   2.4747724899e+01    0.4708095    0.3206157 -27.03  0.002148723    1.580    0.367
        69  -9.1893    201.7085    125.9192   5.4533974494e+01   1.7079991033e+01    0.2296191    0.2101366  59.67 0.0004441057    1.296    0.228
        70 -10.1044    171.1015    120.6891   5.9261956018e+01   2.4125503803e+01    0.7665201    0.3697813 -60.31  0.002157426    4.944    0.798
        71  -8.1950    205.5247    122.4467   5.3067715663e+01   1.6957478205e+01    0.1385882    0.1247566 -32.04  0.000111064    1.049    0.046
        72  -8.1502    135.2693    119.9898   6.7536725686e+01   3.1729810805e+01    0.2245181    0.1953195 -39.69 0.0005403367    1.137    0.121
        73  -9.6775    228.6421    117.5000   4.8255902388e+01   1.3540002603e+01    0.4504747    0.2709041 -67.92  0.001863863    3.379    0.704
        74  -8.2452     61.1422    118.9012   9.0102541248e+01   4.5118246774e+01     0.199224    0.1897998 -86.63 0.0002740203    1.096    0.087
        75  -8.3514    178.5473    232.4852   7.9761050123e+01   2.6182216736e+00    0.1271763   0.09959517   8.06 0.0001526895    1.047    0.045
        76  -9.3118    200.7983    116.2240   5.2450240092e+01   1.8939812317e+01    0.3068505    0.2280616  79.57  0.001518214    1.996    0.499
        77  -9.1803    175.3967    112.3209   5.6295447867e+01   2.4811937384e+01    0.4314136    0.2551619 -24.64  0.001405413    2.004    0.501
        78  -9.4375    134.8212    111.6158   6.5478755904e+01   3.3607802017e+01    0.6141326    0.1158258 -43.89  0.001451124    5.253    0.810
        79  -8.6926    168.2817    231.5222   8.1700131218e+01   4.1755306277e+00    0.2009569    0.1606822 -24.96 0.0005744747    1.307    0.235
        80  -9.9540    205.6531    109.9237   5.0146119603e+01   1.9062113045e+01    0.4133582    0.3396821  -1.77  0.001624807    1.373    0.272
        81  -9.8083    119.4395     91.7897   6.4099134152e+01   4.1038600869e+01    0.3864884    0.2561688 -52.18  0.001259785    1.654    0.395
        82 -10.7006    122.0962    102.3996   6.6401191406e+01   3.8254921475e+01    0.4988215    0.3721596 -62.38  0.001668295    1.614    0.381
        83 -10.3659    120.1987     96.7176   6.5322337080e+01   3.9855977830e+01    0.4547894    0.2744505 -57.21  0.001069255    2.056    0.514
        84  -9.8045    204.9604     99.4720   4.7787425248e+01   2.0938319744e+01    0.4642999    0.2231109 -51.25  0.001434037    2.405    0.584
        85 -10.2081     80.2472    101.8200   7.9381965698e+01   4.6439108866e+01    0.2514887    0.2441677   3.40 0.0002822448    1.041    0.040
        86  -8.3127    210.6796     99.3623   4.6863761251e+01   1.9812606929e+01    0.2725324    0.1605304 -55.90  0.001153833    2.021    0.505
        87  -8.3452    208.5274     95.4965   4.6282160781e+01   2.0865401361e+01    0.2537178    0.1807012 -54.16 0.0002030634    1.460    0.315
        88  -9.3846    171.3264     96.6773   5.3101234141e+01   2.8554215459e+01    0.2566531    0.2041861  29.90 0.0008737946    1.403    0.287
        89  -9.4563    167.6573     98.3098   5.4274734319e+01   2.9068158280e+01    0.2734643    0.2068729 -41.83 0.0007363074    1.279    0.218
        90 -10.7300    163.2848     98.2838   5.5180387832e+01   3.0040340226e+01    0.7063632    0.3561878  39.41  0.002763116    2.259    0.557
        91  -9.8462    145.4096     93.6662   5.7917864471e+01   3.4910714507e+01    0.3393226    0.2967681 -59.13 0.0006899502    1.233    0.189
        92  -9.3199    151.1923    102.8371   5.9089511330e+01   3.1849421212e+01    0.4174524    0.2449756 -31.84  0.001737497    1.821    0.451
        93  -9.4384    136.8880     99.0277   6.1515238482e+01   3.5756839566e+01    0.3431728    0.2213319  55.33 0.0008038497    1.710    0.415
        94 -11.6800    225.4014     86.2559   4.1745199768e+01   1.8972114623e+01    0.4407103    0.3603005 -53.86  0.001031936    1.169    0.145
        95 -10.9762    161.8394     89.4611   5.3093902798e+01   3.1971275554e+01    0.3541269    0.2721651 -27.21 0.0006261283    1.351    0.260
        96  -8.1040    102.0578    230.3130   9.5887346748e+01   1.3635937527e+01    0.1791904     0.141245  36.11 0.0004346973    1.079    0.073
        97  -9.6331    130.4019     83.1062   5.8541227701e+01   4.0319652289e+01    0.2436656    0.2114259  74.07 0.0004411083    1.316    0.240
        98 -10.8803    141.1556     78.2823   5.4448583488e+01   3.8733840560e+01    0.6259321     0.304328  36.86  0.002271299    2.589    0.614
        99 -10.0822    158.7003     74.4768   4.9527646896e+01   3.5287605532e+01    0.3045499    0.2316702   3.34  0.001277958    1.742    0.426
       100 -10.6931    151.8782     71.3841   5.0023077432e+01   3.7406064184e+01    0.4817738    0.2594111  52.14  0.001200218    1.830    0.453
       101 -10.6959    153.4717     60.6806   4.6516359581e+01   3.8734813190e+01    0.5921795    0.2734041 -34.08  0.001742893    2.184    0.542
       102  -7.6144    100.5845     67.8408   6.2096680015e+01   4.9806013269e+01    0.1964922    0.1414258 -49.92 0.0009208962    1.543    0.352
       103  -9.6015    130.1012     63.5088   5.2479754387e+01   4.3870877968e+01    0.2801294    0.2357336 -34.45 0.0005059223    1.218    0.179
       104  -9.7855    144.4515     59.4623   4.7965409383e+01   4.1089670977e+01    0.3285145    0.2746395 -44.70 0.0009611702    1.221    0.181
       105 -11.2471    144.0396     54.3926   4.6468016377e+01   4.1956148562e+01    0.6943731       0.3681  52.84  0.003012942    1.797    0.443
       106  -7.8517     72.7982     58.3864   6.8406362128e+01   5.7128868403e+01    0.1905191    0.1302951  27.29 0.0002555915    1.485    0.327
       107  -9.2526    176.7960     52.2811   4.0087896526e+01   3.4404450244e+01    0.3629815    0.2259358  62.05  0.001794336    1.592    0.372
       108  -8.4870      2.7121     53.3604   1.0019463408e+02   6.6423432466e+01    0.1178362   0.09337004  70.73 0.0004646961    1.687    0.407
       109 -10.2102    134.0232     45.4890   4.5674476211e+01   4.5667251988e+01    0.3844497    0.2489991 -24.40  0.001406227    1.718    0.418
       110 -11.6375    133.6879     40.1989   4.3981956965e+01   4.6462435664e+01    0.8207074    0.4462265 -62.54  0.003152903    2.925    0.658
       111  -9.1046    115.3949     46.9289   5.0500730554e+01   4.9941809529e+01    0.2198849    0.1927482  63.77 0.0004607908    1.165    0.142
       112  -7.7952     96.0450     44.0445   5.4825897773e+01   5.4818502735e+01    0.1677637    0.1562943   7.10 0.0004306706    1.058    0.054
       113 -11.5859    233.2863     44.6482   3.1560651638e+01   2.3132278080e+01    0.6610849    0.3223456  66.83  0.000531415    2.204    0.546
       114  -8.8723    103.3817     42.8048   5.2202542743e+01   5.3342826015e+01    0.1978394    0.1362263 -15.48 0.0009463556    1.684    0.406
       115 -11.1674    204.1551     37.1619   3.2682512485e+01   3.0121993550e+01    0.3973508    0.2204197 -33.07  0.001075456    1.733    0.423
       116  -8.8151    198.7906     37.4791   3.3340954990e+01   3.1271864365e+01    0.2769213     0.134466 -34.28  0.001320667    1.933    0.483
       117  -7.5366    196.4737    229.4924   7.5769593604e+01   6.6094396926e-01    0.1254421    0.0968295   4.76 0.0008099175    1.026    0.025
       118  -9.2607    163.0425     34.6269   3.7131528285e+01   3.9975146034e+01    0.2906199    0.2043784 -38.83 0.0006787732    1.431    0.301
       119 -10.0478    135.5500    224.3080   8.7637023169e+01   1.0039580161e+01    0.2344007    0.2088579   4.15 0.0004492882    1.104    0.094
       120 -10.4010    132.1892     29.2469   4.0580766271e+01   4.8179901035e+01    0.3209675    0.2036771 -15.98  0.001207781    1.895    0.472
       121  -8.7089    163.5441     26.3691   3.4651051701e+01   4.0805896495e+01    0.2488548     0.206917 -82.96  0.000730652    1.156    0.135
       122  -9.3499    179.2617     23.6410   3.1941859840e+01   3.7349177452e+01    0.4310944    0.2423946  70.98  0.002194475    1.675    0.403
       123  -8.5724    224.4923    218.6470   6.8796242654e+01  -1.4184431278e+00    0.2049007    0.1622892  38.98   0.00100025    1.770    0.435
       124 -13.3102    238.4784     67.2086   3.5972037834e+01   1.9197371041e+01     1.290779    0.8729016 -65.51  0.002821563    1.580    0.367
       125  -7.4460    242.2702     22.3262   2.6115320907e+01   2.3983839892e+01   0.09795001   0.08875042  12.33 0.0004095914    1.577    0.366
       126  -8.7722    200.5896     32.1436   3.1823726197e+01   3.1506161893e+01    0.2660629    0.1981333   9.92   0.00147089    2.005    0.501
       127  -8.1848    232.2766     19.3843   2.6185903400e+01   2.6249609656e+01    0.1888283   0.08805288 -34.44  0.001007446    1.903    0.474
       128  -8.4572     87.0339    217.6385   9.7871236677e+01   1.8136828482e+01    0.1895973    0.1727748 -40.95 0.0004860623    1.264    0.209
       129  -8.4623    158.7415    211.0410   8.0517782666e+01   8.9726065129e+00    0.1795358    0.1657068  22.36 0.0003864688    1.182    0.154
       130  -8.7976    144.0088     18.2025   3.4936447436e+01   4.6446774037e+01    0.2164141    0.1899788 -33.47 0.0004946456    1.243    0.195
       131 -11.8660    234.7188     50.6817   3.2746219814e+01   2.2094569506e+01     0.633757    0.3478241  49.57 0.0004581889    2.302    0.566
       132  -8.7268    164.9986     17.2237   3.1824041421e+01   4.1416725560e+01    0.2034306    0.1757326 -37.76  0.000463063    1.233    0.189
       133  -8.2626    161.1631     17.8237   3.2468709261e+01   4.2284153808e+01    0.1644551     0.142904  44.99 0.0002475364    1.265    0.209
       134  -9.2835    188.1370    209.3208   7.4071951681e+01   4.9004032469e+00    0.2967363    0.2512833  62.68  0.001059419    1.937    0.484
       135  -7.3604    144.2809    207.6203   8.3173701721e+01   1.1793454405e+01    0.1291586    0.1058689  68.77 0.0002194914    1.717    0.418
       136  -7.9789    237.7553    204.1366   6.3993048767e+01  -1.0799961754e+00    0.1612625    0.1387487 -82.59 0.0009459443    2.847    0.649
       137  -9.1302     19.5112    201.0976   1.1231198162e+02   2.9362297550e+01     0.187216    0.1652383  21.61 0.0003669566    1.331    0.249
       138  -9.5704    192.9655    195.1106   7.0580541530e+01   6.5123099616e+00    0.8116052    0.4313818 -60.84  0.002412728    6.954    0.856
       139  -8.6874     22.4829    185.6179   1.1052865201e+02   3.2611928072e+01    0.1901245    0.1836215  34.97 0.0003650544    1.207    0.172
       140  -8.1844    223.4768     13.4167   2.5512842970e+01   2.8652745503e+01    0.1165837   0.09620222 -67.20 0.0001532402    1.022    0.022
       141  -7.6397    169.7119    184.7105   7.3492359617e+01   1.2020193291e+01    0.1398835    0.1001224  -3.59 0.0002386954    1.539    0.350
       142  -8.6696    241.9861    183.2688   5.9504272005e+01   1.3279102345e+00    0.1640813    0.1456794  -7.46 0.0004456297    1.271    0.213
       143  -7.6495     67.4078    193.5318   9.9882048874e+01   2.5902172310e+01    0.1331581    0.1200477  60.77 0.0001640499    1.035    0.033
       144 -10.0354    238.3332    175.9133   5.8710973341e+01   2.9039364797e+00    0.2958845    0.2408452  72.75 0.0009079921    2.512    0.602
       145  -9.4842    212.8230    176.7043   6.3278345696e+01   6.5125818217e+00    0.3704834    0.1995418  22.85  0.001522954    2.136    0.532
       146 -10.8774    228.2068    171.6025   5.9564124193e+01   5.0099192806e+00    0.5535036    0.3157143 -14.42  0.002736376    2.003    0.501
       147  -7.4095    218.3227    172.2830   6.1417105966e+01   6.3856819218e+00    0.1331642   0.08974341  -2.08 0.0001962284    1.594    0.372
       148  -8.6290    187.7653    169.5516   6.6701360898e+01   1.1777615043e+01      0.20754    0.1904629 -35.79 0.0006853725    1.238    0.192
       149  -8.4752    184.9686    166.6430   6.6681951777e+01   1.2781694117e+01    0.2162396    0.1865653 -40.18 0.0005557421    1.256    0.204
