#   1 NUMBER                 Running object number                                     
#   2 MAG_AUTO               Kron-like elliptical aperture magnitude                    [mag]
#   3 X_IMAGE                Object position along x                                    [pixel]
#   4 Y_IMAGE                Object position along y                                    [pixel]
#   5 X_WORLD                Barycenter position along world x axis                     [deg]
#   6 Y_WORLD                Barycenter position along world y axis                     [deg]
#   7 A_WORLD                Profile RMS along major axis (world units)                 [deg]
#   8 B_WORLD                Profile RMS along minor axis (world units)                 [deg]
#   9 THETA_WORLD            Position angle (CCW/world-x)                               [deg]
#  10 FWHM_WORLD             FWHM assuming a gaussian core                              [deg]
#  11 ELONGATION             A_IMAGE/B_IMAGE                                           
#  12 ELLIPTICITY            1 - B_IMAGE/A_IMAGE                                       
         1 -13.3368      7.3078     68.5764   8.4112682990e+01   6.2248034524e+01    0.9031659      0.51211 -57.73  0.002695495    1.408    0.290
         2 -10.2591     30.8877     21.4889   5.6531655832e+01   7.0863712286e+01    0.9776387    0.4264139 -38.95  0.004497154    2.019    0.505
         3 -11.7211     41.9004     20.4051   4.9758999970e+01   6.9558474993e+01    0.6131403    0.4655646   9.69  0.002397391    1.307    0.235
         4 -13.2364     58.4069     34.7025   4.8918875656e+01   6.4397753308e+01     1.845787    0.9048114  39.37  0.008134731    2.139    0.532
         5 -11.6912     52.1612     19.4414   4.4025081539e+01   6.8065707338e+01    0.7864493    0.4268818  43.96   0.00379282    1.969    0.492
         6 -13.3247     59.1067      6.1928   3.3123944002e+01   6.8592129987e+01     1.703886     1.054552 -42.77  0.008579225    2.007    0.502
         7 -11.9390     70.4753      3.5982   2.7262444866e+01   6.6496949252e+01     0.796102    0.5286101 -52.99  0.003919882    2.194    0.544
         8 -13.0796     72.5719     24.6009   3.7993962310e+01   6.3421247056e+01    0.6890947    0.5589824  82.28 0.0005878842    1.856    0.461
         9 -11.9446     79.0226     20.9172   3.3738367542e+01   6.2582550360e+01     1.223116    0.8483043 -81.23  0.005217099    2.849    0.649
        10 -11.8667      2.5284     29.1921   7.7404433295e+01   7.1683282091e+01     1.624804    0.5359767 -27.99   0.00629052    3.828    0.739
        11 -12.7931      5.6279     37.6625   7.8104493320e+01   6.9640903431e+01    0.8458675    0.5289594 -89.89  0.004539609    2.076    0.518
        12 -11.7702     20.1393     31.0803   6.7353217990e+01   7.0082782214e+01     1.017941    0.3269409 -55.17  0.004161922    2.585    0.613
        13 -13.0450    232.8573     61.3063   1.7756651002e+01   1.8787530958e+01     1.798441    0.6859884 -38.79  0.007342268    2.189    0.543
        14 -13.6402    197.0647     46.8803   1.8278684868e+01   2.9102427364e+01     1.578706    0.8805936 -43.29  0.007010202    1.692    0.409
        15 -10.4108    201.6562     18.2455   9.4949961707e+00   3.1399158856e+01    0.4948998    0.4552352 -32.54  0.002999037    1.132    0.117
        16 -12.3345    201.3399     32.1716   1.3500798407e+01   2.9902973607e+01    0.8088835    0.5282006 -27.52   0.00239764    1.493    0.330
        17 -11.7728    190.7009     22.5358   1.1869369687e+01   3.3705649779e+01     1.050109    0.5757814  39.01  0.004456523    2.356    0.576
        18 -12.2874    211.4024     20.9842   9.3484248008e+00   2.8708835292e+01    0.6878164    0.4083284  65.37  0.003438696    1.718    0.418
        19 -11.9419    222.8918     10.1502   5.5494960335e+00   2.7114368843e+01    0.7512444    0.5253802 -53.60  0.004310805    1.255    0.203
        20 -13.3117    226.7088     21.1156   8.0693471546e+00   2.5084242037e+01     1.698196     0.902438  13.89  0.006101663    4.395    0.772
        21 -13.8900    221.3266     38.4138   1.3073600739e+01   2.4328462904e+01    0.8200433    0.5243793 -83.43  0.001857792    1.829    0.453
        22 -11.8514    227.0596     33.7917   1.1302178889e+01   2.3563508254e+01    0.7164393    0.4098012 -29.04  0.002849242    1.597    0.374
        23 -12.9932    249.5319     10.6131   3.9294968660e+00   2.1179285310e+01    0.5478644    0.4241118 -21.94  0.003500066    1.366    0.268
        24 -13.5166    241.7325      6.9406   3.5320489658e+00   2.3207475847e+01    0.8003185    0.3464123 -63.61  0.003670434    2.392    0.582
        25 -11.1536    102.8409     20.7639   2.6377953068e+01   5.7043819447e+01    0.4709127    0.2357959 -18.56  0.001909254    2.221    0.550
        26 -10.7237    160.0267     14.8826   1.3138352701e+01   4.2605838105e+01      0.29724    0.1874663 -35.83 0.0008206232    1.577    0.366
        27 -10.1256    139.0831     16.4033   1.6834792668e+01   4.8093129458e+01    0.3030203    0.1964453 -31.54 0.0008075071    1.577    0.366
        28 -11.1117    153.5211     16.0303   1.4443028626e+01   4.4240738189e+01     0.499358    0.3285453  16.51  0.002266451    1.951    0.487
        29 -12.1683    149.9906     13.0157   1.3871151600e+01   4.5494767515e+01     0.274138     0.246055 -51.10 0.0004711037    1.142    0.124
        30 -11.6573    123.6790     11.6161   1.7667071471e+01   5.2683354241e+01    0.5238433    0.3167412 -13.32            0    1.831    0.454
        31 -11.1894     94.0212     11.8125   2.4482230275e+01   6.0217544449e+01    0.2311407    0.1881038  31.27 0.0002763419    1.148    0.129
        32 -10.4624     36.7359     14.6775   4.9355539046e+01   7.1273609707e+01    0.1877335     0.171974  -2.52 0.0001286218    1.205    0.170
        33 -10.6072    187.3048     13.2777   9.4516616139e+00   3.5557525173e+01    0.3769547    0.1830857 -64.53  0.001472366    2.442    0.591
        34  -9.6445    212.9160     12.2476   6.8551748761e+00   2.9262724432e+01    0.3425627    0.1362111 -60.38  0.001299738    2.925    0.658
        35 -12.3732    116.4091      8.9545   1.7939079020e+01   5.4845914876e+01    0.6436201    0.3628926  -3.18  0.002030813    2.150    0.535
        36 -10.7145    112.2011      4.1091   1.6627142746e+01   5.6370246394e+01    0.3840085    0.1891175  53.71   0.00134426    1.769    0.435
        37 -10.8421    131.3513     11.0586   1.6058123120e+01   5.0697114997e+01    0.4415713     0.338319 -54.90  0.001648412    1.436    0.304
        38  -9.9045     88.6052     11.9984   2.6098315442e+01   6.1493347978e+01    0.2055631    0.1323317 -21.73  0.000711675    1.576    0.365
        39 -11.5729     76.7588      5.0000   2.5980712371e+01   6.4960577839e+01    0.4826787    0.2731816 -31.66 0.0003846988    1.844    0.458
        40 -12.1365    172.9602      6.6580   8.8725155968e+00   3.9942656243e+01    0.4348194    0.2693979  -0.75  0.001028508    2.077    0.519
        41 -10.3873     84.8632      8.6332   2.5458142382e+01   6.2729723303e+01    0.3297668    0.1647764 -18.21  0.001436056    2.099    0.524
        42 -10.5402     27.2553      9.4632   5.1902292958e+01   7.3421209764e+01    0.2255612    0.1678828   0.52 0.0007654414    1.263    0.208
        43 -10.9852    145.7045      6.0902   1.1942408983e+01   4.7291463461e+01    0.3961686    0.3060978 -31.53  0.002107747    1.351    0.260
        44 -10.8015    142.2282      2.2314   1.0977654529e+01   4.8551557853e+01    0.3300879    0.2282031 -54.08 0.0006973696    1.555    0.357
        45  -9.6454    110.3840      9.3227   1.9347483386e+01   5.6372568694e+01    0.1915371    0.1288948 -32.15  0.000933699    1.566    0.361
        46 -10.9483    233.9290     10.9625   4.9910298391e+00   2.4517928048e+01    0.4407923    0.3249015  63.34 0.0009877977    1.516    0.341
        47 -11.4799    193.6451      7.3310   7.0962481539e+00   3.4514579384e+01    0.3142541    0.2499253  40.53  0.001344726    1.465    0.317
        48  -9.5789    156.6687      7.7114   1.1089604759e+01   4.4194800006e+01    0.2189947   0.08996024  49.27 0.0008231369    2.451    0.592
        49  -9.6360    160.0560      6.0120   1.0092200788e+01   4.3437514690e+01    0.1694494    0.1421882  77.27  0.000401882    1.114    0.102
        50  -9.9203    210.4729      6.5481   5.5138191519e+00   3.0415493013e+01    0.1314047    0.1178681 -65.25 0.0004177685    1.032    0.031
        51 -10.4866    101.7409      4.8564   1.9178012192e+01   5.8981198213e+01    0.3222947    0.2361347 -18.38  0.001700172    1.428    0.300
        52  -9.4477     91.3300      6.6956   2.2641224021e+01   6.1384344705e+01    0.1369788    0.1073145 -63.43 0.0003527371    1.654    0.395
        53 -10.3741      2.9713      6.1543   6.7446777190e+01   7.6405291725e+01    0.2356377    0.1480244  -4.43  0.001066328    1.637    0.389
        54 -10.8132    182.2991      2.6113   6.7017417387e+00   3.7858457256e+01    0.4345528    0.2294333 -77.57  0.001904375    2.080    0.519
        55 -10.1851    187.3160      1.2804   5.8657503400e+00   3.6680860381e+01    0.2174719    0.1238322  69.92 0.0005146503    1.655    0.396
        56 -10.5725    217.5949      2.5263   3.9500878678e+00   2.9094912281e+01    0.2388706    0.2149654  66.92  0.001249867    1.246    0.197
        57 -10.9191    231.8701      1.6430   2.8398458697e+00   2.5892857124e+01    0.3666557    0.1590989  84.00  0.001283465    2.401    0.584
        58 -10.9798    250.1721      1.5264   1.8147494318e+00   2.1944084450e+01    0.1677119    0.1207097 -67.70 0.0003140931    1.240    0.194
        59  -9.5132    207.4785      2.5775   4.6630808339e+00   3.1516555952e+01     0.127727    0.1194791 -83.76 5.321825e-05    1.109    0.099
        60 -11.5138     87.0090      1.4304   2.1057842889e+01   6.2901187692e+01     0.467997    0.1138193  58.13  0.001181022    3.208    0.688
        61 -11.3615     48.3010      1.4942   3.4905979333e+01   7.1211036228e+01    0.4194425    0.1331487  47.15  0.001665147    2.954    0.661
        62 -10.1819    250.2750     93.2152   2.3444902740e+01   1.0894302045e+01       0.1924    0.1631438  -9.86 0.0008312535    1.140    0.123
        63  -9.7294    227.3466     92.2697   2.6292265515e+01   1.5584667965e+01    0.1392886    0.1029909  15.52 0.0004406263    1.617    0.382
        64 -11.6003     96.5713     90.9603   5.5165847121e+01   4.5512475867e+01    0.5270985    0.4017785  62.08  0.002471778    1.545    0.353
        65 -10.2299    172.6126     91.1298   3.5397769492e+01   2.8187276524e+01    0.2562124    0.2128913  68.38 0.0005809866    1.359    0.264
        66 -11.4003     79.7726     90.8243   6.0704273715e+01   4.8624257721e+01    0.2450224    0.2348611 -40.55 0.0003389835    1.037    0.035
        67 -11.9370    223.2610     88.3660   2.5898711974e+01   1.7026190728e+01    0.3885835    0.3262812  53.96  0.001425284    1.333    0.250
        68 -12.2357    183.4418     64.6615   2.5598452275e+01   2.9953618852e+01     1.379133     0.440413 -49.16  0.003581126    4.859    0.794
        69 -13.5782    195.6881     85.4883   2.9485470546e+01   2.3664397912e+01    0.8624883    0.6227298  31.28   0.00360346    1.591    0.371
        70 -11.9697    188.5810     81.8965   2.9722923358e+01   2.5936526569e+01    0.3328165    0.2522826  32.93 0.0004089604    1.470    0.320
        71 -12.3428    192.8092     75.9062   2.7295594702e+01   2.5886774237e+01      0.41977    0.3223824  76.04 0.0004074397    1.528    0.346
        72 -12.3355    200.1970     76.3226   2.6205242251e+01   2.4057967499e+01    0.4892015    0.2688618  61.53  0.001456043    2.017    0.504
        73  -9.9509    167.8818     89.9309   3.6032259049e+01   2.9540964057e+01    0.2477792    0.1934907 -74.55 0.0008217128    1.663    0.399
        74 -10.0667    179.9705     99.7455   3.6318070705e+01   2.4910345664e+01    0.2122533    0.2030035 -11.14 0.0006464277    1.008    0.008
        75 -12.5645     50.2691     86.5337   7.0298321947e+01   5.4032590184e+01    0.4702411    0.3398015  44.19  0.002225839    1.531    0.347
        76 -10.9704     38.0643     87.5135   7.5188632609e+01   5.5170275779e+01    0.3857658    0.1609827 -60.61  0.001618019    1.998    0.499
        77 -11.9787    236.6450     86.2380   2.3520082657e+01   1.4541138621e+01    0.5589155    0.3493495  80.23  0.001417731    2.510    0.602
        78 -11.5736    175.3242     86.1920   3.3435616800e+01   2.8407631104e+01    0.5035973    0.2506417  39.50  0.001196494    2.360    0.576
        79 -11.0848    161.4847     84.8330   3.5895620651e+01   3.2023620140e+01     1.392673    0.6220699  37.31  0.004524671    2.997    0.666
        80 -11.9164    168.7994     80.4346   3.3049555711e+01   3.1010116340e+01    0.4309399    0.3683599 -53.20  0.001194141    1.222    0.181
        81 -11.0638    167.4606     76.5378   3.2146177683e+01   3.2019112157e+01    0.3678917    0.2465703  39.63 0.0008038681    1.618    0.382
        82 -12.2006    249.9070     75.4142   1.9279885621e+01   1.3374069505e+01    0.3751903     0.209704 -22.23 0.0001788887    1.716    0.417
        83 -10.5923    250.7944     85.0649   2.1465308258e+01   1.1905189717e+01    0.2429039    0.1095291 -32.76  0.000625785    1.814    0.449
        84 -10.9338    250.7169     81.6553   2.0668838070e+01   1.2380209043e+01    0.3790584    0.2330741  24.31  0.001448099    2.346    0.574
        85 -10.2182     31.0127     86.0533   7.7614571186e+01   5.6220225090e+01    0.2150215    0.1816112 -73.53  0.001284072    1.072    0.067
        86 -13.5612     16.9634     72.7570   8.0726056482e+01   6.0644565265e+01     1.460949    0.5180935 -47.72  0.006098249    2.484    0.597
        87 -11.4402    113.1487    246.6627   7.7477759784e+01   1.0753983249e+01    0.2861208    0.1800762 -39.13  0.001788993    2.345    0.574
        88 -11.9718     14.4143     62.5478   7.9769121946e+01   6.3304140326e+01    0.4146688    0.2628253  14.98   0.00193807    1.883    0.469
        89 -11.1524     10.2735     84.3169   8.5375934988e+01   5.8203148764e+01    0.2546985    0.1779682 -49.23  0.000230172    1.356    0.263
        90 -11.0890     10.4839     80.9497   8.4794626107e+01   5.9026686400e+01    0.1981626    0.1451576 -56.80 0.0003444741    1.191    0.160
        91 -12.4811    214.9186     83.9451   2.5986425066e+01   1.9509477902e+01    0.4950538    0.3555197  72.10  0.002467255    1.722    0.419
        92 -12.1141    214.3570     77.1991   2.4290054442e+01   2.0648627487e+01    0.3733824    0.2278797 -35.41  0.001105675    1.469    0.319
        93 -11.6701    218.1686     75.6130   2.3327835029e+01   2.0025289338e+01    0.3506389    0.2229114  33.38  0.001534995    1.975    0.494
        94 -10.7218     36.3283    248.5117   9.1747241663e+01   1.9936475125e+01    0.1640898   0.08631857 -82.17  0.001099457    2.034    0.508
        95 -10.7092     37.6206     28.6105   5.6296527009e+01   6.8669908985e+01    0.6071554     0.483385  25.90  0.003656999    1.357    0.263
        96 -10.1597    180.5074    243.5029   6.4614044501e+01   1.6996374230e+00    0.1157689   0.08648134  26.42 0.0008104649    1.029    0.029
        97 -12.8663     99.6364     78.2779   5.0267003803e+01   4.7736409474e+01     1.066468    0.6427019 -56.15  0.004372293    1.886    0.470
        98 -10.0698    220.2658    124.6313   3.5262756913e+01   1.2100780017e+01    0.2107156    0.1885978 -31.15 0.0007303471    1.167    0.143
        99  -9.7545    152.9858    124.2330   4.8649881221e+01   2.6322146636e+01    0.2039988    0.1921628  31.09 0.0002085553    1.045    0.043
       100  -9.7703    141.1356    119.8261   5.0424087772e+01   2.9788691001e+01    0.2112941    0.1817317   9.50 0.0003421675    1.289    0.224
       101 -10.2572     57.4934    120.1053   7.4695971985e+01   4.4701370722e+01    0.1978508    0.1880413  83.41 0.0005731118    1.069    0.065
       102 -13.0527     91.9513     66.1114   4.8658148919e+01   5.1912965237e+01     1.239026     1.058343  69.39  0.006287957    1.409    0.290
       103 -11.3750     50.0919     27.8933   4.9506353069e+01   6.6992653010e+01    0.4888317    0.2810207  26.47  0.002343825    1.927    0.481
       104 -12.0373     57.1643     25.0483   4.4701051201e+01   6.6292827711e+01    0.8555466    0.3658164  42.52  0.003392232    2.418    0.586
       105 -10.2463    203.9210    116.0465   3.6025914675e+01   1.6790234360e+01    0.3913999     0.214356  67.27  0.001435659    3.262    0.693
       106 -10.1190    106.3263    116.3505   5.8946712617e+01   3.7716829408e+01    0.1590831    0.1217636 -13.28 0.0007048473    1.759    0.431
       107 -11.5171     87.9575     46.2566   4.2340948442e+01   5.6625548428e+01    0.3443508    0.2880293 -25.55 0.0002208302    1.157    0.135
       108 -13.0338     79.5338     59.1556   5.0531965631e+01   5.5808060385e+01     1.183063    0.6231487  38.84  0.004936626    1.998    0.500
       109 -12.8520     81.6274     49.6027   4.6001991269e+01   5.7307941703e+01    0.7733543    0.6190286  -5.79  0.003685365    1.363    0.267
       110 -11.9111     75.9614     52.0307   4.9122835498e+01   5.7933624399e+01    0.3285342    0.2738008 -60.55 0.0003070995    1.409    0.290
       111 -13.1568     81.8294     40.5593   4.2078724419e+01   5.8923874924e+01    0.6002345    0.4706814  17.77  0.001465415    1.354    0.262
       112 -12.1449     75.2756     42.0835   4.5219026146e+01   5.9968563600e+01    0.4296003    0.3929105 -29.10 0.0007499403    1.093    0.085
       113 -10.6680     83.3645     82.9568   5.7187252730e+01   4.9844870952e+01    0.3143679    0.2452625  31.38  0.001338008    1.375    0.273
       114  99.0000     38.5524     42.0023   6.1678779768e+01   6.5842042123e+01    0.9295341    0.6261517  39.99  0.004970869    1.760    0.432
       115 -14.3553     33.0977     67.3492   7.2502688887e+01   6.0636295350e+01     1.686654     1.097557  62.55  0.008272795    2.132    0.531
       116 -12.9384     38.7414     80.2547   7.3315273509e+01   5.6907644125e+01    0.7134824    0.4726882 -31.43   0.00269603    1.714    0.417
       117 -13.9012     44.9385     71.5747   6.8562302351e+01   5.8336754092e+01     1.144115    0.8080333 -42.32  0.005881839    1.323    0.244
       118 -11.2837      3.4861     48.5952   8.2020412761e+01   6.7222438670e+01     0.341492    0.2652678  63.78  0.001346505    1.590    0.371
       119 -10.2044     90.7094    115.7206   6.3435502396e+01   4.0732736638e+01    0.2091323     0.173475  78.82  0.001049524    1.348    0.258
       120 -11.9951     25.2096     43.6948   6.9220987827e+01   6.6888953836e+01    0.8967527    0.4684466 -44.17  0.004488081    1.617    0.382
       121 -11.9778     26.2274     35.8034   6.5753939899e+01   6.8515262043e+01    0.2996237    0.2221126 -24.63 0.0009150998    1.275    0.216
       122 -12.6060     55.1237     71.7399   6.4410578235e+01   5.6992118120e+01    0.7247541    0.3744589 -61.45 0.0003503642    1.989    0.497
       123 -12.3522     14.2166     45.8763   7.5726382022e+01   6.7258684249e+01    0.7014385    0.3888685 -67.88   0.00135161    1.667    0.400
       124 -13.4617     37.7679     55.9144   6.7052966395e+01   6.2849309071e+01     1.227571    0.6546797  33.58  0.005867546    2.086    0.521
       125 -10.6119     88.2815    114.3506   6.3863910653e+01   4.1484447811e+01    0.3037141    0.2380457 -18.54 0.0008374586    1.646    0.392
       126 -12.8150     58.7716     60.4950   5.9264193294e+01   5.9057099281e+01      1.18809    0.7832028 -70.06  0.005383031    2.051    0.512
       127 -12.1373     11.6038     32.3037   7.2899706794e+01   7.0479918160e+01    0.5625088     0.532445  21.20  0.003267187    1.309    0.236
       128 -12.3866     48.5924     53.5724   6.1250713395e+01   6.2047834201e+01    0.4125139    0.3958712 -40.45  0.001213418    1.124    0.110
       129 -12.1108     51.3553     46.3305   5.7223966698e+01   6.3220439068e+01    0.6836687    0.4669738 -22.37  0.002533184    1.591    0.371
       130 -11.7748     13.7291     37.0138   7.3266602544e+01   6.9297917217e+01    0.3879215    0.2312248 -21.97 0.0003652138    1.804    0.446
       131 -10.8901    133.8365    113.2004   5.0580563084e+01   3.2775145404e+01    0.2253237     0.191292  -3.57 0.0006293809    1.361    0.265
       132 -12.0280    222.1089     79.7449   2.3853691644e+01   1.8548425738e+01    0.3737052    0.2965836  89.32  0.001998567    1.584    0.369
       133 -12.9691      5.4522     55.7906   8.2570759957e+01   6.5428667703e+01     1.234623    0.6080734  -5.17  0.006068713    2.653    0.623
       134 -11.4812    179.7108     78.1169   3.0245544803e+01   2.8716643496e+01    0.4103754    0.3050523 -12.60   0.00122773    1.527    0.345
       135 -11.9644    177.3097     71.0069   2.8580086788e+01   3.0483970759e+01    0.6552187    0.3899558 -57.56  0.001060066    2.137    0.532
       136 -10.2046    232.3188     78.3796   2.2134088972e+01   1.6550873306e+01     0.273524    0.1815304  73.09  0.001368608    1.932    0.482
       137 -11.1369    225.8210     75.8211   2.2337250318e+01   1.8306510854e+01    0.3443387    0.1278239 -39.66  0.001315663    2.357    0.576
       138 -10.7840    155.3283     76.6087   3.4725177482e+01   3.5035570662e+01    0.3919773    0.2835311  60.80  0.001282551    1.473    0.321
       139 -12.0956    133.4624     70.5463   3.7932345759e+01   4.1575501978e+01     1.069712    0.6526616  65.25  0.002991692    2.024    0.506
       140 -10.4744    104.0302     75.4608   4.7942733437e+01   4.7414001054e+01    0.3548816    0.2198486  35.31  0.001048369    1.769    0.435
       141 -10.3056    106.0000     72.0171   4.6163732320e+01   4.7706412815e+01    0.3739251    0.2046826 -50.85  0.001080104    1.992    0.498
       142 -13.2443    221.3510     69.6604   2.1332088239e+01   2.0171700324e+01    0.8243195    0.5005009  56.83  0.003371946    1.795    0.443
       143 -13.3155    234.7248     47.9419   1.4169848410e+01   2.0117588498e+01    0.7874885    0.5188368 -49.39  0.001587097    1.399    0.285
       144 -10.0573    240.6888     47.4361   1.3451630899e+01   1.8891330222e+01     0.309388    0.1648758 -42.54 0.0008507613    1.603    0.376
       145 -10.4550    249.9045     38.2740   1.0400619931e+01   1.8062182611e+01    0.2495114    0.1695715 -47.32 0.0007176263    1.259    0.206
       146 -13.8017    199.2456     67.7635   2.3958512141e+01   2.5591621313e+01     1.287502    0.6143415  61.67  0.005153928    2.269    0.559
       147 -11.1519     96.7357    110.1693   6.0278220641e+01   4.0979243576e+01    0.3932649    0.2108969 -39.71  0.001536862    2.104    0.525
       148 -11.7675    241.9273     61.8596   1.6882250769e+01   1.6785159726e+01    0.7592906    0.3983705 -30.85  0.003668454    1.627    0.385
       149 -11.1545    241.2005     39.8329   1.1529428078e+01   1.9711062091e+01    0.3463883    0.2233119 -15.97  0.001258732    1.710    0.415
       150 -10.7727    248.3225     61.0686   1.6013294070e+01   1.5572506555e+01    0.2428219    0.1951344  66.29 0.0005035147    1.453    0.312
       151 -11.4553    247.8809     56.3245   1.4914645301e+01   1.6269187441e+01    0.3646846    0.3143719 -35.11  0.002306074    1.037    0.036
       152 -10.6677    245.2819     50.0643   1.3652590625e+01   1.7594227352e+01    0.2124764    0.1849687 -53.20 0.0002046792    1.094    0.086
       153 -12.4980    247.0221     43.3637   1.1868272969e+01   1.8053839086e+01    0.6011644    0.2832508 -42.74   0.00288927    1.772    0.436
       154 -13.8588    216.2962     60.2513   1.9493440008e+01   2.2644141785e+01     1.171038    0.9264454  11.24  0.005953887    1.541    0.351
       155 -13.4743    204.0451     61.1282   2.1385421440e+01   2.5410595871e+01    0.9243479    0.5930672 -75.35  0.003028234    2.134    0.531
       156 -10.0211    242.9887     73.1445   1.9527441606e+01   1.5062648516e+01    0.2351269    0.1745432  30.85  0.001297342    1.644    0.392
       157  -9.7909    151.2411     72.9814   3.4486004938e+01   3.6708393354e+01    0.2232208    0.1872575 -33.05 0.0004429595    1.177    0.151
       158  -9.9561    164.2136     70.6131   3.0976581709e+01   3.3847422322e+01    0.3090747    0.1956559  51.19 0.0008599913    1.592    0.372
       159 -11.7393    166.0994     64.9568   2.8828048419e+01   3.4306404876e+01    0.7978565    0.4835564  52.23  0.003411192    1.657    0.396
       160 -10.6185    249.7652     67.7477   1.7464663679e+01   1.4414871483e+01    0.4363594    0.2148685 -23.63  0.001411839    1.957    0.489
       161 -11.8652    209.6252     58.5251   1.9896172099e+01   2.4447071041e+01    0.3132838    0.2648713 -54.56 0.0002059709    1.158    0.137
       162 -11.1272     55.1669     81.8739   6.7244375946e+01   5.4548770436e+01     0.232692    0.2165271 -61.32 0.0002515341    1.045    0.043
       163 -13.1740    190.3187     57.1617   2.2262161778e+01   2.9353344344e+01    0.8938723    0.7926853  22.28  0.004809828    1.256    0.204
       164 -11.0976    181.3578     52.9840   2.2402835966e+01   3.2229127505e+01    0.6770922    0.3769545  72.75  0.002759557    2.093    0.522
       165 -10.5353     38.4619    110.4900   7.9264725048e+01   4.9333376223e+01    0.1371024    0.1194471 -77.17 5.200734e-05    1.005    0.005
       166 -11.6607    192.2584     49.7080   1.9772108428e+01   2.9921949751e+01    0.5203701    0.3281445 -88.50   0.00225324    2.051    0.512
       167 -12.0996    210.2300     46.7691   1.6572912756e+01   2.5894278720e+01    0.7590495    0.4010585 -62.57  0.003083226    2.440    0.590
       168 -10.9085    196.1520    107.9413   3.5392150919e+01   1.9820744434e+01    0.4272791    0.3264848 -78.25   0.00200007    1.945    0.486
       169 -11.8672    198.6461     26.1148   1.2054384602e+01   3.1285375112e+01      0.53355    0.3793221  56.55  0.001120625    1.476    0.323
       170 -11.6094    203.3537     40.9617   1.5775088631e+01   2.8317100553e+01    0.5277294    0.3684263 -87.28  0.001445613    1.615    0.381
       171 -10.1882    210.1555    105.6373   3.2336959627e+01   1.7160603275e+01    0.2502617    0.2341144 -60.88 0.0009183999    1.236    0.191
       172 -12.0227    190.1325     32.0307   1.4780897762e+01   3.2752662941e+01    0.9344374    0.2727079 -39.12  0.002199397    2.945    0.660
       173 -11.7636    126.7735     59.1181   3.5674962771e+01   4.5304665911e+01    0.6056831      0.33109  33.32  0.002223855    2.366    0.577
       174  -9.2195    162.4249     59.5221   2.7802179683e+01   3.6125160760e+01    0.2514993    0.1532365  59.48 0.0001358106    1.668    0.400
       175 -11.6246    161.8313     55.1970   2.6506292721e+01   3.6955608647e+01     0.481095    0.3896866 -70.15   0.00127074    1.393    0.282
       176 -11.3811    173.9370     54.0854   2.3969207775e+01   3.3978652306e+01    0.4227587    0.2421335 -40.43  0.001042821    1.685    0.407
       177  -9.8694    170.0108     55.9898   2.5256990043e+01   3.4709232569e+01    0.2497941    0.1809386 -67.70 0.0007961749    1.650    0.394
       178 -11.2192    100.6552     53.9266   4.1219608836e+01   5.2445067641e+01    0.5191211    0.3220435  45.06  0.001573548    1.623    0.384
       179 -10.8238     99.0696     47.8350   3.9293855134e+01   5.3902184787e+01    0.4747274    0.3101916  11.94  0.001689268    2.230    0.552
       180  -9.8353     69.1403     54.2328   5.2678960106e+01   5.8723018168e+01    0.3549363    0.2661589 -65.31  0.001733276    1.698    0.411
       181 -11.5320     64.0902     47.3812   5.2022247001e+01   6.0994090498e+01    0.6022972    0.4603035  66.97  0.002132264    1.933    0.483
       182 -11.6288     11.9546     96.8585   8.6444403760e+01   5.4974632452e+01     0.373844    0.1768965 -58.71  0.001811334    1.768    0.434
       183 -10.6590    183.9094    104.6853   3.6869300588e+01   2.3127581417e+01    0.4473539    0.2444192 -42.90 0.0009438156    1.832    0.454
       184 -11.3406     90.4842     51.0733   4.3445707605e+01   5.5202077054e+01    0.2465837    0.2246529  35.14 0.0003170652    1.117    0.104
       185 -10.1019    162.5927     47.8585   2.3943043608e+01   3.7853281942e+01    0.6064317    0.2999595  66.45  0.002318878    2.168    0.539
       186 -12.1989    160.7922     38.3646   2.1069859619e+01   3.9650636542e+01    0.5955926    0.4951513 -51.79  0.003059847    1.222    0.182
       187 -10.2714    168.9707     36.8279   1.9227281121e+01   3.7680222004e+01    0.4773061    0.2675255  34.18  0.001339946    2.356    0.576
       188 -12.2504    172.9484     44.9145   2.1219979826e+01   3.5549699433e+01    0.7201619    0.6029116  61.36  0.002588678    1.200    0.167
       189 -10.5008    174.0249     39.7245   1.9387879060e+01   3.5968389003e+01    0.2466843    0.2400919   9.15 0.0003553778    1.095    0.086
       190 -11.6467    177.9448     38.0051   1.8256792445e+01   3.5165201793e+01    0.5430048     0.312874  37.59  0.002249588    2.158    0.537
       191  -9.7258    179.3612     47.8419   2.1128339875e+01   3.3473781152e+01    0.2258309    0.1450586 -29.17  0.000236731    1.529    0.346
       192  -9.9906    182.6905     45.8015   1.9988620367e+01   3.2896073690e+01    0.2951787    0.2227743  52.71  0.001464738    1.366    0.268
       193 -11.3805    131.5633     46.3658   2.9802225206e+01   4.6208046969e+01    0.9049194    0.3932863  59.65  0.003236807    2.367    0.577
       194 -10.8359    132.8104     39.8316   2.7053104547e+01   4.6861545862e+01    0.5172862    0.2316102  58.97  0.001356245    2.176    0.540
       195 -10.9790    142.5921     46.2663   2.7302246320e+01   4.3354899557e+01     0.465379    0.2665098  35.29  0.001187564    2.123    0.529
       196 -10.1818    150.4516     45.6455   2.5474432711e+01   4.1378355677e+01    0.3922484     0.243722  -8.75  0.001578113    2.122    0.529
       197 -11.8090    148.4424     39.5668   2.3719055855e+01   4.2775063533e+01    0.5471401    0.4115797 -31.94  0.002118976    1.334    0.251
       198 -10.1861    105.4246     43.6751   3.5641713616e+01   5.3134771282e+01    0.3303771    0.2484961 -12.52 0.0005087767    1.462    0.316
       199 -11.4426    155.8828    105.3700   4.3048358981e+01   2.9446917771e+01    0.2756191    0.2161531 -48.36 0.0005698467    1.322    0.244
       200 -11.0058    234.0165     37.0451   1.1487775166e+01   2.1611902082e+01    0.4655991    0.2261633 -58.21  0.001619859    2.293    0.564
       201 -10.1928     15.3970    106.2843   8.6412550686e+01   5.2388633454e+01    0.1805182    0.1059743 -86.22 0.0006157557    1.532    0.347
       202 -11.3699    215.4513     43.1077   1.4962306636e+01   2.5121845983e+01    0.3791566    0.2461348 -39.30  0.001707242    1.373    0.272
       203 -12.0886    218.3265     29.4791   1.0994449799e+01   2.6096549538e+01    0.6624832    0.4072956 -72.00  0.003243619    1.803    0.445
       204 -10.9345    144.8377    103.0275   4.5038752245e+01   3.2454820746e+01    0.4016062    0.3110032   8.18  0.001810291    1.626    0.385
       205 -10.8227    109.8668    103.3342   5.4571772350e+01   4.0021744830e+01     0.277166    0.2138765 -58.27 0.0008954133    1.350    0.259
       206 -10.9853    161.7119    106.9956   4.2161541800e+01   2.7789615350e+01    0.2285734    0.2031069 -29.17 0.0008305333    1.106    0.096
       207 -10.5248    165.3998    102.2685   4.0052214897e+01   2.7840391150e+01    0.3077652    0.1498775 -33.17  0.001136114    2.122    0.529
       208 -13.1374    118.3677     95.8492   5.0006024649e+01   3.9908451178e+01     1.041523    0.5244979 -58.68  0.003536745    2.762    0.638
       209 -10.1867     94.0838     43.0062   3.8895016581e+01   5.5861208701e+01    0.3887644    0.2637635 -31.00  0.001822368    1.457    0.314
       210  -9.9199     90.9157     39.1112   3.8263540727e+01   5.7220853149e+01    0.2103707    0.1913882 -60.13 0.0004323548    1.294    0.227
       211 -10.6462     99.5450     41.0734   3.6334147660e+01   5.4940207827e+01    0.3096743    0.2686305 -54.50 0.0009339465    1.313    0.238
       212  -9.8347    136.2887     42.6706   2.7349786992e+01   4.5539735023e+01    0.3073389    0.2250498  83.91 0.0008773967    1.658    0.397
       213 -10.1693    113.9254     28.3417   2.6881352199e+01   5.3312572597e+01     0.281552    0.1687768  26.85   0.00115725    2.066    0.516
       214 -10.6802    110.0112     36.0354   3.1158353415e+01   5.3217885075e+01    0.2919301    0.2234059  29.79 0.0004302732    1.361    0.265
       215 -10.4358    112.5554     32.5371   2.9007513403e+01   5.3088942298e+01    0.2724116    0.2333704  29.51 0.0005951906    1.156    0.135
       216 -10.5031    122.8156     34.0355   2.7081688694e+01   5.0272586912e+01    0.3703395    0.1820797 -39.35  0.001454418    2.087    0.521
       217 -10.2641    131.5398     33.6461   2.4956790144e+01   4.8054889152e+01    0.3130551    0.2055517 -58.19  0.000313542    1.883    0.469
       218 -11.5084     92.4805     33.2944   3.5157500687e+01   5.7794867704e+01    0.3604507    0.2776174 -14.57 0.0008869477    1.332    0.249
       219 -10.5222     75.0380     33.4719   4.1391466896e+01   6.1520059562e+01    0.2995642    0.2388076  39.45 0.0009539928    1.269    0.212
       220  -9.7105    247.3351     32.9797   9.3466775927e+00   1.9214168275e+01    0.1793372    0.1265018 -41.45 0.0003548685    1.174    0.149
       221 -11.2213    186.9348     37.5117   1.6849412160e+01   3.2895138997e+01    0.4491287    0.3640458 -21.02  0.001604451    1.284    0.221
       222  -9.9988    169.0646     32.9632   1.7942748690e+01   3.8145964323e+01    0.2412306    0.1676964  36.94 0.0008535653    1.643    0.392
       223 -10.2160    239.7088     30.2879   9.3111832824e+00   2.1152690111e+01    0.4192152    0.2629412  65.19  0.002289561    1.754    0.430
       224 -10.7525    182.1451     31.0139   1.5485568428e+01   3.4940399193e+01    0.3545278    0.2900299  21.25  0.001517685    1.449    0.310
       225 -10.7839    163.2930     30.3360   1.7943924689e+01   4.0007309852e+01    0.4665843    0.1746247 -50.78  0.001453369    3.533    0.717
       226 -10.1069    104.6630     29.8219   2.9957024208e+01   5.5419856408e+01    0.3324381    0.1882517 -41.27  0.001420248    1.894    0.472
       227 -11.9590     86.0313     28.1823   3.4907829553e+01   6.0013245511e+01    0.3472564    0.2661709  51.80 0.0004881389    1.347    0.258
       228 -10.0988    149.6736     27.6774   1.9226130912e+01   4.3981943748e+01    0.2967558     0.223002  22.58  0.001182215    1.554    0.356
       229 -11.0602    146.9875     25.5084   1.8898332686e+01   4.4961254862e+01    0.4323446     0.285259  41.93  0.001403909    1.588    0.370
       230 -11.4499    150.9360     22.1594   1.7028927477e+01   4.4281796833e+01    0.4337145    0.3351235  62.02  0.001457333    1.233    0.189
       231  -9.9142    128.6500     27.0618   2.2982714210e+01   4.9664502023e+01    0.3863667    0.1450428 -24.03  0.001322606    2.853    0.650
       232 -10.5151    123.7257     27.1273   2.4072878405e+01   5.0946846976e+01    0.4227617    0.2129891 -31.98  0.001605924    1.980    0.495
       233 -10.2951    234.1380     24.5662   8.3449993185e+00   2.3024305666e+01     0.343528    0.1853039 -26.31  0.001685566    1.745    0.427
       234 -10.6141    176.3000     24.0478   1.4048211941e+01   3.7286441499e+01    0.3829653    0.2302299 -26.70  0.001760721    1.671    0.402
       235  -9.7565    167.7121     26.0067   1.5840595229e+01   3.9341514492e+01    0.2021855    0.1920555 -47.33 0.0005736151    1.057    0.054
       236  -9.0989    141.0000     30.0121   2.1650651685e+01   4.6019412338e+01    0.2528026   0.08594784 -25.88  0.000815084    3.031    0.670
       237  -9.9566    135.8142     24.9225   2.0704233520e+01   4.8023943880e+01     0.257477    0.2222128 -26.74  0.001186877    1.198    0.165
       238  -9.6519    137.7946     21.6772   1.9084147849e+01   4.7869086108e+01    0.2017035    0.1682451 -75.05 0.0003857548    1.309    0.236
       239 -11.9750    243.9960     22.9304   7.1937145152e+00   2.1051574416e+01    0.7285623    0.2672437  76.65  0.003060564    3.124    0.680
       240 -10.5556    244.8012     19.0047   6.1988873601e+00   2.1304282897e+01    0.3014074    0.1924968 -56.47  0.001718209    1.399    0.285
       241  -9.4477    238.4481    102.5000   2.7209641722e+01   1.1856712001e+01    0.1378463    0.1170161 -18.68 0.0008081725    1.033    0.031
       242 -10.3315    163.0467     21.2493   1.4900717498e+01   4.1125185813e+01    0.2923631    0.1953367  30.95 0.0007316072    1.805    0.446
       243 -11.4170    130.3494     19.5067   1.9621938855e+01   5.0097736304e+01    0.3165458    0.2649297  42.21 0.0006363632    1.166    0.143
       244 -10.2552    180.1147     20.1029   1.2333228248e+01   3.6718206306e+01    0.2089123     0.179807  46.66 0.0003751857    1.249    0.200
       245 -10.2855    170.1956     19.2004   1.3260821246e+01   3.9436486623e+01    0.3244905    0.2061672  25.88  0.001436684    2.071    0.517
       246 -10.1319    185.5002     18.7258   1.1293631052e+01   3.5461071367e+01    0.3655857    0.1499525  50.35  0.001115616    2.632    0.620
       247  -9.9136    158.8058     19.3769   1.4858483048e+01   4.2466924753e+01    0.3747166    0.1114344  51.26  0.001202374    3.227    0.690
       248 -13.0413     86.7447     98.8850   6.0545583692e+01   4.5481807858e+01    0.7460918    0.4080583  32.92  0.002923959    2.031    0.508
       249  -9.8608     20.0177     19.2721   6.2102094185e+01   7.2483193518e+01    0.1664825    0.1407243  -3.54  0.000839736    1.183    0.154
       250  -9.2750      2.3088     19.6621   7.4187436278e+01   7.3741111419e+01    0.1089361   0.09072075  77.35 0.0007043412    1.683    0.406
       251 -11.5090     89.2780     93.9915   5.8392721090e+01   4.6187547054e+01    0.2579329    0.2539363 -52.26  0.000194112    1.025    0.025
       252 -10.2496    112.6766     17.4748   2.2473829954e+01   5.4945806727e+01    0.3364093     0.235427  73.98 0.0008929765    1.560    0.359
       253 -11.1522     33.7526     99.5560   7.9077657268e+01   5.2564411399e+01     0.347877    0.1771156 -80.46  0.001522695    2.069    0.517
       254 -10.0071    158.9847     99.2541   4.0637863050e+01   2.9916309770e+01    0.2119074    0.1992052  44.45 0.0003115672    1.085    0.078
       255 -12.0112    153.5665     96.0720   4.0974355286e+01   3.1809232731e+01    0.8135836    0.4335626  50.20  0.001583548    1.909    0.476
       256 -10.4498     93.9504     15.9570   2.6535805246e+01   5.9776840934e+01    0.2631861    0.2067764  47.29  0.000916016    1.193    0.162
       257 -12.1492    106.3902     97.1571   5.3895461846e+01   4.2136479373e+01    0.4130923    0.3220015 -21.58 0.0007491083    1.518    0.341
       258  -9.8428     98.0914     21.9160   2.8210829438e+01   5.8061888847e+01    0.3521883    0.2602731  22.67  0.001763487    1.418    0.295
       259 -12.3036    107.7659     92.1682   5.2038623444e+01   4.2978556210e+01    0.5947155    0.2848408  37.06  0.001761297    2.314    0.568
       260 -10.1981    225.5047     97.9816   2.7983549031e+01   1.5116698899e+01    0.2174182    0.1251378 -31.42 0.0005419402    1.539    0.350
       261 -11.3457    199.5943     95.7593   3.1587303143e+01   2.1086460542e+01     0.454382    0.2417023 -42.17 0.0007916091    1.836    0.455
       262 -10.7091    170.3402     97.5964   3.7695298687e+01   2.7553568176e+01    0.3200326    0.2972955 -42.58  0.001297756    1.089    0.082
       263 -11.2974    140.4402     96.1191   4.4165539787e+01   3.4878492508e+01    0.4714695    0.3814487 -59.32  0.001557078    1.375    0.273
       264 -11.7554    107.2784     85.6511   5.0216391282e+01   4.4524270883e+01    0.7919319    0.3944295  46.97  0.001168065    2.082    0.520
       265 -11.0754    136.4556     52.8581   3.1039225332e+01   4.3918927243e+01    0.6546688    0.2793477  57.09  0.001396277    2.345    0.574
       266 -12.7258    136.8342     82.0687   4.0824238764e+01   3.8546538130e+01    0.8497925    0.6260852 -34.25  0.001054614    1.358    0.264
       267 -11.7097    147.5947     83.9405   3.8768256405e+01   3.5583174788e+01    0.6635311    0.4785145 -52.13  0.002861502    1.501    0.334
       268 -13.6311    127.1268     92.0493   4.6447228863e+01   3.8780979334e+01     1.097472    0.9404917  88.92  0.002387828    1.405    0.288
       269 -11.6485    144.9977     68.8381   3.4562130856e+01   3.9017192423e+01    0.6488275     0.498754  70.73  0.002990718    1.481    0.325
       270 -12.6790    151.9247     62.4027   3.0886077256e+01   3.8364918888e+01     1.320922    0.9195822  75.32  0.005738222    1.741    0.425
       271 -13.1879    124.4970     83.3193   4.4483304649e+01   4.1201038701e+01     1.409376    0.9017723   7.35   0.00490546    2.963    0.663
       272 -12.1884    114.4363     81.4214   4.6738875008e+01   4.3877933820e+01    0.6377763    0.5014066 -40.05  0.002497513    1.250    0.200
       273 -11.2475    139.2263     61.3136   3.3370494079e+01   4.1795392803e+01    0.6378611    0.4984305  75.61  0.001291042    1.488    0.328
       274 -11.1749    146.1469     52.5704   2.8776770159e+01   4.1456434863e+01      0.47876    0.3036627  28.91 0.0007162307    2.024    0.506
       275 -11.7064    124.0307     69.8391   4.0172699218e+01   4.3995807693e+01    0.4416011     0.355832 -74.18 0.0002466141    1.560    0.359
       276 -13.9195    116.7170     62.2035   3.9516088337e+01   4.7186817351e+01     1.372907    0.9916613  39.91  0.003095344    1.419    0.295
       277 -11.7536     73.1854     96.3495   6.4432920384e+01   4.8372507830e+01    0.2857755    0.2709932 -37.33 0.0008784384    1.082    0.076
       278 -10.4723    232.9352     94.9303   2.6155881066e+01   1.4045761866e+01    0.2788931    0.1692385 -25.39  0.001010995    1.506    0.336
       279 -12.3832     48.3961     94.9405   7.2903345952e+01   5.2161419129e+01    0.4580261    0.2828035  34.34  0.001681629    1.756    0.431
       280 -12.6565     56.5141     94.6565   6.9898951627e+01   5.1213641775e+01    0.4290902    0.3355229  61.82 0.0007064849    1.445    0.308
       281 -12.4391     85.6535     73.1772   5.3280544085e+01   5.1636363893e+01    0.6593164    0.4149256  49.09  0.001413817    1.758    0.431
       282 -12.6869     74.0297     73.7353   5.7668095020e+01   5.3608880509e+01     1.365363    0.6121029  38.00  0.005295652    2.366    0.577
       283 -13.4034     62.5527     90.8271   6.6792732181e+01   5.1331258858e+01    0.7948697      0.52088 -82.49  0.003282751    1.996    0.499
       284 -10.7058     70.9596     87.9976   6.3019306733e+01   5.0754125545e+01    0.4093122    0.3002078 -35.87  0.002002125    1.436    0.304
       285 -12.5387     66.9542     82.4519   6.2937751680e+01   5.2713159200e+01    0.6684552    0.5523499  70.50  0.001967268    1.447    0.309
       286 -10.0015     27.4858     96.4712   8.0812215660e+01   5.3911925331e+01    0.1349153     0.114889 -70.34 0.0002597077    1.016    0.016
       287 -11.5548     57.3218     89.0694   6.8270368114e+01   5.2492467778e+01    0.3243874    0.2150714 -52.09  0.001262786    1.368    0.269
