#   1 NUMBER                 Running object number                                     
#   2 MAG_AUTO               Kron-like elliptical aperture magnitude                    [mag]
#   3 X_IMAGE                Object position along x                                    [pixel]
#   4 Y_IMAGE                Object position along y                                    [pixel]
#   5 X_WORLD                Barycenter position along world x axis                     [deg]
#   6 Y_WORLD                Barycenter position along world y axis                     [deg]
#   7 A_WORLD                Profile RMS along major axis (world units)                 [deg]
#   8 B_WORLD                Profile RMS along minor axis (world units)                 [deg]
#   9 THETA_WORLD            Position angle (CCW/world-x)                               [deg]
#  10 FWHM_WORLD             FWHM assuming a gaussian core                              [deg]
#  11 ELONGATION             A_IMAGE/B_IMAGE                                           
#  12 ELLIPTICITY            1 - B_IMAGE/A_IMAGE                                       
         1 -11.9287     40.0788     30.3805   9.0746362189e+01   6.6084045491e+01    0.6698149    0.3944406  -0.08  0.001913105    2.218    0.549
         2 -11.5407     75.8842     21.0879   7.2535327118e+01   6.2098881244e+01    0.3784389    0.3553058  78.52  0.001960838    1.504    0.335
         3  -9.8021     16.2302      3.8222   8.9988327177e+01   7.2797514567e+01    0.1577781    0.1265869 -18.70  0.001185024    1.164    0.141
         4 -10.9778     20.4347      2.3184   8.6927426027e+01   7.2595592147e+01     0.287506    0.1853015  20.98   0.00170007    1.575    0.365
         5  -9.8257     22.6177      9.3434   8.9439564377e+01   7.1359513830e+01    0.4042534    0.2188815 -15.49  0.002274421    1.962    0.490
         6 -11.5016     34.6844     12.7417   8.5199140382e+01   6.9522467031e+01    0.3363269     0.230312 -40.18 0.0009886528    1.531    0.347
         7 -11.6319     30.2828      7.2871   8.4543743863e+01   7.0820120023e+01    0.3399686    0.2527546  17.26   0.00147153    1.331    0.249
         8 -10.0758     26.5684     15.9177   9.0631972868e+01   6.9946911500e+01    0.2493187     0.148055 -40.96  0.001519974    1.488    0.328
         9 -11.3076     89.3677     13.7622   6.4937594551e+01   6.0366286015e+01    0.3995786    0.3140079 -61.00  0.001317387    1.874    0.466
        10 -10.4010     93.1109      8.8310   6.1669108333e+01   6.0104896171e+01    0.3569087    0.1900033 -12.27  0.001694647    2.052    0.513
        11 -10.2429     88.8710      7.5958   6.2295707770e+01   6.1116134138e+01    0.3267229    0.1822441 -20.45  0.001360118    1.802    0.445
        12 -10.4762    190.7388     13.6673   4.5592742503e+01   3.5526953272e+01    0.2335661    0.1959404  55.70 0.0006120398    1.215    0.177
        13 -10.7110     68.2966     13.6025   7.1709312999e+01   6.4407731354e+01    0.5377713     0.186967  44.86  0.002267652    2.755    0.637
        14 -10.3151    125.9044     11.1302   5.4861817818e+01   5.2385395570e+01    0.1908732    0.1434689  36.01            0    1.269    0.212
        15  -9.7072    104.8462     10.1988   5.9207709472e+01   5.7408197790e+01     0.189121    0.1356987  31.37 0.0003940036    1.303    0.233
        16  -9.6973    156.1813      7.8198   4.8388493125e+01   4.5077616550e+01    0.1881331    0.1468089  42.22 0.0002354027    1.282    0.220
        17 -10.1925     37.0111      6.4852   8.0910743322e+01   7.0098329779e+01     0.246531    0.1461969 -42.33 0.0009886324    1.995    0.499
        18  -9.4101     15.4734      8.5756   9.2803347457e+01   7.2153807218e+01    0.1142625   0.08348505 -21.50 0.0001124852    1.029    0.028
        19  -9.4621    223.7098      7.6607   4.0628631258e+01   2.7873572463e+01    0.1264307   0.09886807  37.62 0.0007023618    1.644    0.392
        20  -9.5163    210.5134      7.5291   4.1797552455e+01   3.1137097375e+01     0.135077    0.1189839 -81.79 6.715968e-05    1.013    0.013
        21 -10.7206    144.5068      6.6330   4.9808970663e+01   4.8173965674e+01    0.2848901    0.1604976  27.01 0.0008451213    2.198    0.545
        22  -9.7876     65.2679      6.9651   6.9545910798e+01   6.5710386023e+01    0.1782086    0.1421856  -4.27 0.0005320088    1.100    0.091
        23 -11.7761     57.5037      3.0474   7.0413536997e+01   6.7464975309e+01    0.3964095    0.2532803  -9.60 -0.0004710238    1.453    0.312
        24 -10.3341     41.0804      6.7261   7.9177671956e+01   6.9525028798e+01    0.2336111     0.142871 -19.89  0.001403141    1.427    0.299
        25  -9.9540      8.9933      5.7262   9.4952084272e+01   7.3137182282e+01    0.3613985    0.1933559  44.05  0.001886828    3.812    0.738
        26  -9.8856      2.0109      6.4611   9.9256094753e+01   7.3523181727e+01    0.1858752    0.1363342 -18.60 0.0008149666    1.150    0.130
        27  -9.5648      1.9784      3.3325   9.7795289662e+01   7.4025274910e+01    0.1884855   0.09883568 -25.16  0.001188795    1.620    0.383
        28 -10.0241    107.7113      4.9440   5.6311036093e+01   5.7251924638e+01    0.1769255    0.1572807  17.67 0.0001663109    1.076    0.071
        29  -9.6856    104.3045      4.6423   5.6978779735e+01   5.8051390774e+01    0.2473314    0.1290692  65.73 0.0006143117    2.069    0.517
        30 -10.4189    101.8769      2.0510   5.6442214110e+01   5.8820788430e+01    0.4155932    0.1667631  55.69  0.001447516    2.140    0.533
        31  -9.8093    120.8626      4.1780   5.3178503077e+01   5.4237735519e+01    0.1874705    0.1756673  61.92 0.0003881121    1.116    0.104
        32 -10.1664    173.0253      2.7681   4.4500618215e+01   4.1182473207e+01    0.3013488    0.1497358  67.81 0.0008664932    1.768    0.434
        33  -9.4837    176.6649      1.6581   4.3730086596e+01   4.0341254913e+01    0.1883501    0.1403164  14.77 0.0009995016    1.693    0.409
        34 -10.7022    130.0995      3.1758   5.1034976175e+01   5.2078274865e+01    0.2363855    0.1734379  69.46 0.0005916118    1.318    0.241
        35  -9.4124    112.5799      3.2571   5.4528320197e+01   5.6274876520e+01    0.1312683     0.100173 -76.84 0.0006938496    1.759    0.431
        36 -10.7718     90.4518      2.5213   5.9541095183e+01   6.1262688770e+01     0.252685    0.2173518  80.76 0.0005863964    1.519    0.342
        37 -10.7753     70.9470      5.7503   6.6968005448e+01   6.4818450132e+01    0.3045091    0.2359505 -14.27  0.001692793    1.226    0.185
        38 -11.2836     80.3959      1.7225   6.2010941980e+01   6.3397947856e+01    0.3175009    0.1584541  49.93 0.0009372091    1.815    0.449
        39 -10.2486     10.0373      1.6568   9.2295566342e+01   7.3668009343e+01     0.149916    0.1212442 -12.85 0.0007825574    1.191    0.160
        40  -9.9896    187.0369      1.3376   4.2476881481e+01   3.7699170345e+01    0.1972209     0.115846  76.09            0    1.550    0.355
        41  -9.6459     67.2511      1.4238   6.6054884442e+01   6.5932945813e+01    0.1491431    0.1146483  49.98 0.0003497081    1.455    0.313
        42  -9.1583     41.7448    138.6753   1.1655769628e+02   4.2139127386e+01    0.1242734   0.08521558 -51.09 0.0003931048    1.548    0.354
        43 -11.7709     17.9749    248.9332   1.3002886853e+02   2.2050573541e+01    0.2259861    0.1874228  19.01  0.001776865    2.322    0.569
        44 -10.8354      1.8914    248.4622   1.3242729050e+02   2.3759456777e+01    0.2835264    0.1148505 -83.80  0.001861069    2.102    0.524
        45 -12.6875      8.6599    245.9517   1.3131917199e+02   2.3515316207e+01    0.4764362    0.3747272 -55.88  0.003858686    2.183    0.542
        46 -12.7061      4.5239    240.6194   1.3173452056e+02   2.4839762562e+01     0.502908    0.3105917  47.83   0.00392684    1.501    0.334
        47 -10.1671    212.6516    133.9119   7.4728684011e+01   1.1294523480e+01     0.262437    0.2161401  58.79  0.000595785    1.369    0.270
        48 -10.1510      1.5222    132.5218   1.2590239476e+02   4.7039431509e+01    0.1704555    0.1329862  69.84 0.0006301227    1.258    0.205
        49  -9.0361     96.2813    133.6946   1.0142865584e+02   3.5760727836e+01    0.1455964    0.1084586  83.22 0.0003246444    1.556    0.357
        50  -9.6461     35.2236    130.8567   1.1719106530e+02   4.4652683548e+01    0.1719675    0.1250611 -56.56 0.0004896929    1.334    0.251
        51 -10.7966     11.8133    129.5762   1.2307329645e+02   4.6981288484e+01    0.2536918    0.1433192  66.92  0.001005488    1.847    0.459
        52  -9.9314    248.6560    129.3187   6.7462120601e+01   4.6315720790e+00    0.1371584    0.1064216 -62.96 0.0004964999    1.722    0.419
        53  -9.4932     28.6212    128.2053   1.1857546654e+02   4.5904211274e+01    0.1712151   0.09359464 -63.66  0.000262777    1.500    0.333
        54  -9.5400     20.2734    125.0191   1.2037390913e+02   4.7370920001e+01    0.1732764    0.1243346 -76.93 0.0001756847    1.099    0.090
        55 -11.6184     23.9150    121.1477   1.1890909918e+02   4.7970183810e+01    0.4400012    0.2436699  82.99  0.001258478    1.992    0.498
        56  -9.8270     17.7074    122.0011   1.2068614427e+02   4.8277384707e+01    0.1709042    0.1245558 -73.98 0.0003819893    1.078    0.073
        57 -10.1728      7.9034    121.1608   1.2317939842e+02   4.9190422547e+01    0.1757623    0.1299015  83.30 0.0004449897    1.219    0.180
        58 -11.4416     17.4177    115.1934   1.1990766504e+02   4.9880130272e+01    0.2484421    0.1812344 -85.28 0.0004598817    1.174    0.149
        59  -9.5007     72.2738    113.0067   1.0376554269e+02   4.4446491466e+01    0.1954508    0.1585295 -64.60 0.0002564045    1.110    0.099
        60 -10.4151     26.0047    113.5487   1.1727483753e+02   4.9571503387e+01    0.1567409    0.1258983  28.13 0.0005808854    1.555    0.357
        61 -11.1080     65.7946    110.9314   1.0522381597e+02   4.5841781850e+01     0.321485    0.2427604  87.64  0.001242881    1.498    0.332
        62 -11.8859      4.2318    108.9958   1.2279863748e+02   5.2210491117e+01    0.3552082     0.288516 -29.75  0.002370092    1.573    0.364
        63  -9.8706     22.6908    109.6996   1.1765993968e+02   5.0746166785e+01    0.1241086    0.0784151 -46.96 0.0003273053    1.600    0.375
        64 -11.1669     57.0442    108.0196   1.0722251544e+02   4.7662881613e+01    0.2567423    0.1934784  31.70  0.001354203    1.547    0.354
        65  -9.8743     52.4933    104.9986   1.0798327003e+02   4.8924766886e+01    0.1886275    0.1088355 -87.10 0.0008092315    2.437    0.590
        66 -10.2985     19.1980    104.5828   1.1792393313e+02   5.2209356476e+01     0.148912    0.1162304 -14.09 0.0009527535    1.718    0.418
        67  -9.7095    186.9190    103.1879   7.1979412053e+01   2.2853332679e+01    0.2290137    0.2083617 -87.25  0.000555772    1.209    0.173
        68 -10.7962      8.5207    102.9998   1.2083140335e+02   5.3315362322e+01    0.1640238    0.1400871 -75.71 0.0003416752    1.116    0.104
        69  -9.3854     66.6754    101.7016   1.0294180245e+02   4.7899845163e+01    0.1392466    0.1014874 -29.79 0.0004318727    1.629    0.386
        70 -10.2647     62.0334     97.9220   1.0351118700e+02   4.9404860579e+01    0.2283257     0.150543 -34.77  0.001135474    1.718    0.418
        71  -9.4265     91.7465     96.9715   9.4156914657e+01   4.5100226788e+01    0.1876574    0.1185836 -49.83 0.0002930654    1.467    0.318
        72 -10.2066      3.3839     95.5431   1.2135785804e+02   5.5321721346e+01    0.1994378    0.1541919 -69.86 0.0005015718    1.032    0.031
        73  -9.8460     78.8654     94.7611   9.7492353739e+01   4.7725428643e+01    0.2023053    0.1798462 -28.10 0.0002726776    1.186    0.157
        74 -11.7334     20.4452     92.9492   1.1568815522e+02   5.4804500175e+01    0.3652752     0.253711 -37.15 0.0006242788    1.562    0.360
        75 -10.4985     24.4237     89.1416   1.1373048211e+02   5.5373053694e+01     0.381153    0.1749962 -71.18  0.001469387    1.981    0.495
        76 -10.5018     11.4800     84.9925   1.1722291911e+02   5.7233227867e+01    0.2308046      0.14507 -81.52  0.000881304    1.506    0.336
        77 -11.4059     10.8792     91.2573   1.1843100572e+02   5.5849908358e+01     0.393113    0.1703087 -69.70 0.0002960963    1.801    0.445
        78  -9.0459      7.2981     91.2718   1.1955495512e+02   5.6065340145e+01    0.1559388   0.09199472 -77.98            0    1.436    0.303
        79 -10.1368    125.1053     93.3021   8.3642292468e+01   3.9370432117e+01    0.2357174    0.2063604 -31.41 0.0001837768    1.156    0.135
        80  -9.6120    118.8230     94.3928   8.5661195640e+01   4.0474780413e+01    0.2082643    0.1463172  33.37 0.0004002454    1.591    0.372
        81 -10.8773     57.2887     91.9691   1.0362669149e+02   5.1391165398e+01    0.2582915    0.1978775  19.11 0.0007810876    1.585    0.369
        82  -9.9369     29.6043     92.1317   1.1261612551e+02   5.4257572004e+01    0.1853937    0.1677358  58.20 0.0006205342    1.301    0.232
        83  -9.9592     77.0487     88.7373   9.6469603653e+01   4.9374258662e+01    0.2504079    0.1993958   6.66   0.00130935    1.556    0.357
        84 -10.4039     64.9549     88.4663   1.0028064699e+02   5.1194183414e+01     0.265641    0.1820534 -53.67 0.0004871992    1.283    0.221
        85 -10.3436     18.4401     87.8083   1.1543678519e+02   5.6128003545e+01    0.3060004    0.1928549 -58.84  0.001395207    1.241    0.194
        86  -9.2678      1.5386     89.4770   1.2109074416e+02   5.6791839015e+01     0.119457   0.08815818 -66.23 0.0001752606    1.043    0.041
        87  -8.8941    250.6998     87.6972   5.7371689624e+01   1.0753072441e+01    0.1351873    0.1067457   7.58 0.0002417421    1.587    0.370
        88  -9.3202     88.6414     86.8204   9.2302696216e+01   4.7907948680e+01    0.2032591    0.1298784 -56.27 0.0008181664    1.575    0.365
        89  -9.6357    113.8325     85.7562   8.4517396060e+01   4.3352283059e+01    0.2175357    0.1940141 -11.08  0.001127632    1.208    0.172
        90 -11.3181     54.7526     84.1830   1.0255703602e+02   5.3482456327e+01    0.3014852    0.1959949 -59.11 0.0008199167    1.376    0.273
        91  -9.7614     38.9004     85.8137   1.0826371982e+02   5.4853568678e+01    0.2847213    0.1473527 -84.72  0.001101746    3.424    0.708
        92  -9.4314     71.8133     85.6027   9.7298451111e+01   5.0868153574e+01    0.1795168    0.1314023  49.30 0.0004745669    1.589    0.370
        93 -10.7534      3.8735     82.7471   1.1934730275e+02   5.8178885718e+01    0.3184022    0.1693379 -72.74  0.001655979    1.500    0.333
        94 -10.5881    124.6432     82.2698   8.0468994556e+01   4.1759810194e+01     0.413248    0.2784404 -38.48  0.001464069    1.459    0.315
        95  -9.9235     89.4833     80.7090   9.0250802412e+01   4.9090784825e+01    0.2494445    0.1946475 -64.61 0.0005708011    1.440    0.306
        96 -11.1029     64.3917     78.9836   9.7928897313e+01   5.3396233364e+01    0.4422473    0.2269489 -56.32   0.00122682    1.837    0.456
        97 -10.2743     10.1990     79.1192   1.1663198843e+02   5.8632099161e+01    0.2232611    0.1658988 -61.71  0.001447835    1.032    0.031
        98 -11.1358     27.5807     77.3725   1.1027858084e+02   5.7787818671e+01    0.3431759    0.2096629  -9.25 0.0005886426    2.321    0.569
        99  -9.8040    176.6987     76.9639   6.6664359956e+01   3.0194741649e+01    0.2260384    0.2089271 -37.05  0.001162236    1.074    0.069
       100 -10.5877      5.6736     76.2065   1.1766288068e+02   5.9539499694e+01    0.3753446   0.09391366 -45.65  0.001501747    3.476    0.712
       101 -10.8988     55.6186     75.4714   9.9959697414e+01   5.5318401274e+01    0.3347782    0.2767234  -2.92    0.0012167    1.389    0.280
       102 -10.6555     20.2028     73.8271   1.1211688753e+02   5.9150370105e+01    0.3432913    0.1913151 -41.81  0.001043497    1.655    0.396
       103 -10.6823     14.7955     75.2878   1.1432751715e+02   5.9198443755e+01    0.2479976    0.1996262  53.08 0.0009337326    1.556    0.357
       104  -8.8730     74.7047     75.3079   9.3399301561e+01   5.2689295994e+01    0.1338208    0.1101435 -85.74 0.0007002714    1.588    0.370
       105  -9.3438     42.5080     81.5350   1.0605835895e+02   5.5461192443e+01    0.1333624    0.1078719 -47.73 0.0002677933    1.080    0.074
       106  -9.9074     37.1889     75.3851   1.0642713767e+02   5.7371969733e+01    0.2164922    0.1740545 -62.14 0.0008400049    1.132    0.117
       107 -10.3021     35.6861     72.0422   1.0613661779e+02   5.8255044477e+01    0.4732072    0.2542387 -18.37  0.002036354    2.971    0.663
       108  -9.3862    136.5641     74.5249   7.4933030319e+01   4.0555446915e+01    0.1533157    0.1501269 -24.08 8.468344e-05    1.008    0.008
       109  -9.6488    216.9534     72.4433   5.8351118086e+01   2.0871802012e+01    0.2311795    0.1851936 -35.20 0.0005398737    1.195    0.163
       110  -9.2273     81.4453     73.2222   9.0531466887e+01   5.2051023359e+01    0.1980852    0.1299525 -56.08 0.0009397392    1.602    0.376
       111 -10.7654    106.1199     72.0456   8.2452393113e+01   4.7737771577e+01    0.3171956    0.2057412  45.81  0.001155189    1.614    0.380
       112  -9.3884     91.1896     69.4493   8.6176917109e+01   5.1131007192e+01    0.2118464    0.1914372  81.75 0.0004308634    1.364    0.267
       113  -9.9450     56.6169     68.8865   9.7719403087e+01   5.6617565122e+01    0.3724876    0.1643848 -33.19 0.0005689948    3.031    0.670
       114 -10.8310     46.2711     69.3085   1.0157116650e+02   5.7763293480e+01     0.271622    0.2110034   1.10   0.00077673    1.516    0.340
       115  -9.2510     29.4707     70.5579   1.0802836982e+02   5.9141248433e+01    0.1257062    0.1023512 -52.97 0.0001178888    1.017    0.017
       116 -10.3322     10.5323     67.8915   1.1436517592e+02   6.1094840468e+01    0.3482758    0.1202396 -68.80  0.001249606    2.582    0.613
       117 -11.3835      7.5477     63.9969   1.1466334789e+02   6.2112241176e+01     0.264597    0.1207997 -63.79  0.001421667    1.672    0.402
       118 -10.2310     80.1225     68.4134   8.9437949751e+01   5.3266656139e+01     0.257826    0.1795916 -34.31   0.00078235    1.373    0.272
       119 -10.8914      9.9960     60.0445   1.1287425339e+02   6.2822059006e+01    0.1805253    0.1381024 -53.51 0.0003926425    1.010    0.010
       120 -11.0564     15.1297     64.6960   1.1197013739e+02   6.1502683587e+01    0.4007972    0.2702489 -70.14  0.001168082    1.368    0.269
       121 -13.7971     19.9831     57.5438   1.0836193844e+02   6.2696843455e+01    0.4174354     0.280588 -61.23   0.00107192    1.290    0.225
       122  -9.5809      1.3660     66.7325   1.1748045737e+02   6.1838511471e+01     0.167437   0.07690042 -59.59 0.0005014672    1.544    0.352
       123 -10.0263    132.9050     65.8266   7.3036313081e+01   4.3024574568e+01    0.2958987    0.1770562  42.69  0.001246484    1.716    0.417
       124 -10.4793     34.5470     64.9585   1.0471238848e+02   5.9903013779e+01    0.2676405    0.2001335 -32.15 0.0008078291    1.282    0.220
       125 -10.8112     39.9124     60.7854   1.0149862335e+02   6.0260829621e+01    0.4549701    0.2409613 -40.57  0.002330721    1.669    0.401
       126 -10.3434     62.5135     62.9669   9.3769604915e+01   5.7068726523e+01    0.3709737    0.1802454 -40.23  0.001665517    1.892    0.471
       127  -9.8983    193.4681     61.9997   5.9220874545e+01   2.8408636530e+01    0.2185491    0.1468558 -34.24 0.0001149329    1.467    0.318
       128  -9.6114     53.3559     61.7104   9.6713098041e+01   5.8536438219e+01     0.184934    0.1524652 -88.10 0.0005318555    1.692    0.409
       129  -9.8459    100.9530     61.0199   8.0282012859e+01   5.0902035273e+01    0.2282009    0.1832001 -76.05  0.001126214    1.733    0.423
       130 -10.2754      2.8330     58.4216   1.1528586487e+02   6.3553992245e+01    0.3313497    0.1331817 -28.22  0.001560076    3.163    0.684
       131  -9.7642    150.0737     62.2172   6.7750762610e+01   3.9480882093e+01    0.2056916    0.1938227  69.82            0    1.088    0.081
       132 -12.4736    114.5729     54.1649   7.3886493690e+01   4.9260571389e+01    0.4312727    0.3648726  86.07 0.0008395233    1.527    0.345
       133 -10.8631     83.7335     56.7633   8.4266280062e+01   5.4940476436e+01    0.2555095    0.2349755 -38.08 0.0009894042    1.125    0.111
       134 -11.8858     88.4124     52.7949   8.1284531967e+01   5.4825413998e+01    0.4861983    0.4360993  50.35  0.002166724    1.286    0.222
       135  -9.1793     71.7029     57.2956   8.8585836372e+01   5.6841621841e+01    0.1261077    0.1091547 -79.62 0.0003616562    1.567    0.362
       136  -9.2969    157.7993     56.5969   6.4259503767e+01   3.8456398594e+01    0.2172013    0.1480438  71.76 0.0009448333    1.670    0.401
       137 -10.1831     33.6646     54.9028   1.0218278153e+02   6.2101638801e+01     0.285273    0.1434898 -32.10 0.0008483627    2.127    0.530
       138  -9.9363    105.9411     53.1499   7.5985598961e+01   5.1293742222e+01    0.2175962    0.2026453  80.90  0.000872671    1.290    0.225
       139 -12.1628     65.9638     52.4936   8.8947363423e+01   5.8642559482e+01    0.5598204    0.2346244  34.81  0.002356367    2.652    0.623
       140  -9.8685     19.7284     45.1605   1.0497490095e+02   6.5263187950e+01     0.314517    0.2439916  17.48  0.001326883    1.531    0.347
       141 -11.0783     12.9960     41.1144   1.0666958417e+02   6.6543992274e+01    0.3364135    0.2528147  75.87  0.001656304    2.155    0.536
       142 -12.7395      5.6841     50.7865   1.1241757930e+02   6.5013466014e+01    0.2739129    0.1955601 -42.88 0.0004233856    1.160    0.138
       143 -11.7899     13.5848     48.6781   1.0859541217e+02   6.4981774475e+01    0.4641865    0.3047583  44.06 0.0001394816    2.124    0.529
       144 -10.0648    121.8791     51.2237   7.0858540196e+01   4.8106393980e+01    0.2105137    0.2024484 -82.33 0.0004055056    1.170    0.145
       145 -10.3933     98.2627     48.4100   7.6535267492e+01   5.3683824622e+01    0.2859375     0.204096 -18.83 0.0006740426    1.469    0.319
       146 -10.1458     76.3758     48.8532   8.3881883932e+01   5.7662502132e+01    0.3818944    0.2124183 -26.30  0.001710689    1.989    0.497
       147 -10.5156     79.0087     45.7364   8.1781337539e+01   5.7762815225e+01    0.2052948     0.177389 -39.04 0.0002582862    1.203    0.169
       148  -8.9972    211.6814     48.7505   5.2731254073e+01   2.5763079236e+01    0.1400054    0.1094299  36.18 0.0002479701    1.528    0.345
       149 -11.0677     57.3428     46.7789   9.0097201940e+01   6.0955326700e+01    0.3292679    0.2046635 -53.26 0.0007869395    1.771    0.435
       150  -9.6107     53.1635     48.3280   9.2281133621e+01   6.1222348793e+01    0.2027782    0.1528739  -4.85  0.001179666    1.420    0.296
       151  -9.3523    154.5687     47.5230   6.1965318185e+01   4.0686421900e+01    0.1479777    0.1459809  65.96 7.367443e-05    1.015    0.015
       152  -9.6852    135.7169     46.4022   6.5711210791e+01   4.5580461262e+01    0.1990545     0.135451  46.03  0.000383419    1.432    0.302
       153 -11.7278     27.1201     43.6446   1.0132852444e+02   6.4960316406e+01    0.3881077    0.3040001 -41.72  0.002607352    1.048    0.046
       154  -9.8474    159.5511     42.1217   5.9199618091e+01   4.0187298340e+01    0.2671453    0.1403874 -34.86 0.0008981194    1.904    0.475
       155 -10.0737     69.5711     41.7490   8.3574121868e+01   6.0032323604e+01    0.3193513    0.2009283   3.19  0.001108681    2.200    0.545
       156 -11.0874      3.6877     41.3843   1.1084675710e+02   6.7037046286e+01    0.4047773    0.2008492 -31.11  0.002331957    1.955    0.489
       157 -11.5226    140.1199     40.6681   6.2698205014e+01   4.5337018419e+01     0.292944    0.2529072  78.95 0.0003641989    1.270    0.213
       158  -9.7502     42.9548     40.7623   9.3611968583e+01   6.3897460942e+01    0.1633106     0.142115  -6.64 0.0005422339    1.149    0.130
       159 -10.3867     34.7968     41.1817   9.7200325192e+01   6.4707470491e+01    0.2472704    0.1683038  21.73 0.0007553735    1.654    0.396
       160  -9.7148    181.0352     40.4511   5.4896186590e+01   3.4815489981e+01    0.2139438    0.1423345  67.22 0.0003687084    1.476    0.323
       161 -10.0948    127.9880     38.6594   6.4766287964e+01   4.8590350602e+01    0.2152405    0.2003971 -67.06 0.0003285331    1.216    0.178
       162 -11.9019    121.5615     37.1434   6.5778756390e+01   5.0328504141e+01    0.4471985    0.4186631  81.60  0.001258044    1.216    0.178
       163  -9.7078    114.9743     39.2213   6.8262467241e+01   5.1547099438e+01    0.1959774    0.1816545  25.56 0.0003752676    1.029    0.028
       164  -9.3086     87.2096     39.3460   7.6513074306e+01   5.7332861928e+01    0.1760807     0.128545  51.36 0.0002848481    1.559    0.359
       165 -10.6648     22.5183     38.4811   1.0160125857e+02   6.6352766898e+01    0.2070135    0.1505388 -51.48 0.0005143142    1.247    0.198
       166 -11.2538     26.7300     35.2114   9.8563135818e+01   6.6605851280e+01    0.4068159    0.2019299 -31.24  0.001108505    1.937    0.484
       167 -10.8557     18.0813     32.9357   1.0168414158e+02   6.7757801412e+01    0.7001587    0.3015056 -13.23  0.002671244    4.785    0.791
       168 -10.9016      3.3175     35.5399   1.0935809335e+02   6.8213534818e+01    0.3869481     0.180317 -31.57  0.002174952    2.033    0.508
       169 -10.8821     38.9272     35.3749   9.3256288035e+01   6.5338961375e+01    0.2462149    0.1770138 -11.24 0.0004442611    1.385    0.278
       170  -9.8608    229.6645    248.0167   9.3602651874e+01  -8.3831999921e+00    0.1517482    0.1212342  11.30 0.0005866705    1.126    0.112
       171 -11.0011     96.7816     33.4709   7.1141822269e+01   5.6325160870e+01    0.4200926    0.1982382 -35.42  0.001809609    2.087    0.521
       172  -9.8481     90.5797     34.7970   7.3591031821e+01   5.7381732315e+01    0.1894606    0.1232943 -40.59 0.0009412659    1.620    0.383
       173 -10.8325    144.7767     32.8692   5.8981202591e+01   4.5226314101e+01    0.2795785    0.2192795 -56.47 0.0004226101    1.447    0.309
       174  -9.8755    134.2043     34.2367   6.1717249486e+01   4.7688211473e+01     0.203989    0.1751239  30.53 0.0003356859    1.154    0.134
       175  -8.8884     50.3192     33.6945   8.7779899298e+01   6.4238740867e+01    0.1119733    0.1016461 -71.89 0.0006591296    1.632    0.387
       176 -10.1891    129.1160     30.8889   6.1637378976e+01   4.9371155634e+01    0.2403833    0.2047081 -21.56  0.000589848    1.209    0.173
       177 -10.5427     78.1610     30.9782   7.6090886308e+01   6.0296690569e+01     0.227927    0.1768244  37.21  0.001312883    1.312    0.238
       178  -9.8851    147.4109     27.6709   5.6650965459e+01   4.5208884610e+01    0.4868843    0.2575706 -53.48   0.00192955    2.494    0.599
       179  -9.4672     25.6466     29.7511   9.6990566506e+01   6.7701958015e+01    0.1582876   0.09691205 -52.03 0.0004548572    1.591    0.371
       180 -10.4381      8.2347     28.7560   1.0487509144e+02   6.9228758497e+01    0.2183642    0.2055617 -75.98  0.001487587    1.465    0.317
       181 -10.6606    113.3694     25.5086   6.3351046665e+01   5.3769815226e+01    0.3102688    0.2268502 -39.05 0.0004653452    1.490    0.329
       182 -10.1022    105.7378     27.2134   6.6036540236e+01   5.5269069777e+01    0.2257567    0.0895316  44.74 0.0008707435    2.389    0.581
       183  -9.6660     84.9842     30.5252   7.3613311351e+01   5.9094940493e+01    0.2856458    0.1345812  54.63   0.00066841    2.638    0.621
       184  -9.8129    164.3085     27.2999   5.3507254000e+01   4.0885740981e+01    0.1496814      0.10536  34.29 0.0002491895    1.598    0.374
       185  -9.1801    153.5468     25.5213   5.4775849963e+01   4.3891440700e+01    0.1431302    0.1360977  76.43  0.000180154    1.047    0.045
       186 -10.1495     59.0127     24.1409   8.0132187351e+01   6.4515912630e+01    0.2272852    0.1617006 -23.65   0.00108545    1.241    0.195
       187 -10.6343     97.7518     26.4785   6.7978498375e+01   5.7084863780e+01    0.3041931    0.2011967  -7.72 0.0006774616    1.671    0.401
       188 -10.7473      1.9824     22.1669   1.0565928732e+02   7.0813658288e+01    0.2401606     0.132115 -54.51 0.0007066207    1.499    0.333
       189  -9.5361     90.9985     22.4845   6.8285131529e+01   5.8997443542e+01    0.2038658    0.1259027  47.87  0.001029622    1.581    0.368
       190  -9.6551     57.8439    248.2032   1.2363296055e+02   1.7541401738e+01    0.1327489    0.1122463  63.08 0.0006517122    1.308    0.236
       191  -9.0776     35.0536     22.0424   8.9405369251e+01   6.8051245884e+01    0.1440074    0.1099605 -23.90 0.0003403808    1.045    0.043
       192 -10.9508     30.4923     21.0931   9.1104504115e+01   6.8706734501e+01    0.2510287    0.1800891 -19.61  0.001029979    1.166    0.142
       193  -9.6105     20.0090     16.9748   9.4376093255e+01   7.0410380063e+01     0.181958    0.1529448   6.57 0.0006950788    1.317    0.241
       194 -11.1234     14.1130     21.1561   9.9127618499e+01   7.0194042882e+01    0.2565042    0.2226685  40.80  0.001896875    1.706    0.414
       195 -11.0032     14.0316     16.2303   9.7098339700e+01   7.1042411661e+01    0.2562413    0.1669204  22.19  0.001167256    1.750    0.429
       196  -9.7853    175.5463     21.4466   4.9907998975e+01   3.8630494128e+01    0.1426546    0.1317877  86.02 9.149987e-05    1.024    0.023
       197  -9.8068    165.1062     21.0889   5.1368166690e+01   4.1399431696e+01    0.2149381    0.1868297  31.97 0.0006270188    1.234    0.190
       198  -9.6159     84.7801     21.3726   6.9726933804e+01   6.0379242381e+01    0.1902668    0.1100255  37.60 0.0005991409    1.662    0.398
       199  -9.7950     58.2894     19.4305   7.8246586817e+01   6.5306446525e+01    0.1942212    0.1434475 -45.22 0.0008234407    1.701    0.412
       200 -10.2317     42.1688     19.8351   8.5186589091e+01   6.7537892717e+01    0.3122769     0.165778  14.08  0.001324898    2.473    0.596
       201 -10.1398    147.1531     18.8207   5.3619033713e+01   4.6291295675e+01    0.3045273    0.2295322  70.81 0.0007953807    1.303    0.232
       202  -9.8629    224.9592    246.7018   9.4198134411e+01  -7.5465917520e+00    0.1667591    0.1161841  26.90  0.001134092    1.098    0.089
       203  -9.2140    136.3581    245.7031   1.0972665456e+02   6.5788083673e+00    0.1231607   0.07607948  61.89 0.0007033888    1.703    0.413
       204  -9.4493     36.4474     18.5082   8.7149550151e+01   6.8447320230e+01    0.2058422   0.09932371 -37.79 0.0007343247    1.776    0.437
       205  -9.5859     60.7425    241.0042   1.2264359649e+02   1.8405377796e+01    0.1921681   0.08651513  43.26 0.0008848719    1.862    0.463
       206  -9.6563     49.7641    240.9495   1.2449608468e+02   1.9797789798e+01      0.13161    0.0780558 -80.33 0.0008813568    1.630    0.387
       207  -9.6513    202.4656    240.0904   9.7101317544e+01  -3.3076218252e+00    0.1502455    0.1153699 -27.71 0.0006374832    1.531    0.347
       208  -9.7770    199.4969     17.4894   4.5647614305e+01   3.2856449840e+01    0.1399238    0.1263815 -83.86 0.0008105953    1.001    0.001
       209  -8.8371    115.2850     17.2765   5.9600613518e+01   5.4284694537e+01    0.1403728   0.09505724  28.78            0    1.510    0.338
       210 -10.1627    108.3099     16.3563   6.0918848839e+01   5.5987820147e+01    0.2063325    0.1648618   0.64  0.001162711    1.261    0.207
       211  -9.2319     82.4642     17.4891   6.8730353922e+01   6.1313500389e+01    0.1338083    0.1132631  11.00 3.685652e-05    1.029    0.028
       212 -10.0139    148.5784    238.7076   1.0666314137e+02   5.6687912493e+00    0.1923048      0.11907 -45.89  0.001129412    2.043    0.511
       213 -11.1981     14.0768    238.6140   1.3016873492e+02   2.4232839343e+01    0.1928957   0.09848228  76.45 0.0005086912    1.504    0.335
       214 -12.3132     25.9142    235.7832   1.2813338799e+02   2.3480206539e+01    0.3230317     0.266576  53.22  0.002278367    1.446    0.308
       215  -9.9854    249.2482    234.0104   8.8118437470e+01  -9.7069646912e+00    0.1886447    0.1303551  25.43 0.0004685407    1.161    0.139
       216 -11.1436    234.6257     14.9730   4.1468338967e+01   2.4453066277e+01    0.2578299    0.1803282  86.95 0.0002621954    1.363    0.266
       217  -9.4829    175.5004     15.4714   4.8073150507e+01   3.9297064100e+01    0.1413726    0.1292697  68.04 6.960832e-05    1.046    0.044
       218 -10.3319    154.4623     15.0227   5.1068338752e+01   4.4814973768e+01    0.2703499    0.1952873  65.45 0.0004522917    1.277    0.217
       219 -12.4049      3.8731    232.0235   1.3148684660e+02   2.6412989894e+01    0.4864078    0.1809672  79.95  0.000726631    2.341    0.573
       220 -12.5711      9.8035    228.3195   1.3037892091e+02   2.6501027220e+01    0.4838005    0.2365685  66.91  0.001128529    1.521    0.342
       221  -9.5926     41.9764     14.2029   8.2578459154e+01   6.8392654076e+01    0.1691404    0.1363683   1.03 0.0006990689    1.098    0.089
       222  -9.4079    162.2947     13.3409   4.9289327371e+01   4.2958382149e+01    0.1471385   0.09931042  34.83 0.0003381417    1.657    0.397
       223  -9.8856    134.7935     11.5981   5.3300381119e+01   5.0152615784e+01    0.1841609    0.1284585  76.41 0.0002657375    1.531    0.347
       224  -8.8753     80.3285    231.6729   1.1844204066e+02   1.7410745607e+01    0.1261045    0.0695914  66.34 0.0007050679    1.704    0.413
       225  -9.4615     99.2669     11.3649   6.1128390793e+01   5.8525329640e+01    0.1843362    0.1239615  64.55  0.000951821    1.678    0.404
       226  -9.3040    242.9665    230.2114   8.8536053894e+01  -8.3744325149e+00    0.1527513   0.07822133  36.97 0.0007582291    1.672    0.402
       227  -9.5842    209.5164    229.5145   9.4222336238e+01  -3.0965245351e+00    0.1232281   0.09819125  24.95 8.942596e-05    1.004    0.004
       228 -10.7067    140.3337    227.9496   1.0682700810e+02   8.7264100073e+00     0.332721    0.2258636 -87.10  0.001833548    2.152    0.535
       229  -9.8712     91.0106    237.0282   1.1700257389e+02   1.4938853499e+01    0.1508148    0.1423601 -27.44  0.000852904    1.653    0.395
       230 -11.2613      8.5264    218.2337   1.3011182853e+02   2.8488056313e+01    0.2462597    0.2048853  12.86  0.001888837    2.212    0.548
       231  -9.4369    223.3076    226.7138   9.1329878636e+01  -4.9515505195e+00     0.105801    0.0915973  52.39 0.0002003232    1.569    0.363
       232  -9.2097    209.6504    211.2895   9.1175159760e+01  -6.6340277572e-01    0.1184645   0.09835683  63.05 0.0007025999    1.666    0.400
       233 -10.0504     20.1773    209.8417   1.2764800395e+02   2.8932963879e+01    0.1783407    0.1042907  67.28 0.0007669936    1.319    0.242
       234  -9.9887      2.9958    205.6690   1.3043981392e+02   3.1406717442e+01    0.1312665   0.08859321  -6.78 0.0007052162    4.384    0.772
       235 -10.2190     10.1877    203.3999   1.2905639744e+02   3.1183589300e+01    0.1503255   0.07386593  52.27 0.0006215204    1.680    0.405
       236  -9.0386    193.6398    201.7150   9.2506658780e+01   3.5794331706e+00    0.1375222   0.09415198  15.65  0.000702067    1.680    0.405
       237  -9.6288      7.3068    199.6678   1.2936702678e+02   3.2191785946e+01    0.1176795   0.05711892  68.48 0.0003771907    1.664    0.399
       238  -9.7403     23.0270    197.3171   1.2633074115e+02   3.1135071163e+01    0.1561891    0.1176412  71.72 0.0004792559    1.083    0.076
       239 -10.6283     13.9098    192.7007   1.2774499749e+02   3.2977728445e+01    0.1962623    0.1200484  84.01 0.0004120866    1.256    0.204
       240 -10.3277      6.5197    191.4505   1.2905019327e+02   3.3915066751e+01    0.1888614    0.1306221  78.99 2.962661e-05    1.041    0.039
       241  -9.4335     22.5076    179.6066   1.2515302240e+02   3.4882481764e+01    0.1159986    0.0879946  80.80  9.76964e-05    1.023    0.023
       242 -10.5724      5.3661    167.5192   1.2777341708e+02   3.9024249406e+01    0.2338228    0.1341516  87.03  0.001084282    1.361    0.265
       243  -9.2381    226.5085    164.4196   7.9020273860e+01   3.3448584395e+00    0.1385821    0.1222436   6.08 0.0001504118    1.022    0.021
       244  -9.0225     41.2906    157.6836   1.1900674499e+02   3.7778127971e+01    0.1301171   0.07990632  74.11 0.0003478678    1.596    0.373
       245  -8.9326    247.4641    155.4953   7.3472351073e+01   8.1748186689e-01    0.1365099    0.1168376  -5.94 0.0001809799    1.023    0.022
       246 -10.2883      2.2125    153.5643   1.2744797916e+02   4.2305417848e+01    0.1883072   0.09755644  37.81  0.001142329    2.096    0.523
       247  -9.7156     23.5235    150.5154   1.2237953969e+02   4.1213612212e+01    0.1228054   0.09498616 -89.03 5.951097e-05    1.010    0.010
       248  -9.4856     43.0931    145.0979   1.1706068422e+02   4.0487614612e+01    0.1743751    0.1420738 -69.19            0    1.159    0.137
       249  -9.8821     22.6248    143.1212   1.2183398747e+02   4.2984177893e+01    0.1772543   0.08583358 -63.96 0.0008201639    1.720    0.419
       250 -10.0183     33.9494    142.2284   1.1896683932e+02   4.2118301123e+01    0.1821383    0.1397838  80.58 0.0003803343    1.171    0.146
       251  -9.3162     24.6051    139.1537   1.2091966636e+02   4.3720211633e+01    0.1773279    0.0877893 -62.90 0.0009334386    1.691    0.409
