#   1 NUMBER                 Running object number                                     
#   2 MAG_AUTO               Kron-like elliptical aperture magnitude                    [mag]
#   3 X_IMAGE                Object position along x                                    [pixel]
#   4 Y_IMAGE                Object position along y                                    [pixel]
#   5 X_WORLD                Barycenter position along world x axis                     [deg]
#   6 Y_WORLD                Barycenter position along world y axis                     [deg]
#   7 A_WORLD                Profile RMS along major axis (world units)                 [deg]
#   8 B_WORLD                Profile RMS along minor axis (world units)                 [deg]
#   9 THETA_WORLD            Position angle (CCW/world-x)                               [deg]
#  10 FWHM_WORLD             FWHM assuming a gaussian core                              [deg]
#  11 ELONGATION             A_IMAGE/B_IMAGE                                           
#  12 ELLIPTICITY            1 - B_IMAGE/A_IMAGE                                       
         1 -13.2452    192.5458     30.1245   6.9504437804e+01   3.3565814907e+01     1.147475     1.052525 -82.39  0.006865133    1.067    0.063
         2 -13.9382    205.9030     12.8377   6.3518903314e+01   3.2319781851e+01     1.809894     1.138782  45.05  0.009466171    1.915    0.478
         3 -13.1896      4.0513     10.2691   1.1616265966e+02   7.0733005022e+01     1.520794    0.4169722 -42.44  0.007760409    2.700    0.630
         4 -11.1757     14.3182     12.3168   1.1222986223e+02   6.9665548084e+01    0.1816315    0.1580649 -18.34  0.001025165    1.408    0.290
         5 -10.4256    110.9846    249.6901   1.3398166304e+02   8.5141455192e+00    0.1828484    0.1335528  55.14 0.0008120757    1.094    0.086
         6 -11.5910    140.3440    249.8811   1.2856370140e+02   3.6170619929e+00    0.4730459    0.1696393  44.95  0.002066385    2.255    0.557
         7 -11.2531    125.7341    250.2075   1.3132438983e+02   6.0131468710e+00    0.4100638    0.1502272  40.59  0.001784172    2.419    0.587
         8  -9.7597     67.0863    250.1472   1.4181999695e+02   1.5043349835e+01    0.1632202    0.1351088  66.18 0.0003582459    1.209    0.173
         9  -9.8902     46.5470    249.2086   1.4519812265e+02   1.7948903263e+01    0.2638116    0.1405966  78.30  0.001378793    1.685    0.407
        10 -11.6894     35.5279    244.5055   1.4667668506e+02   2.0182179095e+01    0.4795191    0.3566948  47.02  0.003522035    1.515    0.340
        11 -11.0008     30.6225    249.7609   1.4781003906e+02   1.9794612623e+01    0.4020027    0.2148495  49.90  0.001400435    1.583    0.368
        12 -10.1258     37.3164    249.7598   1.4674020762e+02   1.8994760770e+01    0.2446706    0.1358579  47.60  0.001597077    1.607    0.378
        13 -14.2436      7.2082    239.7247   1.5089435281e+02   2.4221782422e+01     7.236593     2.061582  34.68   0.03319855    4.535    0.780
        14 -15.3115     12.6318    158.3079   1.4391134127e+02   4.0561459003e+01     9.198622      4.06575  72.65   0.04231568    2.914    0.657
        15  -9.7783    229.2892    229.4275   1.0859652615e+02  -8.4673206413e+00    0.1912562    0.1564718 -56.21 0.0008660489    1.807    0.447
        16 -11.0172    149.0840    229.7926   1.2414439773e+02   5.5515294881e+00    0.3240073    0.1627331  37.54  0.001497986    1.898    0.473
        17 -10.8983    247.8156    246.5526   1.0820938612e+02  -1.3555346369e+01    0.3171283    0.1546766  18.03  0.001520876    2.551    0.608
        18 -11.2847    100.5845    224.1962   1.3300985184e+02   1.4965144618e+01    0.6078789   0.07077575  45.50  0.001603197    6.118    0.837
        19 -10.8057    120.4641    239.8174   1.3106391586e+02   8.7169227773e+00    0.2199451    0.1389151  42.41  0.001226528    1.424    0.298
        20  -9.0870     92.1146    214.2506   1.3348384879e+02   1.8339484064e+01     0.227797     0.123439  65.48  0.001074785    2.003    0.501
        21  -8.7307    152.8021    212.8629   1.2078816852e+02   7.9936127750e+00    0.1805645    0.1479056  67.27 0.0003304494    1.260    0.207
        22 -14.1807      8.6396    203.6920   1.4846710723e+02   3.1146818421e+01     2.526554    0.9684672 -85.96  0.009359492    2.324    0.570
        23 -10.0487    193.3267    195.5355   1.0934066008e+02   3.4409074555e+00    0.5708461     0.255951 -60.70  0.001484971    6.768    0.852
        24 -11.4981     65.3004    196.3026   1.3682222253e+02   2.6174502252e+01    0.3515834    0.2423175 -46.27  0.001314139    1.933    0.483
        25  -9.6078     52.4761    197.9699   1.3963474457e+02   2.7512230864e+01    0.2375217    0.1369858  60.90 0.0007537416    1.622    0.384
        26  -9.2271     47.8439    193.0897   1.4006087947e+02   2.9160177286e+01    0.1805619    0.1325095  81.60 0.0002575817    1.142    0.125
        27 -11.5911     70.8406    188.6868   1.3471856890e+02   2.7089411115e+01    0.2907712    0.2294772 -59.58 0.0007227028    1.361    0.265
        28 -10.8299     80.2201    176.4122   1.3095118327e+02   2.8506861366e+01    0.2423977    0.2204993 -75.33 0.0003620851    1.147    0.128
        29 -13.0824     67.3101    174.1936   1.3357594473e+02   3.0885647885e+01    0.4929708    0.2749342 -45.86  0.001450346    2.237    0.553
        30 -11.8469     87.3781    167.2304   1.2786165493e+02   2.9532508427e+01    0.6655207     0.547798  65.94   0.00378121    1.174    0.148
        31 -12.6191     67.3202    143.9846   1.2891407284e+02   3.7969968263e+01    0.9050943    0.5763376  85.07  0.003852311    1.980    0.495
        32  -9.7837     99.6167    151.3449   1.2205785810e+02   3.1250401285e+01    0.2909872     0.255689  86.26 0.0007867759    1.111    0.100
        33 -11.9685     88.3518    150.5055   1.2473101301e+02   3.3315945782e+01    0.2941701    0.2522044 -44.83  0.001036118    1.274    0.215
        34 -11.9113     57.6753    131.1208   1.2918241466e+02   4.2249234627e+01     1.732457    0.5704204 -72.30  0.003840109    8.663    0.885
        35  -9.1733    102.3617    147.2100   1.2055818676e+02   3.1748820242e+01    0.2223201    0.1698131 -43.44 0.0005052434    1.399    0.285
        36  -8.4580    192.2383    144.0363   9.8666591768e+01   1.3709287289e+01    0.1924396    0.1282656 -40.89 0.0003620267    1.497    0.332
        37  -9.7639    110.5735    136.7474   1.1626877515e+02   3.2722783416e+01    0.3482417    0.2489266 -21.34  0.001255321    2.041    0.510
        38 -10.3639     98.1447    133.7793   1.1887992957e+02   3.5642161538e+01    0.2820326    0.2153341 -39.31 0.0003865412    1.410    0.291
        39 -10.9704     50.2656    129.7361   1.3092256651e+02   4.3451933612e+01    0.2559784    0.2257355  78.51 0.0006561017    1.187    0.157
        40 -12.4915     39.7342    230.0129   1.4491946410e+02   2.2450556148e+01    0.2900076    0.2329591 -80.95 0.0007647238    1.317    0.241
        41  -9.2519    107.4653    123.6122   1.1411501258e+02   3.6343012190e+01    0.1838403    0.1395692 -43.11 0.0008943275    1.314    0.239
        42 -10.3372    168.0524    113.0429   9.6343531164e+01   2.5674599817e+01     0.366206    0.2925394 -82.64 0.0008153036    1.519    0.342
        43  -9.0211    203.5226    111.4938   8.8588320456e+01   1.7583083342e+01    0.1512955    0.1483904 -41.41 0.0008097413    1.049    0.047
        44 -14.3923     46.3276    221.0996   1.4301936859e+02   2.3418102778e+01     1.996663     1.340865  34.10   0.00942598    1.914    0.477
        45 -10.8042    105.7712    246.6404   1.3460330198e+02   9.8905191166e+00    0.2001781    0.1601984  79.69 0.0007810625    1.175    0.149
        46  -9.7891    163.5133    249.5127   1.2416253152e+02  -2.8230095540e-01    0.1274917    0.1039188  46.08 0.0008102041    1.032    0.031
        47 -11.9266    100.9622    245.6685   1.3538089717e+02   1.0828259651e+01    0.4449692    0.3005399 -74.54  0.002688355    1.591    0.371
        48 -11.1576     81.4971    249.0204   1.3921643997e+02   1.3186373529e+01    0.2833411    0.1746804  51.21  0.001749903    1.330    0.248
