#   1 NUMBER                 Running object number                                     
#   2 MAG_AUTO               Kron-like elliptical aperture magnitude                    [mag]
#   3 X_IMAGE                Object position along x                                    [pixel]
#   4 Y_IMAGE                Object position along y                                    [pixel]
#   5 X_WORLD                Barycenter position along world x axis                     [deg]
#   6 Y_WORLD                Barycenter position along world y axis                     [deg]
#   7 A_WORLD                Profile RMS along major axis (world units)                 [deg]
#   8 B_WORLD                Profile RMS along minor axis (world units)                 [deg]
#   9 THETA_WORLD            Position angle (CCW/world-x)                               [deg]
#  10 FWHM_WORLD             FWHM assuming a gaussian core                              [deg]
#  11 ELONGATION             A_IMAGE/B_IMAGE                                           
#  12 ELLIPTICITY            1 - B_IMAGE/A_IMAGE                                       
         1 -10.6920    183.9241     31.9626   6.9373478163e+01   3.5405133373e+01    0.8580057    0.7321771 -88.97  0.004722135    1.093    0.085
         2 -11.1764    190.5527     21.2148   6.5698340513e+01   3.5056662201e+01    0.6248445    0.6025735  57.66  0.001587874    1.211    0.174
         3  -9.2143    230.8738     18.2371   6.0588031830e+01   2.5897785086e+01    0.3359393    0.1924556 -39.66 0.0009718032    1.731    0.422
         4  -8.5925    204.0255      5.4986   6.0368761513e+01   3.3515608784e+01    0.1922568    0.1063791  71.81 0.0004616223    1.543    0.352
         5  -7.7809    175.1331      4.8611   6.3442178194e+01   4.0455575025e+01    0.1802752    0.1504337 -88.98  0.000267742    1.106    0.096
         6  -7.5933    171.3153    242.6956   1.2011524948e+02  -8.8554976290e-01    0.1256763   0.09455825  65.99 0.0002865914    1.622    0.383
         7  -9.7971    133.0058    250.0000   1.2848693343e+02   4.4590862908e+00    0.7959354    0.2079452  36.53  0.002372466    5.203    0.808
         8  -9.1157     96.6413    249.6171   1.3523670652e+02   1.0432147305e+01    0.3448645    0.2146825  54.85  0.002039123    1.318    0.241
         9 -13.3823     63.2666    212.0611   1.3759613211e+02   2.2920718430e+01     4.817273     2.748668  86.58   0.02492411    1.842    0.457
        10  -7.9624    102.8714    237.0873   1.3266433645e+02   1.1797339944e+01     0.195074    0.1424456  71.38 0.0004451766    1.271    0.213
        11  -7.9547    126.3023    232.3302   1.2746860389e+02   8.7924036351e+00     0.121435    0.1044258   2.34 0.0003190862    1.650    0.394
        12 -10.5573     87.9778    225.8423   1.3424702155e+02   1.6385352150e+01    0.5800508    0.2871669  53.28  0.002703863    1.816    0.449
        13 -10.9948     72.5222    199.0336   1.3416739833e+02   2.4466722338e+01    0.7636851    0.6220362 -70.72  0.003634005    1.213    0.176
        14 -12.0528      6.3573    228.7304   1.4936120238e+02   2.6216514286e+01     1.619238    0.9045067 -57.48   0.01015686    2.307    0.566
        15  -8.9469    110.2051    224.9185   1.2970067245e+02   1.2978764334e+01    0.3518502    0.2143521 -72.98  0.001345058    1.863    0.463
        16 -12.5338     16.1923    244.1737   1.4869158787e+02   2.2197183527e+01    0.6943535    0.4300514  37.59  0.002776535    1.989    0.497
        17  -9.7852      5.4015    218.7644   1.4890727278e+02   2.8302372883e+01    0.4364413     0.304096  13.68  0.002326844    2.872    0.652
        18  -8.7293      3.0778    214.0422   1.4900561578e+02   2.9486041838e+01      0.31089    0.1150028 -81.85  0.001613311    2.223    0.550
        19  -6.7834    132.4731    219.5399   1.2439098743e+02   1.0182842396e+01    0.1380291    0.1196929  61.08 0.0001660215    1.035    0.034
        20 -12.3802     18.8544    232.0939   1.4749390353e+02   2.4244417238e+01    0.7385749    0.5190539  80.84  0.002344918    1.030    0.029
        21 -10.2510    166.9608    210.3053   1.1571435330e+02   5.5974044016e+00    0.3014767    0.2477199 -79.19 0.0002770365    1.512    0.339
        22 -11.5728     11.7911    207.3122   1.4700409536e+02   3.0037999952e+01    0.6769691    0.3694506  37.24  0.001948138    2.092    0.522
        23  -8.9954     21.0833    202.4716   1.4490497202e+02   3.0122598833e+01    0.3609498    0.2300891  72.81  0.001233371    1.325    0.246
        24  -8.8030    198.5573    200.1671   1.0737318210e+02   1.4776935583e+00    0.4041504    0.2409389  26.72  0.001827167    1.925    0.480
        25  -8.8083     32.0598    205.6829   1.4308544474e+02   2.8234862749e+01    0.2044038    0.1450808 -60.64  0.001006497    1.568    0.362
        26  -6.8880    241.3127    196.6835   9.8540278721e+01  -5.6098240579e+00    0.1200694    0.1072692 -74.21 0.0003155108    1.642    0.391
        27  -7.5257    167.8725    194.9430   1.1272971144e+02   8.4125770989e+00    0.1891106    0.1666482  84.10 0.0005694975    1.296    0.228
        28  -8.2153    190.0000    190.9571   1.0731260254e+02   4.8313837665e+00    0.2333809    0.0818278 -43.66 0.0008039394    2.953    0.661
        29  -8.7892    208.9432    188.0389   1.0290693333e+02   1.6981175028e+00    0.2341549    0.1687903   3.54  0.001133113    1.736    0.424
        30  -7.5303    190.5454    186.4995   1.0630903436e+02   5.5774496960e+00    0.1447149    0.1363224  11.69 -0.0002754309    1.036    0.035
        31  -7.8327    214.3281    184.3058   1.0109119352e+02   1.3462265274e+00    0.1457862    0.1068182   4.05 0.0003877264    1.653    0.395
        32  -7.1024     89.4930    184.4654   1.2840368855e+02   2.5185683392e+01    0.1438438     0.120784  81.05  6.93878e-05    1.090    0.083
        33  -9.2894     83.0769    183.1345   1.2966454299e+02   2.6507235298e+01    0.3365472    0.2498632 -48.11 0.0009550666    1.540    0.351
        34  -9.3316     86.6756    177.2107   1.2792623343e+02   2.7324785519e+01    0.3620454    0.2492914 -44.97  0.001621002    1.695    0.410
        35  -7.7196    199.7624    180.5858   1.0321326066e+02   4.8778286563e+00    0.2001695    0.1366025  53.88  0.000593872    1.628    0.386
        36 -14.5868     29.2790    242.8475   1.4647610241e+02   2.0969524947e+01     2.396756     2.096355 -88.55   0.01374902    1.424    0.298
        37 -10.3120    101.0013    175.9983   1.2436930737e+02   2.5240913754e+01    0.2047025    0.1857557  87.24  0.001162402    1.005    0.005
        38  -7.5376     43.4168    169.5333   1.3685486064e+02   3.5082555681e+01    0.1300716    0.1052698 -82.60 0.0001213438    1.013    0.013
        39  -9.0776     93.1235    167.5303   1.2478903611e+02   2.8564373141e+01    0.2563196    0.2384025 -85.48 0.0003659788    1.058    0.055
        40  -9.1933     17.8703    167.2802   1.4230670709e+02   3.8251094315e+01     0.355579    0.1259501 -65.12  0.001671826    2.171    0.539
        41 -10.7633     81.8415    162.9186   1.2674144986e+02   3.1469393946e+01    0.4121547    0.3236384 -44.17  0.001309109    1.434    0.303
        42  -8.5490     97.2585    161.1970   1.2264404153e+02   2.9376437024e+01    0.3238538    0.2410409 -45.65 0.0007714364    1.438    0.305
        43  -8.3879    101.0100    157.7350   1.2106270987e+02   2.9554878172e+01    0.2674758    0.2310138  42.76  0.001443496    1.235    0.190
        44  -8.5744      5.5086    162.0064   1.4446714479e+02   4.0502361746e+01    0.1811282    0.1551229  68.51 0.0002831214    1.272    0.214
        45  -6.8569    183.7017    159.7129   1.0207247198e+02   1.2366429167e+01    0.1501477    0.1206987   3.16 0.0004031824    1.553    0.356
        46  -8.1406     24.7960    156.4403   1.3953530082e+02   4.0095103244e+01    0.2466963    0.1275759  26.32  0.001283668    2.527    0.604
        47 -10.0722     55.1857    151.1935   1.3143294248e+02   3.8007724663e+01    0.6062424    0.2596461 -58.02  0.002668923    1.987    0.497
        48 -10.7171     68.3055    144.7119   1.2697993637e+02   3.7829786539e+01    0.6620545    0.4425029  77.53  0.002748846    1.864    0.463
        49  -8.5119    112.0075    138.9455   1.1436595664e+02   3.2020524617e+01    0.2205586     0.209959 -61.63            0    1.035    0.034
        50  -9.1453     97.5465    144.1298   1.1923684561e+02   3.3405727573e+01    0.2603666    0.2464195 -64.28 0.0003583691    1.058    0.055
        51 -10.1566    226.0807    141.2042   8.9518577958e+01   7.0141340831e+00    0.2680846    0.2445889  62.29  0.000370923    1.212    0.175
        52  -8.8875      6.2941    141.8562   1.4219028330e+02   4.4994230814e+01    0.1993687    0.1224829  89.88  0.001190418    1.491    0.329
        53  -9.4122     67.6734    134.4841   1.2524185138e+02   4.0365618312e+01    0.3281472    0.2155418  81.00   0.00102464    2.072    0.517
        54  -7.9046    108.2874    144.5583   1.1655108269e+02   3.1387446913e+01    0.4923205    0.2228733 -36.01  0.001543937    3.630    0.725
        55  -9.2801     59.5078    133.5148   1.2727063175e+02   4.1681912369e+01    0.3126705     0.179784 -33.55  0.001378671    2.409    0.585
        56  -7.9393    115.6283    133.2265   1.1212187659e+02   3.2667546992e+01    0.2206265    0.1369566 -41.98 0.0004342586    1.659    0.397
        57  -8.4086     43.1649    131.4111   1.3131713640e+02   4.4108523510e+01    0.2359661    0.1805842 -79.99 0.0005925837    1.237    0.191
        58  -9.1338     65.1245    128.7469   1.2481464709e+02   4.2076473132e+01    0.4872237     0.183289 -67.63   0.00158789    3.603    0.722
        59  -7.4697    172.9514    124.7350   9.6150693552e+01   2.2130416514e+01    0.2120334    0.2036794  57.14 0.0004848468    1.056    0.053
        60  -9.0467    244.3816    122.7401   8.2267816597e+01   6.6440586555e+00    0.2367108    0.2270693 -39.60 0.0002618099    1.076    0.070
        61  -7.5914    230.2495    122.3678   8.4484835769e+01   9.6497105661e+00    0.2614806    0.1657415 -57.21 0.0006756161    1.761    0.432
        62 -11.8437     17.3263    239.8136   1.4824248799e+02   2.2905957816e+01     0.718479     0.255859  40.11  0.001509211    2.702    0.630
        63  -7.7980    196.6962    107.4459   8.6912579417e+01   2.0047462666e+01    0.2723819    0.1525992  58.35 0.0009019368    1.912    0.477
        64  -7.0909     67.6683    104.6760   1.1879287885e+02   4.7296028211e+01    0.1438236   0.09969971 -25.69 0.0007050456    1.704    0.413
        65  -7.9168     97.9882     96.9454   1.0776793270e+02   4.4138500824e+01    0.2153519    0.2098871  70.07  0.001030134    1.124    0.110
        66  -7.1493     96.9628     90.0469   1.0612406281e+02   4.5765746858e+01    0.1700644    0.1560387 -33.85 0.0003291816    1.030    0.029
        67  -8.1515    183.5057     77.9220   8.1745684381e+01   2.8670611138e+01    0.2127244    0.1999756  80.73 0.0003753989    1.029    0.028
        68  -9.7808    238.8982     66.8295   7.0421209758e+01   1.7349008420e+01    0.2612131    0.2383793  88.94 0.0004113036    1.127    0.112
        69  -8.3143    243.0565     62.9435   6.9040220198e+01   1.7030737427e+01    0.2042282    0.1799654 -65.04 0.0004218327    1.056    0.053
        70  -8.3928    124.7259     63.1991   9.0261869329e+01   4.5142143955e+01    0.2425165    0.2059849 -63.28 0.0004166392    1.396    0.284
        71  -7.1967    233.3058     56.7006   6.8830095793e+01   2.0164421909e+01    0.1428491   0.09239122 -68.74 0.0002802123    1.592    0.372
        72  -7.5106    180.9886     51.0490   7.4939455525e+01   3.3572943578e+01    0.2193378     0.159001 -74.71 0.0003340835    1.561    0.359
        73  -7.5332    224.0070     49.0000   6.8213131485e+01   2.3442268284e+01      0.22484   0.07346837  65.01 0.0008105664    2.999    0.667
        74 -10.0744    172.9785     41.6822   7.3709127633e+01   3.6854211786e+01    0.4091793    0.3148694  50.63 0.0009895531    1.282    0.220
        75  -7.3161    137.4760     39.5222   7.9769606873e+01   4.5713029957e+01    0.1397303    0.1259717  41.96 3.337928e-05    1.042    0.041
        76  -7.1357     77.7403     38.9736   9.5360694168e+01   5.8053428796e+01    0.1515238    0.1028488 -27.06 0.0002888254    1.420    0.296
        77  -7.4241    110.9757    246.9789   1.3227988407e+02   8.6362695354e+00    0.1485592    0.1256939  70.49  0.000976795    1.079    0.074
        78  -9.1775    120.2842    249.2934   1.3080192649e+02   6.6988979730e+00    0.2596072    0.2179364 -44.17  0.001684437    1.571    0.364
        79  -8.5371    203.1152     12.6200   6.2125113509e+01   3.2987517243e+01    0.1867763    0.1396182  78.01 0.0006127575    1.152    0.132
        80  -8.3707     92.5543    244.8784   1.3548808558e+02   1.1944921599e+01    0.2748431    0.1170622 -66.12  0.001304568    2.595    0.615
        81  -8.5801     88.5048    243.8088   1.3612568970e+02   1.2768551036e+01    0.1982498    0.1444472  57.23 0.0004397034    1.130    0.115
