#   1 NUMBER                 Running object number                                     
#   2 MAG_AUTO               Kron-like elliptical aperture magnitude                    [mag]
#   3 X_IMAGE                Object position along x                                    [pixel]
#   4 Y_IMAGE                Object position along y                                    [pixel]
#   5 X_WORLD                Barycenter position along world x axis                     [deg]
#   6 Y_WORLD                Barycenter position along world y axis                     [deg]
#   7 A_WORLD                Profile RMS along major axis (world units)                 [deg]
#   8 B_WORLD                Profile RMS along minor axis (world units)                 [deg]
#   9 THETA_WORLD            Position angle (CCW/world-x)                               [deg]
#  10 FWHM_WORLD             FWHM assuming a gaussian core                              [deg]
#  11 ELONGATION             A_IMAGE/B_IMAGE                                           
#  12 ELLIPTICITY            1 - B_IMAGE/A_IMAGE                                       
         1 -14.5470    164.8633     46.4275   7.8666020098e+01   3.8249651880e+01     1.899747     1.253353  17.43  0.006650931    2.311    0.567
         2 -14.2002    178.1950     30.9498   7.1985812672e+01   3.6980702557e+01    0.9057376    0.8610262 -64.39  0.003581818    1.120    0.107
         3 -13.5261    182.1933     24.2895   6.9573549376e+01   3.6786796244e+01    0.5763845    0.4594871  79.46  0.001277333    1.145    0.126
         4 -13.2054    190.8902     15.1506   6.5999490465e+01   3.5668557013e+01    0.5262746    0.2730462  78.53  0.002437613    1.897    0.473
         5 -13.5020    197.8315      3.4549   6.2273795646e+01   3.5190814380e+01    0.5757261    0.5548661  65.13  0.003943642    1.241    0.194
         6 -11.4104     55.4953      4.5022   9.1818113046e+01   6.5738602914e+01    0.1162039   0.08978622  10.08 0.0008106758    1.002    0.002
         7 -12.0532     98.8265    186.2234   1.2839893244e+02   2.3269842759e+01    0.3326052    0.2023468 -74.71  0.001577972    1.778    0.438
         8  -9.2840    196.7367    250.6945   1.1841297276e+02  -6.1444746443e+00     0.117801   0.08542363  12.66 0.0001722192    1.525    0.344
         9 -19.6760     46.0090    161.5417   1.3687488135e+02   3.6500999457e+01     19.80483     5.361867 -69.16   0.06866107    3.616    0.723
        10 -12.1318     99.4157    180.8354   1.2742866357e+02   2.4387511122e+01    0.3855215    0.2518344 -67.71  0.001185071    1.512    0.339
        11 -12.2908    105.0083    193.7214   1.2817403970e+02   2.0561494527e+01    0.3090248    0.2525732  53.25  0.001144768    1.165    0.142
        12 -10.5703    157.8975    193.1544   1.1657851948e+02   1.0822016644e+01    0.2155254     0.185181  73.04  0.000327976    1.234    0.189
        13 -11.8827    120.8672    217.4464   1.2827586358e+02   1.2849080692e+01    0.4285772    0.2433755  85.10  0.001750919    2.997    0.666
        14 -12.5646    183.8102    214.8700   1.1507610100e+02   1.7450010324e+00    0.3681267    0.2738795 -33.90  0.001601446    1.517    0.341
        15 -11.8743    207.6589    185.3415   1.0473362278e+02   2.4103366680e+00    0.4011124    0.3512156  -6.38  0.001410456    1.161    0.139
        16 -11.9075    212.0374    181.3376   1.0305447387e+02   2.2730763845e+00    0.3864376    0.2761089  21.22  0.001124798    1.569    0.363
        17 -11.0156    197.9432    176.7350   1.0492346873e+02   5.9490761129e+00    0.4099293    0.2795471 -62.32  0.001671175    1.966    0.491
        18 -10.3254    145.5000    178.4602   1.1656294708e+02   1.6357026128e+01    0.1479549    0.1393958  63.37 8.922511e-05    1.013    0.013
        19 -12.5621    136.2287    171.0130   1.1724166115e+02   1.9834981533e+01    0.6063516    0.2963897  41.57  0.002207988    2.033    0.508
        20 -12.4639    105.0376    202.3295   1.2942461278e+02   1.8694411900e+01    0.4760953    0.2670092  48.44  0.002321541    1.633    0.388
        21 -11.4650    145.4992    168.2220   1.1456099363e+02   1.8588137942e+01    0.2970551    0.2381545  63.76 0.0005764071    1.286    0.222
        22  -9.6530    122.4682    165.5420   1.1940059492e+02   2.3745885622e+01    0.1503957    0.1367195  81.76 0.0002417435    1.049    0.046
        23 -13.3120    109.4726    208.8424   1.2941310586e+02   1.6567922601e+01    0.7757713    0.5855928   0.76  0.003795115    2.537    0.606
        24 -10.3837      6.5615    161.4266   1.4558616714e+02   4.0369768178e+01    0.1529237    0.1392564  32.21 0.0007435281    1.519    0.341
        25 -11.8457    101.9326    157.9641   1.2290586473e+02   2.9251174012e+01    0.4324194    0.3310384 -34.38  0.000495633    1.637    0.389
        26 -11.9667    102.9597    153.4637   1.2180268333e+02   3.0129412649e+01    0.5269937     0.296942  54.63  0.001549975    1.953    0.488
        27 -11.8601    163.4708    155.7397   1.0783406439e+02   1.7529688477e+01    0.3677357    0.3034973 -52.34  0.001338484    1.233    0.189
        28 -10.0829    139.9602    156.3654   1.1340882117e+02   2.2365687482e+01    0.2140727    0.1829824  51.32 0.0004208962    1.151    0.131
        29 -11.8996    133.8485    144.9638   1.1241225752e+02   2.6210706334e+01     1.101337    0.2751479 -54.36  0.002619891    5.468    0.817
        30 -11.0820    174.4955    149.0201   1.0386838766e+02   1.6551402554e+01     0.288846    0.2685798  74.56 0.0008660468    1.116    0.104
        31 -10.6419     89.9655    147.8374   1.2398160594e+02   3.3651478401e+01     0.213025    0.1938636 -88.75  0.000379627    1.038    0.037
        32 -11.7740    144.9513    145.9690   1.0995828941e+02   2.3662511505e+01    0.4304103    0.2940314  78.89  0.001754407    2.119    0.528
        33 -10.8856      6.4900    145.8925   1.4407498936e+02   4.3815685359e+01    0.1892033    0.1627737 -76.98 -1.566081e-05    1.177    0.151
        34 -12.2122    103.7760    207.1824   1.3036637065e+02   1.7878445607e+01    0.5073532    0.2368033  41.45  0.002276157    2.050    0.512
        35 -12.3574    112.0613    140.7231   1.1692245640e+02   3.1473362477e+01    0.5263599    0.3254621 -40.91  0.002300903    1.778    0.438
        36 -12.5348    101.1980    141.0782   1.1977785577e+02   3.3356158635e+01    0.2839062    0.2772549 -81.08 0.0004385037    1.083    0.077
        37 -11.5898     15.5307    136.3562   1.4086933333e+02   4.5257722990e+01    0.2122917    0.1722618 -71.34 0.0004228623    1.080    0.074
        38 -11.6425    117.9931    130.7193   1.1316796862e+02   3.2664675337e+01    0.3773402     0.325642 -15.24 0.0009548453    1.406    0.289
        39 -11.9776    105.9919    128.9232   1.1589267351e+02   3.5345895384e+01     0.630816    0.3021149 -53.15  0.002407674    2.002    0.500
        40 -10.5990      9.7294    214.0927   1.4907548174e+02   2.8924404007e+01    0.1178877   0.06365681  30.86 0.0003586097    2.572    0.611
        41 -11.4122    160.1823    128.7897   1.0232102923e+02   2.4105428652e+01    0.3607396    0.2829041 -30.31  0.001681339    1.410    0.291
        42 -12.1136    135.5386    124.3580   1.0717468464e+02   3.0524165591e+01    0.9719589    0.1505957 -48.64  0.001966895    7.119    0.860
        43 -11.3133    125.0440    127.0545   1.1049050926e+02   3.2100651232e+01    0.2517306     0.190011  85.39  0.001132432    1.717    0.417
        44 -10.6794    112.4217    119.5966   1.1198928272e+02   3.6288207248e+01    0.2521475    0.2466381 -79.91 0.0001731128    1.031    0.030
        45 -10.2096    165.1426    208.1444   1.1770499789e+02   6.4932607812e+00    0.2043695    0.1825337  21.75 0.0002849341    1.194    0.162
        46 -11.3694    168.4497    113.4669   9.6573134517e+01   2.5434740078e+01    0.4206872    0.3070787  81.42 0.0007993991    1.812    0.448
        47 -11.0231    141.2108    126.3456   1.0625509028e+02   2.8861389289e+01    0.3703992    0.2639668  73.51  0.001088535    1.829    0.453
        48 -13.7221     10.7946    206.1708   1.4835697095e+02   3.0427685563e+01    0.4640695    0.3051672  38.10  0.003198497    1.842    0.457
        49 -10.5612    205.3364    110.2341   8.8160319698e+01   1.7324621742e+01     0.320425    0.2149615  47.58 0.0009796749    1.550    0.355
        50 -13.4881    195.4135    195.1229   1.0911902899e+02   3.0355969571e+00     1.037251    0.7808902 -89.03  0.003876978    2.141    0.533
        51 -11.1370    136.3854    197.3172   1.2193799443e+02   1.4127426845e+01    0.3708864    0.2261567  83.60   0.00146747    2.802    0.643
        52 -10.5393    134.5061    102.9230   1.0188691027e+02   3.5409263100e+01    0.2411544    0.1507075 -43.89  0.001030024    1.581    0.368
        53 -12.4523    113.0503    195.7705   1.2673913432e+02   1.8720498502e+01    0.5796418    0.3961746  -5.59  0.002230002    3.813    0.738
        54 -10.5633     85.0725     76.9747   1.0835954686e+02   5.0279447114e+01    0.2033192    0.1909197 -17.54  0.000428712    1.043    0.041
        55 -10.8685    180.2478    193.7901   1.1197262336e+02   6.2657682184e+00    0.3254066    0.2317784 -71.76  0.001525255    2.007    0.502
        56 -10.0332     13.5098     59.9167   1.2789551487e+02   6.1768157934e+01    0.1677221   0.09061395 -55.10 0.0004042806    1.485    0.327
        57 -10.3791      1.3657    249.3446   1.5237375388e+02   2.3058251930e+01   0.09518933   0.06911075  80.81 0.0007684407    1.174    0.148
        58 -10.0012    168.1616    248.1577   1.2336595002e+02  -9.1844531417e-01    0.1672085    0.1325774  60.64 0.0003690232    1.320    0.243
        59 -11.4963    158.6034    246.8337   1.2497929841e+02   9.4052616469e-01    0.2844282    0.1850226  86.55  0.001378994    2.738    0.635
        60 -12.2650     20.9754     36.8430   1.1831348156e+02   6.5377568236e+01    0.3805848    0.1754481  20.72  0.002145964    2.415    0.586
        61 -10.8867    182.4343    242.1958   1.1979454342e+02  -2.4694534121e+00    0.2299793     0.188292  79.14   0.00127586    1.654    0.395
        62 -10.7583    187.5965    221.7866   1.1551315387e+02  -1.2891393421e-01    0.1678725    0.1295545 -57.21 0.0004253349    1.616    0.381
