#   1 NUMBER                 Running object number                                     
#   2 MAG_AUTO               Kron-like elliptical aperture magnitude                    [mag]
#   3 X_IMAGE                Object position along x                                    [pixel]
#   4 Y_IMAGE                Object position along y                                    [pixel]
#   5 X_WORLD                Barycenter position along world x axis                     [deg]
#   6 Y_WORLD                Barycenter position along world y axis                     [deg]
#   7 A_WORLD                Profile RMS along major axis (world units)                 [deg]
#   8 B_WORLD                Profile RMS along minor axis (world units)                 [deg]
#   9 THETA_WORLD            Position angle (CCW/world-x)                               [deg]
#  10 FWHM_WORLD             FWHM assuming a gaussian core                              [deg]
#  11 ELONGATION             A_IMAGE/B_IMAGE                                           
#  12 ELLIPTICITY            1 - B_IMAGE/A_IMAGE                                       
         1 -12.5049    238.7782     21.5693   3.0931935593e+01   2.4984922343e+01    0.6111397    0.2208737 -46.55  0.001990038    2.177    0.541
         2 -11.2717     30.5700     23.7139   7.6226691901e+01   6.8556663910e+01    0.5318102    0.2328183 -24.23   0.00239652    2.750    0.636
         3 -11.7364    248.3518     22.3598   3.0392215753e+01   2.3037027817e+01      0.37299    0.1785816 -55.18 0.0003158025    1.677    0.404
         4 -11.7442    111.7981     19.1392   4.6507986990e+01   5.3899877306e+01    0.3821101    0.3097475  62.95  0.001040535    1.133    0.117
         5 -11.3076    149.9066     18.5043   3.9519988076e+01   4.5040380230e+01    0.2957536    0.2486218 -87.82  0.000562002    1.125    0.111
         6 -11.6605     56.1980     15.2397   6.0999904457e+01   6.5735191163e+01     0.606133    0.3115255 -17.36  0.003086307    2.207    0.547
         7 -10.4282     59.2872     11.3336   5.8059534131e+01   6.5595457686e+01    0.3651813    0.1974694 -23.86  0.001999433    1.958    0.489
         8 -11.4513    155.2891     13.4875   3.7352069629e+01   4.4272137999e+01    0.6325496     0.289129 -24.40  0.002949803    2.647    0.622
         9 -11.0624    101.1032     15.7804   4.7698116602e+01   5.6635933353e+01     0.349125    0.2295952  33.34  0.001251742    1.534    0.348
        10 -10.3458     19.8321     14.3468   7.7406523501e+01   7.1169676230e+01     0.354579    0.1599393 -43.62  0.001838303    2.517    0.603
        11 -11.1774      9.7540     14.7338   8.3312924095e+01   7.2156395037e+01    0.3143043    0.2701672  38.67  0.002116203    1.844    0.458
        12 -11.1062    188.3111      9.3704   3.2569162460e+01   3.7049489776e+01    0.2610565    0.2302648  -9.60  0.001054571    1.556    0.357
        13 -11.0589    185.7129     12.5630   3.3581893628e+01   3.7309968215e+01     0.382268    0.2007882 -45.99  0.001143399    1.822    0.451
        14 -11.2926    182.0621     12.5228   3.3946895733e+01   3.8144841588e+01    0.3595689    0.2844846  70.32   0.00161638    1.202    0.168
        15 -11.2419     24.3392     11.6616   7.3653878021e+01   7.0988055999e+01    0.3682254    0.1940826 -40.02 0.0002205825    2.138    0.532
        16 -12.1911    122.9011     10.9422   4.1565739999e+01   5.2117997919e+01    0.5714244    0.2720326  51.97  0.002794214    1.803    0.445
        17 -11.1435    127.5649      4.3660   3.8670277287e+01   5.1594314778e+01    0.2376528     0.232115  54.69 0.0005445118    1.164    0.141
        18 -11.1817    249.7668     10.3096   2.8061230081e+01   2.4165552336e+01    0.2435893    0.1723024 -51.22  0.001742198    1.238    0.192
        19 -10.5035    216.8652      7.9795   2.9839672828e+01   3.0977626177e+01    0.2736242    0.1852356 -50.13  0.001524962    1.333    0.250
        20 -11.0671    210.3180      8.6887   3.0495601935e+01   3.2288458197e+01    0.2894845     0.224049 -70.15 0.0009982266    1.063    0.059
        21 -10.8601    212.5214      6.5018   2.9860823562e+01   3.2048090635e+01    0.2750985    0.2042879 -57.17  0.001207585    1.197    0.165
        22  -9.9972     47.0053      8.5007   6.1449784851e+01   6.8026497110e+01    0.2732227    0.1722278  35.19  0.001669832    1.343    0.256
        23 -11.3218     14.0842      8.2350   7.7567330779e+01   7.2631961598e+01    0.3464095    0.2164084  23.13  0.002285805    1.471    0.320
        24 -10.4023     13.4799      4.5072   7.5957094497e+01   7.3178622935e+01    0.1752304     0.129317  17.80 0.0007187944    1.270    0.213
        25 -11.2679    227.5438     14.2790   3.0324670621e+01   2.8081106089e+01    0.2696596    0.2009735  -4.27  0.001627481    2.423    0.587
        26 -10.1276     78.2065      6.5506   4.9914464608e+01   6.2364326770e+01    0.2806836    0.1806221  17.61  0.001604973    1.678    0.404
        27 -10.1518    108.3980      6.2065   4.2671723430e+01   5.5848651187e+01    0.2336682     0.166826 -43.70 0.0008659237    1.661    0.398
        28 -10.7053    103.1244      2.2657   4.2312660019e+01   5.7344077661e+01    0.5270436    0.2221895  72.96   0.00224898    2.706    0.630
        29 -10.2851      3.6673      4.3083   8.1837013203e+01   7.4193656019e+01    0.2181485    0.1750737 -25.58  0.001663126    1.367    0.269
        30 -10.2410     39.9891      4.9886   6.2672784553e+01   6.9526573386e+01    0.3143691    0.1498612  49.62 0.0008340253    2.373    0.579
        31 -11.6148     90.3582      2.9292   4.5332028182e+01   6.0098235202e+01    0.3198395    0.2410669  69.97 0.0006603191    1.359    0.264
        32 -10.4119     19.1203      1.9915   7.1382851515e+01   7.2816049222e+01    0.2091919    0.1417791   4.80 0.0008551427    1.204    0.169
        33  -9.1061    199.5003      2.5067   3.0023734662e+01   3.5251076026e+01    0.1205232   0.09460222 -79.75 -4.834064e-05    1.017    0.017
        34 -10.0017     24.8699      1.6571   6.8124398263e+01   7.2103875392e+01    0.1802951    0.1415605  32.03 0.0006623854    1.428    0.300
        35  -9.5607    242.1973      1.3557   2.6868077169e+01   2.6580105831e+01    0.1520318   0.08171158 -85.00 0.0004757476    1.626    0.385
        36  -9.5630     64.9645      1.3486   5.1564936693e+01   6.5433280120e+01    0.1708159   0.09471716  50.38 0.0009585081    1.518    0.341
        37  -9.7031      9.4156      1.4566   7.6721676985e+01   7.4000377893e+01    0.1734786   0.09000678  36.50  0.001018358    2.251    0.556
        38  -9.5251     53.5039     97.0837   9.1336809627e+01   5.1377860434e+01     0.223165    0.1307757 -54.26 0.0005897201    1.562    0.360
        39 -10.5958     29.0553    137.9697   1.0765519720e+02   4.3730627892e+01    0.2319274    0.2273495  35.33 0.0004244327    1.182    0.154
        40  -9.5119    148.0470     96.1288   6.2203473944e+01   3.3647160464e+01    0.2179994    0.2017316  13.85  0.000332193    1.196    0.164
        41 -10.0786     69.2215     95.6157   8.5284467058e+01   4.9498525639e+01    0.2311398    0.2152107 -69.70  0.000535609    1.195    0.164
        42 -10.3989     16.2530     95.0556   1.0487109017e+02   5.5557803584e+01     0.195362    0.1837145 -22.56 0.0004556276    1.170    0.145
        43  -9.3038      1.2769     94.5341   1.1038359651e+02   5.6573149935e+01    0.2172527   0.09289553 -68.20 0.0005784165    1.901    0.474
        44 -10.5875    116.5218     93.4793   6.9557506188e+01   4.1169193006e+01     0.270826     0.248182 -87.24  0.001004053    1.229    0.186
        45  -8.7459     30.2733     94.6452   9.9462288542e+01   5.4522104196e+01    0.1311409    0.1025914  80.95 0.0004200864    1.642    0.391
        46  -9.7766     74.4136     90.9197   8.2139995412e+01   4.9742393408e+01    0.3657489    0.1149589 -42.79  0.001151211    3.230    0.690
        47  -9.4180      8.7861     92.1108   1.0715172754e+02   5.6745827772e+01    0.1797558    0.1230523 -41.14 0.0008082954    1.298    0.230
        48 -10.9279     34.6358     89.8952   9.6687910649e+01   5.5231648072e+01    0.2607115    0.2108075  17.52  0.001512176    1.356    0.263
        49 -10.7539    120.8106     87.5373   6.6628405761e+01   4.1464127293e+01    0.2895545    0.2546468 -70.90 -2.797485e-05    1.280    0.219
        50  -9.4300    139.0683     86.8963   6.1751976101e+01   3.7505874854e+01    0.2213168    0.1976482 -79.48   0.00114691    1.217    0.178
        51  -9.4630    131.4665     86.0491   6.3388539676e+01   3.9393834365e+01    0.2241111    0.1488148 -41.01 0.0004052509    1.509    0.337
        52 -10.3361     28.6943     85.0076   9.7852896284e+01   5.6936130245e+01    0.2503905    0.1909853  15.67 0.0006653402    1.441    0.306
        53  -8.7593     95.4911     84.4842   7.3169019452e+01   4.7340656846e+01    0.1460838    0.1450325 -49.34  0.000102482    1.094    0.086
        54 -11.2628     76.0436     83.1593   7.9270450097e+01   5.1168026349e+01     0.281799     0.266818 -41.83 0.0003497097    1.114    0.102
        55 -11.8285     80.1221     81.0465   7.7199309588e+01   5.0909933354e+01     0.286184    0.2565616 -47.88  0.001580702    1.170    0.145
        56  -9.6767     65.7102     82.0765   8.2666458163e+01   5.3069127305e+01    0.4002587    0.1726192 -55.09  0.001256107    2.590    0.614
        57  -9.5012     22.1413     81.1169   9.9572008320e+01   5.8392494174e+01    0.3051215   0.09023371 -45.85  0.001157816    2.727    0.633
        58  -9.7527    112.8252     81.2099   6.6949340060e+01   4.4444300505e+01    0.2082135    0.2011375  78.99 0.0002825343    1.115    0.103
        59  -9.8579     54.1430     80.5580   8.6587354114e+01   5.5070545510e+01    0.2172272    0.1816061 -53.10 0.0003486326    1.232    0.189
        60  -9.1167     47.8268     80.8321   8.9132190005e+01   5.5829594729e+01    0.1731719    0.1646024 -85.09 0.0004278175    1.290    0.225
        61 -10.5179    104.6989     79.1769   6.8689634282e+01   4.6555663502e+01    0.2807726    0.2734148 -65.70   0.00117459    1.116    0.104
        62  -9.6119    227.9818     78.7217   4.3893943641e+01   1.9166290929e+01    0.1762004      0.15292 -64.92 0.0003375978    1.049    0.047
        63  -9.6475    154.9717     79.3030   5.6013227161e+01   3.5239984351e+01     0.201788    0.1840288  60.18 0.0003126287    1.093    0.085
        64 -11.1255     73.0997     77.0531   7.8423317244e+01   5.2944533821e+01    0.3366374    0.2391652 -32.03 0.0008030953    1.390    0.280
        65 -11.5235     77.7929     75.2664   7.6186132629e+01   5.2504920794e+01    0.4021547    0.2914409  42.57  0.001042239    1.453    0.312
        66 -10.4251     50.6736     76.4301   8.6722665085e+01   5.6427926918e+01     0.315362    0.1364276  26.27  0.001275777    2.556    0.609
        67  -8.9636     36.7164     76.6858   9.2437959114e+01   5.8029138761e+01    0.1411583   0.08891124 -29.21 0.0003306469    1.578    0.366
        68 -10.3030      4.5634     75.5424   1.0561057192e+02   6.0832921797e+01    0.3550532    0.1967567 -19.52  0.001885402    1.955    0.489
        69 -10.2330      1.7530     73.0528   1.0627584860e+02   6.1536732274e+01    0.1958251    0.1629585 -21.82 0.0003996373    1.217    0.179
        70  -9.7581    103.8762     72.7983   6.6917206050e+01   4.7947178186e+01    0.2097543    0.1897115   8.20 0.0002793682    1.123    0.109
        71  -8.9210     25.2583     73.6700   9.6408372686e+01   5.9806171822e+01    0.1183091    0.1008077  87.38 0.0002113846    1.563    0.360
        72  -9.9610     99.3179     64.3064   6.5504144909e+01   5.0435925386e+01    0.2436558    0.1931216 -22.16   0.00030149    1.329    0.247
        73 -11.6479     97.1291     69.0764   6.7758061011e+01   5.0028135198e+01    0.3624072    0.2603516 -42.72  0.001801527    1.432    0.302
        74 -10.5383    100.5673     67.5183   6.6192776056e+01   4.9605351355e+01     0.266959    0.2334051 -60.12 0.0005542116    1.328    0.247
        75 -10.0310     63.8190     70.6208   7.9788751902e+01   5.5754538615e+01     0.275218    0.2167308  36.81   0.00122453    1.351    0.260
        76 -11.8502    137.3058     69.3926   5.7048983309e+01   4.1104969197e+01    0.4236291    0.2472668  48.78 0.0004953078    1.672    0.402
        77 -10.6459     79.8257     69.5718   7.3613820118e+01   5.3264389729e+01     0.244805    0.2291511  -5.32 0.0001477675    1.031    0.030
        78  -9.7489     34.1662     69.9852   9.1593784406e+01   5.9752861332e+01    0.2137738    0.1487674 -29.73 0.0006349552    1.317    0.241
        79  -9.2481     17.8353     70.3901   9.8740931001e+01   6.1132869740e+01    0.1773472    0.1379348 -51.91 0.0006832625    1.152    0.132
        80 -10.7755    155.7041     68.7011   5.2894201437e+01   3.6899452532e+01    0.3131891    0.2293274 -71.29 0.0008089673    1.610    0.379
        81 -11.0352    121.3489     66.5086   6.0057059917e+01   4.5264433427e+01    0.3159599     0.264185 -34.84 0.0001319168    1.235    0.190
        82 -10.1419     89.9781     67.7860   6.9601463228e+01   5.1691080417e+01    0.2224885    0.1972123 -27.73 0.0003007049    1.119    0.106
        83 -10.2032    110.6943     65.4190   6.2565507850e+01   4.7818695851e+01     0.357698      0.25577 -68.36  0.001637448    2.003    0.501
        84 -10.2586     71.0570     64.1356   7.4909039410e+01   5.5837031737e+01    0.3882286      0.21916 -41.69  0.001806639    1.741    0.426
        85  -9.9532      3.4891     64.7930   1.0369582356e+02   6.3272001674e+01    0.2060838    0.1419428  26.64 0.0006797416    1.743    0.426
        86 -10.1558    203.5081     63.9545   4.3743893843e+01   2.6642666009e+01    0.2485793    0.1839019  47.17   0.00106297    1.620    0.383
        87 -10.6979     43.8107     63.3835   8.5448483245e+01   6.0017261870e+01    0.2986057    0.2559535 -87.02  0.001725081    1.738    0.425
        88  -9.4684     32.9786     63.7138   9.0219422232e+01   6.1193347147e+01    0.1796361    0.1559611  -7.31 0.0006315404    1.113    0.101
        89  -9.5260     16.9746     63.0590   9.7168004118e+01   6.2778058160e+01    0.1755115    0.1518791  67.07 0.0007103446    1.632    0.387
        90  -9.5761    102.6869     62.2626   6.3815581412e+01   5.0083845709e+01     0.191115    0.1349498 -25.15 0.0001674217    1.545    0.353
        91 -10.7120    102.7619     58.6248   6.2568580797e+01   5.0679849626e+01    0.4166923    0.2084623  53.75 0.0007554828    2.102    0.524
        92 -11.8313     59.7677     58.8121   7.7350229682e+01   5.8666877529e+01    0.3179271    0.2568932 -42.98 0.0006984663    1.302    0.232
        93 -10.8264      4.0798     59.4660   1.0212800562e+02   6.4381895639e+01    0.2193358    0.1647796 -42.23  0.000353897    1.042    0.041
        94  -9.9887      8.0061     56.9775   9.9637612663e+01   6.4674413283e+01    0.1891658    0.1463039 -37.51  0.001234384    1.019    0.019
        95  -9.1087     50.6010     59.4504   8.1280341665e+01   5.9893439081e+01    0.1334474    0.1166992 -16.98 0.0001454101    1.031    0.030
        96 -11.2388     95.3686     56.8379   6.4162504837e+01   5.2525235405e+01    0.3928972    0.2934022   0.99  0.001986826    1.604    0.376
        97 -10.0455    111.9585     55.6573   5.9007045896e+01   4.9156018761e+01     0.240639    0.2066641 -43.50 0.0003381431    1.247    0.198
        98  -9.9756     25.1212     56.1780   9.1385244409e+01   6.3503803418e+01    0.3330434    0.1504802  33.41  0.001154801    2.487    0.598
        99  -9.9573     81.2320     54.8452   6.8027669649e+01   5.5656958239e+01    0.1948655    0.1906417  49.80 0.0007316571    1.211    0.174
       100  -9.5144     69.0645     55.0324   7.2429338638e+01   5.7826170858e+01    0.1944315    0.1732812  88.79 0.0006115744    1.631    0.387
       101  -9.0103     85.6347     54.7235   6.6510154253e+01   5.4829798058e+01    0.1459403    0.1023151  14.57 0.0006624634    1.673    0.402
       102 -10.1121    162.2438     53.0665   4.7299498184e+01   3.7792351691e+01    0.2056448    0.1916761  31.50  0.001112232    1.240    0.193
       103  -9.9704     55.2608     50.0547   7.5972539920e+01   6.0930171823e+01    0.3843629     0.214244 -38.36  0.001729207    1.730    0.422
       104 -10.3150     58.8552     47.6901   7.3627097116e+01   6.0772632639e+01    0.2540408    0.1761586 -22.87  0.001146981    1.423    0.297
       105 -10.4610    200.5770     55.3363   4.2091153026e+01   2.8585351811e+01    0.2359347    0.2226432 -85.75 0.0006952219    1.145    0.127
       106 -11.1050    212.2382     49.9581   3.9406803296e+01   2.6800588384e+01    0.2562469    0.1969846 -63.27 0.0003826428    1.137    0.120
       107  -9.6946    116.2191     51.1632   5.6405711326e+01   4.8890881792e+01    0.1861371    0.1648561 -83.21 0.0004405036    1.311    0.237
       108 -10.5416    106.1354     50.3194   5.8778040157e+01   5.1263869647e+01    0.3802543    0.2590915  73.59  0.001653686    2.023    0.506
       109 -10.2978      5.4386     49.4315   9.8746452372e+01   6.6372198656e+01    0.3425049    0.1388298 -47.76  0.001725347    1.854    0.461
       110  -8.9304      2.0096     47.7775   9.9973132064e+01   6.6900702814e+01       0.1345   0.09057492   4.09            0    1.545    0.353
       111  -8.8353      1.6225     51.7234   1.0126710361e+02   6.6124079033e+01    0.1310592    0.0673415 -31.18 0.0005076707    1.702    0.412
       112 -10.4921    202.6937     49.8562   4.0525721476e+01   2.8902797637e+01     0.250155    0.1371894  51.69  0.001207813    2.079    0.519
       113  -9.9026     18.0279     50.4796   9.2905208709e+01   6.5259994557e+01    0.2431888    0.1157286  10.29  0.001027051    2.393    0.582
       114  -9.0161    207.6393     49.3200   3.9800497841e+01   2.7889244203e+01    0.1433669    0.0860408 -69.04  0.000704291    1.769    0.435
       115 -10.9350     84.6632     47.4730   6.4195608315e+01   5.6178401879e+01    0.3554305    0.2785533 -22.45  0.001991106    1.304    0.233
       116 -10.6682     25.8188     48.6296   8.8541686360e+01   6.4905078496e+01    0.3086174    0.1816492   7.83 0.0006998554    1.818    0.450
       117  -9.4502    121.5602     48.4519   5.4202077601e+01   4.8069818519e+01    0.1383643    0.1308045  60.69 0.0001155444    1.044    0.043
       118  -9.0688     95.2434     48.6291   6.1308702128e+01   5.3851188207e+01    0.1321111    0.1077604 -64.66 0.0004802171    1.620    0.383
       119  -9.6910    233.2681     48.0764   3.6758114431e+01   2.2679089153e+01    0.1775672    0.1334439 -57.16 0.0003983845    1.099    0.090
       120  -9.2964    170.3315     47.2971   4.4393171798e+01   3.6699154057e+01    0.1349531    0.1033487  35.10 0.0003450701    1.641    0.391
       121  -9.0544    151.3110     47.2909   4.7613978819e+01   4.1222426037e+01     0.137516    0.1041882  32.84 0.0003117585    1.585    0.369
       122 -10.6916    136.8141     46.6067   5.0230060606e+01   4.4765933119e+01    0.2371188    0.2297234  77.39 0.0003577797    1.044    0.042
       123  -9.0890     63.5212     47.5216   7.1732683466e+01   6.0037654555e+01    0.1341047    0.1183917   3.13 0.0008097964    1.024    0.023
       124  -9.2578     46.0654     47.1505   7.8748854687e+01   6.2769755402e+01    0.1548378    0.1461357   8.59 0.0003067713    1.258    0.205
       125  -9.8692    167.0294     43.6465   4.3927117408e+01   3.7980396968e+01    0.2269941    0.1804256 -59.32  0.001284452    1.247    0.198
       126 -10.5541    141.6026     43.5465   4.8337196974e+01   4.4050062123e+01    0.3614478     0.208764  49.21  0.001218439    1.672    0.402
       127 -10.6758    108.4628     43.3171   5.5738286502e+01   5.1764610575e+01    0.3037932    0.2262248  54.08 0.0009002854    1.271    0.213
       128 -10.4300    235.8587     43.1070   3.5485216320e+01   2.2837687517e+01    0.2036755    0.1384534 -64.75 0.0009652529    1.255    0.203
       129 -10.3556     56.5344     41.8257   7.2278042799e+01   6.2098868465e+01    0.2500652    0.1652334  26.72 0.0002676798    1.442    0.307
       130 -10.6550    247.9547     41.3606   3.4070118765e+01   2.0714149637e+01    0.2735031     0.137533  71.92  0.001511951    2.081    0.519
       131  -9.5249     97.9591     41.0178   5.7778878602e+01   5.4377971064e+01     0.202175    0.1823361  29.95  0.000426898    1.015    0.014
       132 -10.7240    228.6710     37.8003   3.5054404017e+01   2.4993024034e+01    0.2548036     0.155865 -88.88  0.001448068    1.634    0.388
       133  -9.2923    148.8372     38.1484   4.5394202308e+01   4.3034634385e+01    0.1732653    0.1550684  34.28 0.0005133091    1.254    0.203
       134  -9.3458    134.4955     38.4550   4.8173919767e+01   4.6406141531e+01    0.1371744    0.1243978  57.80  7.59277e-05    1.034    0.032
       135 -10.8157     62.9575     37.7307   6.8103779262e+01   6.1660750509e+01    0.2742225     0.201802  45.56  0.001267472    1.477    0.323
       136  -9.3281     35.7943     38.4424   7.9986033575e+01   6.5603682829e+01    0.1640955    0.1074075  11.88 0.0003397622    1.504    0.335
       137  -8.9500     32.3463     38.2882   8.1557558679e+01   6.6049022053e+01    0.1874302   0.08901291 -25.30 0.0006606916    2.440    0.590
       138  -9.1067     34.9468     35.2090   7.9072069187e+01   6.6240942880e+01    0.1762454    0.1054008  15.84 0.0004027948    1.686    0.407
       139  -9.3738      7.2572     38.0331   9.4189863282e+01   6.8454719555e+01    0.1534854   0.08521958 -48.18 0.0006646017    1.532    0.347
       140 -10.0489    194.8356     36.8792   3.8402847775e+01   3.2415566664e+01     0.346958    0.1923439 -68.38  0.001666056    2.014    0.504
       141 -10.0853    194.4939     33.5214   3.7640910521e+01   3.2919394853e+01    0.2168084     0.158567  87.50 0.0009295614    1.259    0.206
       142  -9.7965    170.4677     36.9315   4.1607487578e+01   3.8047079699e+01    0.2255968    0.1580817 -44.25 0.0006307203    1.435    0.303
       143  -9.9033    127.9823     36.9618   4.9034919380e+01   4.8130315835e+01    0.2132667    0.1919244  70.70 0.0006484867    1.074    0.069
       144 -10.4722     43.7659     34.9515   7.4907521930e+01   6.5101174989e+01    0.2064451    0.1610372  20.19 0.0004721315    1.189    0.159
       145  -9.0663    106.5629     34.4967   5.3137510677e+01   5.3352442980e+01    0.1350214    0.1212386  39.16 4.694935e-05    1.020    0.020
       146 -10.9902    239.6804     32.3873   3.2990731106e+01   2.3479451184e+01    0.3708707    0.2230426 -81.18  0.002201475    1.600    0.375
       147 -11.2501    237.4921     27.0177   3.2102233875e+01   2.4580969058e+01     0.287103    0.2134189  61.60 0.0009054652    1.615    0.381
       148 -11.4802     76.2834    220.1565   1.0569975975e+02   1.7566065628e+01    0.6678218    0.4208917 -80.68   0.00304151    1.753    0.430
       149 -10.7430     81.1809     26.6793   5.7301986655e+01   5.9709023630e+01    0.3116325    0.2566809 -54.84  0.001150855    1.624    0.384
       150  -9.7143      9.4933     31.4968   9.0610123603e+01   6.9467155466e+01    0.1204677    0.0914208 -22.03 -0.0001379563    1.013    0.013
       151  -9.0597    124.5454     30.4971   4.7655192717e+01   4.9721334940e+01    0.1344721    0.1204168  53.67 6.611298e-05    1.027    0.026
       152 -10.9189     47.3148     28.6600   7.0662356772e+01   6.5510021142e+01    0.2832522    0.2074656  16.29  0.001738289    1.217    0.179
       153  -9.5481    216.0604     28.7031   3.4298414162e+01   2.8780919833e+01    0.1752491    0.1385555 -86.54 0.0006720271    1.113    0.101
       154  -9.5489    201.1971     29.1951   3.5886673813e+01   3.1953201004e+01    0.1772602    0.1237485 -73.60 0.0003683477    1.315    0.239
       155 -10.2786    108.9696     29.4859   5.0776919364e+01   5.3418479830e+01    0.3738919    0.1195403  57.43    0.0013821    2.805    0.644
       156 -10.9830     15.1315     28.5659   8.6380886868e+01   6.9487556106e+01    0.2781481    0.1991467  15.03  0.001116531    1.366    0.268
       157 -10.3054    184.0195     26.3044   3.7110741250e+01   3.6183203565e+01    0.2830386    0.1943295  65.48  0.001166648    1.372    0.271
       158 -12.0805     68.0387    217.6880   1.0732211528e+02   1.9249478512e+01    0.7270878    0.5602442  69.03  0.004219075    1.227    0.185
       159 -10.4035     28.0639     19.1769   7.5387621851e+01   6.9516648454e+01    0.2798849    0.1738725   9.64    0.0016642    1.544    0.352
       160  -9.9804      2.4862     26.5886   9.2641182962e+01   7.0830481830e+01    0.3518709    0.1145244 -48.28  0.001696693    2.426    0.588
       161  -9.7123      1.6055     21.2305   9.1017392758e+01   7.1797677495e+01    0.2318503    0.1357821 -38.41  0.001478197    1.377    0.274
       162  -9.1320     34.9076     25.8899   7.5090766149e+01   6.7678660827e+01    0.1489997    0.1345747   0.92 0.0004354329    1.279    0.218
       163  -9.3326    155.3410    214.6927   8.6683494019e+01   6.4381969862e+00    0.1374998    0.1082257  64.51 0.0005609444    1.687    0.407
       164 -10.9058    249.5156     16.9779   2.9306124191e+01   2.3451874601e+01     0.288066    0.1503806  50.64  0.001537122    3.064    0.674
       165 -10.9590    226.5560     23.7893   3.2336051554e+01   2.7180283672e+01    0.2662387    0.2535146  51.26  0.001943932    1.483    0.326
       166  -9.1623    121.6405     25.6824   4.6667673848e+01   5.0944666004e+01    0.1429061    0.0900144  35.10 0.0004010971    1.760    0.432
       167  -9.7207     98.5326     23.8161   5.1302743165e+01   5.6378198679e+01    0.1998896    0.1719396  78.13 0.0007014378    1.338    0.253
       168  -9.8768    164.0539     22.5235   3.8647559525e+01   4.1268012138e+01    0.2012165    0.1693474  50.61 0.0009043826    1.291    0.225
       169  -9.6406    142.0116     21.3131   4.1563463422e+01   4.6619498588e+01    0.1907285    0.1500981  66.66 0.0007428812    1.117    0.105
       170  -9.5131      1.1493    184.7659   1.1992925750e+02   3.4286640329e+01    0.3098544   0.06380696 -74.11  0.001080374    3.670    0.728
       171 -10.2833    237.5984    179.7279   6.3634867285e+01  -1.2867356976e-01     0.200612    0.1722487  65.81   0.00121623    1.786    0.440
       172  -9.2929     69.3901     20.2348   5.8463257247e+01   6.2765198074e+01    0.1583503    0.1150646 -33.04 0.0009072365    1.558    0.358
       173  -9.3052    119.6575     19.1042   4.4875444444e+01   5.2096967088e+01    0.1676541    0.1210807  -1.43 0.0006671825    1.740    0.425
       174  -9.5640      7.2982    168.6897   1.1720675173e+02   3.7730850117e+01    0.1332365   0.08133663  68.27 0.0002445832    1.598    0.374
       175 -12.6239    216.3355    157.2667   6.2827086370e+01   7.3057166397e+00    0.6170789     0.388458 -55.46  0.002922153    1.880    0.468
       176 -10.1186     36.9887     17.7312   7.0337847902e+01   6.8510517857e+01     0.363134    0.2069991   4.22  0.001895085    2.101    0.524
       177 -10.8767      2.5688    153.8728   1.1713738095e+02   4.1770314985e+01    0.2143867    0.1756153  49.03 0.0005379584    1.338    0.252
       178  -9.1194     44.1680     18.3902   6.7393216883e+01   6.7357029677e+01    0.1575101    0.1059804  42.98 0.0007475709    1.603    0.376
       179 -15.0469    221.3246    133.1250   5.6798705023e+01   1.0937936481e+01     3.005581     2.033581  31.17   0.01519663    1.868    0.465
       180  -9.1265     77.5381     16.5430   5.4287371386e+01   6.1564210914e+01    0.1271353    0.1069874  32.21 3.979974e-05    1.003    0.003
       181 -14.2517    220.8519    115.4498   5.3003033901e+01   1.4272058287e+01     2.001247     1.465668   9.15  0.009863176    2.132    0.531
       182 -10.0494     21.0245    142.0099   1.1063044225e+02   4.3394684479e+01    0.2042233    0.1830369 -73.72  0.001266458    1.062    0.059
       183  -9.6995     15.9542     13.3474   7.9071003249e+01   7.1736375759e+01    0.2061647     0.127964   3.39 0.0005617489    1.475    0.322
       184 -10.9216     15.9486    129.2346   1.1049940932e+02   4.7067819106e+01    0.3707016     0.201681 -77.67 0.0007428752    1.686    0.407
       185 -11.5280     11.9472    129.0052   1.1172018788e+02   4.7414706722e+01    0.4680567    0.2483362  88.09  0.002146548    2.115    0.527
       186  -9.6963     13.2076    125.0472   1.1079718656e+02   4.8329996406e+01    0.2007094    0.1673405  86.29  0.000396467    1.207    0.171
       187  -9.5215     85.9348     14.4656   5.1022053430e+01   6.0042139407e+01    0.1749412    0.1098187  82.52 0.0008086996    2.685    0.628
       188  -9.8655     33.0123     13.7324   7.0300341719e+01   6.9578275874e+01    0.1701389    0.1278809  17.55 0.0008990674    1.126    0.112
       189 -10.9825     15.1813    121.8674   1.0971512483e+02   4.8994636259e+01     0.662686    0.2494409  17.53  0.001552338    3.228    0.690
       190  -8.8961     64.6863    126.7580   9.4334724621e+01   4.2524829185e+01    0.1438124    0.1105975 -23.15 0.0001946579    1.508    0.337
       191  -9.5031     47.3776    126.5083   9.9926138463e+01   4.4796908165e+01    0.2747108    0.1452628  26.00  0.001196899    2.116    0.528
       192 -10.7800     24.2795    125.6184   1.0731839564e+02   4.7329989296e+01     0.244807    0.2110138 -81.01 0.0003351434    1.112    0.101
       193  -9.7308     30.8794    124.1694   1.0493065313e+02   4.7116475642e+01    0.1977055     0.140232 -46.61 0.0004613213    1.322    0.243
       194 -10.7775      2.5974    142.6630   1.1606142801e+02   4.4582065616e+01    0.3038083    0.1936591 -76.95     0.001126    1.281    0.219
       195  -9.6286    119.1180    122.1161   7.6608132764e+01   3.4229613724e+01    0.2233378    0.2033291 -13.44            0    1.177    0.150
       196  -9.5805     93.3105     10.4251   4.7536639672e+01   5.8839456441e+01    0.1667583    0.1118931  68.45 0.0007163725    1.548    0.354
       197 -10.0172     97.7754    117.7901   8.1752484664e+01   3.9391916797e+01    0.2598455    0.2053462  19.83  0.001182024    1.426    0.299
       198  -9.6656     71.0398    117.1693   9.0125786096e+01   4.4029644711e+01     0.236287    0.1921507 -24.95 0.0009959418    1.326    0.246
       199  -9.9201     27.0805    116.3134   1.0486577548e+02   4.9457004183e+01    0.2210948    0.1559746 -28.83  0.001172131    1.558    0.358
       200 -10.6046      3.0451    111.7104   1.1230063643e+02   5.2302899322e+01    0.3254194    0.2120534  32.03  0.001237873    1.817    0.450
       201 -10.7955     78.8806     31.1302   5.9808965808e+01   5.9619262721e+01    0.2436024    0.1803026 -15.37 0.0005932925    1.418    0.295
       202 -10.2864      6.3963    108.7163   1.1073745216e+02   5.2853216008e+01    0.2586239    0.1469761 -85.88  0.001200308    1.858    0.462
       203 -10.0736    129.0471    109.1287   7.0495720002e+01   3.5121848758e+01    0.2246851    0.2198231 -35.05 0.0003185081    1.009    0.009
       204  -9.5639    100.8169    109.1913   7.8584970112e+01   4.0860671681e+01     0.228385    0.2131558  78.75   0.00106396    1.190    0.160
       205  -9.6984     11.6425    114.7020   1.0983852414e+02   5.1040979453e+01    0.2134801    0.1542132 -19.01 0.0006988835    1.616    0.381
       206 -10.1727     11.7318    107.5724   1.0871088699e+02   5.2807584745e+01    0.2581414    0.1872508 -88.39  0.001461652    1.451    0.311
       207 -10.6381     79.8939    103.5554   8.3766315088e+01   4.5933200627e+01    0.5186837    0.3065104   9.24  0.001214627    2.826    0.646
       208 -10.1061     28.4167    141.4468   1.0834253253e+02   4.2890326266e+01    0.2299195     0.186623  79.10 7.883573e-05    1.251    0.200
       209 -10.4326      8.4715    103.1281   1.0915060378e+02   5.4103515418e+01    0.2021249    0.1860821   5.02 0.0007179366    1.286    0.222
       210 -10.0423     45.4425    101.9421   9.5463601949e+01   5.1191454691e+01    0.2073186    0.1940951  44.76  0.001224014    1.220    0.180
       211  -9.3480     38.6625     99.2704   9.7344784648e+01   5.2584091755e+01     0.132436    0.1053933  65.40  0.000423093    1.600    0.375
       212  -9.3909     97.0556     98.3181   7.6752813072e+01   4.4060150498e+01    0.2042867    0.1958302  33.35 0.0003600023    1.076    0.070
