#   1 NUMBER                 Running object number                                     
#   2 MAG_AUTO               Kron-like elliptical aperture magnitude                    [mag]
#   3 X_IMAGE                Object position along x                                    [pixel]
#   4 Y_IMAGE                Object position along y                                    [pixel]
#   5 X_WORLD                Barycenter position along world x axis                     [deg]
#   6 Y_WORLD                Barycenter position along world y axis                     [deg]
#   7 A_WORLD                Profile RMS along major axis (world units)                 [deg]
#   8 B_WORLD                Profile RMS along minor axis (world units)                 [deg]
#   9 THETA_WORLD            Position angle (CCW/world-x)                               [deg]
#  10 FWHM_WORLD             FWHM assuming a gaussian core                              [deg]
#  11 ELONGATION             A_IMAGE/B_IMAGE                                           
#  12 ELLIPTICITY            1 - B_IMAGE/A_IMAGE                                       
         1 -13.5056      9.2664     49.3595   9.8352015943e+01   6.5849475034e+01    0.4346028    0.3250273 -31.56  0.001191605    1.053    0.051
         2 -13.1535     22.9020     54.8329   9.3448691784e+01   6.3740055352e+01     1.308381    0.8863283 -75.16  0.006877181    2.323    0.569
         3 -12.1163    215.9410     11.9536   3.1015244718e+01   3.0531658884e+01    0.4739759    0.2908891  45.72  0.001318333    2.304    0.566
         4 -13.0397    192.8846      5.4461   3.1579177267e+01   3.6234981358e+01     1.071695    0.5006976 -83.43  0.002807526    2.396    0.583
         5 -11.4492     65.0426     10.5104   5.6960076268e+01   6.4606612846e+01    0.3540003    0.1804645  41.73  0.001066524    1.628    0.386
         6 -10.7272     36.6496     11.1074   6.8952383367e+01   6.9304041283e+01    0.1841494    0.1371464  26.96 0.0003559306    1.241    0.194
         7 -10.8650    114.7269      7.2651   4.2574598238e+01   5.4304084457e+01    0.2208941    0.1740037  52.05 0.0002269768    1.077    0.071
         8 -10.7302    127.5871      5.8496   3.9787440696e+01   5.1427072549e+01    0.3093241    0.1388566  56.72  0.001204134    1.788    0.441
         9 -11.5702     66.7790      2.9873   5.2979394887e+01   6.4961876529e+01    0.4226893    0.2464317  68.07  0.002125921    2.476    0.596
        10  -9.9785    127.3174    227.6456   9.5670639412e+01   8.8979591445e+00    0.1390693    0.1001296  63.90 0.0007046144    1.746    0.427
        11 -10.9162    225.7755    250.1633   7.8755873340e+01  -9.0256703853e+00    0.5745848    0.1388439  29.33  0.002089282    4.255    0.765
        12 -11.5989     14.1353    249.7988   1.2175163969e+02   1.9166586775e+01    0.2670601    0.1269378  37.69  0.001569365    1.837    0.456
        13 -10.2710     50.2335    227.1540   1.1296590414e+02   1.9859068942e+01    0.2680473    0.1189319  54.09  0.001243485    2.158    0.537
        14 -11.5667    150.0312    222.9365   8.9839790490e+01   6.2298759345e+00    0.4556985    0.3538614 -81.07  0.002406565    1.943    0.485
        15 -11.2671     35.6632    223.1282   1.1578074258e+02   2.2405689436e+01    0.2837937    0.1914331  87.42  0.001059361    1.378    0.275
        16  -9.6096     97.6795    221.2902   1.0161302205e+02   1.4728080933e+01    0.1401408    0.0946718  60.51 0.0005769435    1.603    0.376
        17 -11.6543    238.2995    214.1318   7.0326294334e+01  -5.4261968534e+00    0.6697527    0.2595177 -50.18  0.002168706    5.882    0.830
        18 -10.2115    192.5881    209.8123   7.8362663939e+01   1.8785876481e+00    0.1802674    0.1276339 -49.38 0.0009474833    1.688    0.408
        19 -11.1068    179.9379    216.6875   8.2247768440e+01   2.6369701285e+00    0.2553461      0.20357 -44.97  0.001460418    1.429    0.300
        20 -11.0013     86.9367    207.0841   1.0231446109e+02   1.9440321602e+01    0.3735708     0.255491 -40.80  0.001811999    1.764    0.433
        21 -10.2425     18.1644    203.1904   1.1810911409e+02   2.8650340020e+01    0.1849434    0.1207955  66.82  0.001085984    1.367    0.269
        22 -10.2836     79.9039    200.7927   1.0320860822e+02   2.1903510091e+01    0.2779005    0.1709864  77.77  0.001239146    2.138    0.532
        23 -11.6366      3.7836    196.8409   1.2086398985e+02   3.1362825457e+01    0.2986017    0.1892375  67.84 0.0008471444    1.384    0.277
        24 -10.2058    112.6483    197.3286   9.4557131113e+01   1.7679026092e+01    0.1539208    0.1080635  65.71 0.0001304907    1.769    0.435
        25 -11.5210    162.6135    194.2008   8.2007278355e+01   9.8189681842e+00    0.5368643    0.2917563  45.94  0.002297065    2.001    0.500
        26  -9.5349    154.5453    212.4552   8.7104278883e+01   7.5272234546e+00    0.1409146    0.1256947  13.29 0.0001852434    1.023    0.023
        27 -10.6070     65.8871    191.6255   1.0553324804e+02   2.6007456944e+01    0.3547001    0.1419749 -61.79  0.001425529    2.373    0.579
        28  -9.6709    133.0000    194.9862   8.9152994300e+01   1.4788735980e+01    0.2347754   0.08399145 -52.13 0.0008023603    2.942    0.660
        29 -10.6866     45.7184    194.4250   1.1088595369e+02   2.7830304034e+01    0.2555592    0.1126316  35.93  0.001142045    2.142    0.533
        30 -10.1675     86.5096    188.0407   9.9748137355e+01   2.3961435154e+01    0.2220997    0.1402982 -63.78   0.00103931    1.613    0.380
        31 -10.3782    183.4801    184.5025   7.5482031509e+01   8.1206249819e+00    0.2514514    0.1362801 -53.78  0.001031658    2.313    0.568
        32 -12.1555     44.3656    181.8387   1.0985119605e+02   3.1036338500e+01    0.4054474     0.220124 -87.17  0.001836797    2.030    0.507
        33 -11.8342     63.5841    179.0792   1.0447859933e+02   2.9380288669e+01    0.4967928    0.3351074 -73.82   0.00249422    1.467    0.318
        34  -9.8596    210.6860    181.6703   6.9327082300e+01   4.0413639540e+00    0.1448709   0.09881262  -7.26 0.0007044535    1.675    0.403
        35 -10.7261    147.4709    180.0255   8.2853442410e+01   1.5517642617e+01    0.2322478    0.1476369 -48.18 0.0007435463    1.611    0.379
        36 -12.2434     37.4637    177.3324   1.1112757800e+02   3.2899994041e+01    0.4611949    0.2088694 -63.28  0.002078519    1.963    0.490
        37 -10.4709    191.8870    177.3910   7.2260461723e+01   8.0371706951e+00     0.349925    0.1885397 -49.92  0.001493902    2.067    0.516
        38  -9.8888    217.6109    176.1970   6.6903747447e+01   3.8976325066e+00    0.2053081    0.1146148 -30.05 0.0009536599    1.727    0.421
        39 -11.4847     11.8030    172.9685   1.1723846704e+02   3.6348873889e+01    0.4601113     0.190653 -72.94  0.002131657    2.019    0.505
        40 -10.1699    159.3903    175.2537   7.9052467793e+01   1.4365262649e+01    0.2110317    0.1432223 -56.36 0.0009495033    1.693    0.409
        41 -10.2141      3.3314    174.6586   1.1945394016e+02   3.6591660024e+01     0.135005   0.07537335  65.35 0.0007051341    1.748    0.428
        42 -10.3080    176.0054    171.7374   7.4523268439e+01   1.2029700033e+01    0.2808081    0.1911215 -54.24  0.001298285    1.682    0.406
        43 -11.6217     44.8062    170.8654   1.0843000843e+02   3.3714408885e+01    0.4884044    0.1890845 -74.10  0.001836046    2.713    0.631
        44 -10.8979     47.2019    164.9678   1.0701630511e+02   3.4931502714e+01    0.3022881    0.2464805   2.84   0.00142815    1.525    0.344
        45 -10.4398    121.6819    169.6905   8.7335325379e+01   2.2563367763e+01    0.3099358    0.1955808 -78.58  0.001178376    2.556    0.609
        46 -12.0026     28.6520    167.4262   1.1235738282e+02   3.6243780270e+01     0.350613    0.2791417 -11.55  0.001524205    1.650    0.394
        47 -10.6862     93.4848    160.7988   9.3303242705e+01   2.9578835732e+01    0.3756249     0.244133  74.46  0.001515575    2.285    0.562
        48 -10.6598     79.6331    163.7197   9.7726898789e+01   3.0996200070e+01    0.3949091    0.2188038  85.90  0.001328342    3.443    0.710
        49 -11.1665     97.4905    164.7386   9.2917649286e+01   2.7943759043e+01    0.5387042    0.2839347  28.58  0.002142093    2.083    0.520
        50 -10.7107     31.6844    160.5452   1.1075336474e+02   3.7680830227e+01    0.2477178    0.1496472  83.01  0.001192035    1.806    0.446
        51 -12.3115    118.8547    157.7523   8.5684090195e+01   2.5928885930e+01     0.623511    0.3429748  35.92  0.001283824    1.827    0.453
        52 -11.2729    167.7068    156.3278   7.3097673110e+01   1.6843446899e+01     0.465001    0.3853691 -69.40  0.002304569    1.494    0.330
        53 -10.4507    125.5380    155.4227   8.3397688364e+01   2.5244277522e+01    0.3217306    0.2098226 -31.69  0.001332843    1.799    0.444
        54 -10.7385    219.1542    156.5519   6.2574044223e+01   7.2036132832e+00    0.2655837    0.2466689 -11.01 0.0008545084    1.087    0.080
        55 -10.1413     81.3283    154.6670   9.5642269966e+01   3.3033740561e+01    0.1578243    0.1135302  70.84 0.0007051774    1.718    0.418
        56 -11.1284    243.0116    151.9809   5.7562279300e+01   4.0447865515e+00    0.2132444    0.1792816 -28.82  0.001091929    1.014    0.014
        57 -10.8414    189.7410    149.5175   6.6765002509e+01   1.3957156796e+01     0.329458    0.1756324 -53.23  0.001307601    2.209    0.547
        58 -11.4480    108.1160    146.2360   8.6221894801e+01   3.0685775117e+01    0.7608427    0.3920452  62.04  0.002270003    3.980    0.749
        59 -10.1946     39.1890    147.7846   1.0694252250e+02   4.0179568907e+01    0.2460058    0.1250273  64.76 0.0009535146    2.829    0.646
        60 -10.5995    149.0542    145.8227   7.5187955940e+01   2.2864649828e+01    0.3451879    0.2455476  86.73  0.001366976    2.398    0.583
        61 -10.7539     55.1965    145.2041   1.0174229041e+02   3.9044000573e+01    0.3751083    0.2098359  79.27  0.001405899    2.910    0.656
        62  -9.5292    250.5114    144.5436   5.4899684132e+01   4.1149103198e+00     0.130568    0.1076065 -32.23  0.000322487    1.007    0.007
        63 -10.7872     87.7036    143.7093   9.1640829927e+01   3.4810706698e+01    0.3106131    0.1914459 -82.62  0.001178326    2.490    0.598
        64 -10.3185    100.6639    143.3665   8.7747034236e+01   3.2717476146e+01    0.3277387    0.1725398  47.54  0.001258605    2.098    0.523
        65 -10.5472    182.2546    142.1426   6.6675033572e+01   1.6927496603e+01    0.2766522    0.2039647  75.62  0.001133433    2.044    0.511
        66 -11.1871     22.0903    139.4746   1.1091202652e+02   4.3866170848e+01    0.3682904    0.2974443  -5.10  0.001187537    1.513    0.339
        67 -10.3967      1.3511    136.7422   1.1671041068e+02   4.5980766237e+01    0.1852286   0.09173388 -65.87 0.0005577957    1.599    0.375
        68 -10.5063     82.6062    131.7783   9.0677770818e+01   3.8627467337e+01    0.2140539     0.144175 -67.59  0.000941417    1.636    0.389
        69 -10.0328    143.3187    131.6608   7.3280039831e+01   2.7224876454e+01    0.1605986    0.1276047 -89.79 0.0007049442    1.710    0.415
        70 -11.5685     98.3044    126.9525   8.4738940542e+01   3.7173936562e+01    0.5716847    0.3849593 -81.94  0.001966039    2.309    0.567
        71 -10.8310     59.2173    124.5950   9.6664578032e+01   4.3804416296e+01    0.3984038    0.2493881  87.32  0.001619336    2.478    0.596
        72  -9.9840    117.3254    125.6384   7.8811678485e+01   3.3907513458e+01    0.1638274    0.1271552  85.20 0.0007041528    1.787    0.441
        73 -11.5098     43.4992    123.7154   1.0169461227e+02   4.5875446923e+01    0.4370284    0.2899093  86.67  0.001840907    1.935    0.483
        74 -10.5165    189.3443    124.0971   6.1007066326e+01   1.9100455842e+01    0.2669656    0.2219482  59.10 0.0008010892    1.337    0.252
        75 -11.0068     28.2668    122.5551   1.0653623687e+02   4.7631126881e+01    0.2981678    0.1573313 -82.79  0.001284754    2.226    0.551
        76 -10.2675    141.3240    118.9878   7.0620192551e+01   3.0457349343e+01    0.2610669    0.1259731 -62.74 0.0007051065    4.339    0.770
        77 -10.4114      3.3180    118.6401   1.1410448582e+02   5.0335841178e+01    0.1315859   0.08612912  69.41 0.0007043328    1.762    0.432
        78 -11.0746    108.5587    114.0617   7.8426181877e+01   3.8323764610e+01    0.6649623    0.3200094 -59.93  0.002227962    2.869    0.651
        79 -10.3923     72.5671    115.2462   9.0172207082e+01   4.4278653167e+01    0.3720662    0.1957137  15.31  0.001362931    2.793    0.642
        80  -9.8616    185.4011    114.1463   5.9403835475e+01   2.1875278807e+01    0.2161555      0.13242 -50.68 0.0008721477    1.669    0.401
        81 -11.2033     92.4788    113.1918   8.3160855623e+01   4.1519128600e+01    0.4416278    0.2744994 -69.83  0.001735309    2.291    0.563
        82 -11.0537     78.6854    112.4988   8.7471272942e+01   4.4003362251e+01    0.5518322    0.3115596 -78.46  0.001780263    3.773    0.735
        83 -11.4150     13.9016    109.5473   1.0932497949e+02   5.1947828982e+01    0.5975549    0.2577283 -73.85  0.002590666    2.219    0.549
        84 -11.1644    142.9710    111.4850   6.8250393588e+01   3.1719952346e+01    0.2460268    0.1544123  45.58    0.0010388    1.609    0.379
        85 -11.5326    122.6852    107.9617   7.2706334258e+01   3.6839599130e+01    0.3659218    0.2854022 -15.90  0.001690141    1.516    0.340
        86 -11.0816    167.8690    105.1036   6.0763479988e+01   2.7490582108e+01    0.2689987    0.2393305 -58.48  0.000464505    1.146    0.127
        87 -11.4617    140.4745    105.6779   6.7334629901e+01   3.3493409455e+01    0.3488128    0.2564077 -81.71   0.00147833    2.009    0.502
        88  -9.7714     56.6643    106.2966   9.3542946757e+01   4.8669882731e+01    0.1418986    0.1119086  68.45 0.0003219586    1.650    0.394
        89 -11.9824     63.9843    102.1690   8.9943700665e+01   4.8679728345e+01    0.4307215    0.3080728 -65.46   0.00154151    1.548    0.354
        90 -11.6579     44.9684    101.9757   9.6760883740e+01   5.1109040610e+01    0.5660387    0.3150153  72.13  0.001849466    4.614    0.783
        91 -10.7721      6.8450    102.8910   1.1076585572e+02   5.3989230806e+01    0.3673181    0.1717031 -82.85  0.001611596    2.435    0.589
        92 -12.4644    110.5624     99.6029   7.3899679388e+01   4.1167770975e+01    0.9429879    0.6356046  79.93  0.003520336    2.845    0.648
        93 -10.9996     21.7571    101.3168   1.0513694399e+02   5.3411299977e+01    0.4404491    0.2089595  68.44  0.001316951    5.988    0.833
        94  -9.9325    160.6530    101.3287   6.1361177134e+01   2.9854977625e+01    0.1594759    0.1210908 -81.35 0.0007049789    1.756    0.431
        95 -10.2684     81.9791    100.4907   8.3258708351e+01   4.6297296174e+01    0.2076223    0.1255658  57.47 0.0008091072    2.437    0.590
        96 -10.9516     94.5952     95.5482   7.7703975135e+01   4.5169692353e+01    0.4529958    0.1447297 -47.48  0.001427168    3.099    0.677
        97 -11.6683    123.6828     92.0209   6.7962335219e+01   3.9996871082e+01    0.4779671    0.2412297 -43.71  0.001866841    2.002    0.500
        98 -11.0928     34.3417     89.2820   9.7850372988e+01   5.5215203309e+01     0.611553    0.2441175 -69.81   0.00209509    3.668    0.727
        99 -11.7157    128.4065    102.3362   6.9588571193e+01   3.6834211337e+01    0.3531906    0.2401642  80.63  0.001342664    2.575    0.612
       100  -9.3819    188.3283     91.3305   5.3226205136e+01   2.5477419429e+01    0.1453955    0.1156182  10.70  0.000705142    1.712    0.416
       101 -11.1098     87.1245     87.6239   7.7856640643e+01   4.8256463598e+01    0.3955536    0.2460655  65.79  0.001466009    3.058    0.673
       102 -10.1993     79.8298     87.6762   8.0373738010e+01   4.9522717293e+01    0.2538328    0.1884007 -33.43 0.0005445491    1.320    0.242
       103  -9.4225    151.5233     86.4999   5.9398559241e+01   3.4781773501e+01    0.1483586    0.1471583  45.10 9.556992e-06    1.018    0.017
       104 -10.9610     48.7821     84.9805   9.1117306998e+01   5.4646163097e+01    0.4650064    0.2848559  71.67  0.001661107    4.160    0.760
       105 -10.6551    104.3210     82.8618   7.0866805860e+01   4.5930020777e+01    0.3057721    0.1340055 -49.54  0.001089128    2.597    0.615
       106  -9.5233     14.9669     83.7708   1.0430210761e+02   5.8042547046e+01    0.1479084    0.1051825   6.60 0.0004341796    1.567    0.362
       107 -11.0704     24.0515     79.4442   9.9645738824e+01   5.8377176305e+01    0.5550887    0.2360851 -69.97  0.002166091    3.053    0.672
       108 -11.0819     61.9042     75.0094   8.3114968747e+01   5.5058261824e+01    0.6324978    0.2939482 -43.77  0.002678281    2.014    0.504
       109 -11.1256     82.1703     72.8337   7.4959145465e+01   5.2177125158e+01    0.4098321    0.2637685 -67.66  0.001653356    2.792    0.642
       110 -10.1656    105.4309     71.6348   6.7004122805e+01   4.7852862855e+01    0.2927135    0.1271771 -52.66 0.0009564127    3.434    0.709
       111 -10.7327     71.0975    248.5010   1.1042712472e+02   1.2859954753e+01    0.2050045    0.1703034 -72.14 0.0004422918    1.342    0.255
       112 -12.4229     42.9016     66.5788   8.8179786493e+01   5.9319673005e+01    0.5716481    0.3155812  29.60  0.002171932    1.883    0.469
       113 -10.8936     25.6789    246.7777   1.1941001207e+02   1.8574219525e+01    0.1871858    0.1245773 -80.41 0.0008330265    1.465    0.317
       114 -10.9042     15.0803     54.1934   9.6954014334e+01   6.4484707589e+01    0.3205672    0.2331018  -5.41  0.001240566    1.332    0.249
       115 -11.4210     36.5088     63.5236   8.9982735559e+01   6.0665299047e+01    0.3662615    0.2347038 -45.58  0.001280797    1.397    0.284
       116 -12.9171     36.3888     57.0510   8.7969008200e+01   6.1977983477e+01    0.7133899    0.6067384  56.47  0.003130839    1.727    0.421
       117 -11.5977      7.0987     65.6305   1.0363157094e+02   6.2576984442e+01    0.4284012    0.2856709  37.53  0.001897516    1.935    0.483
       118 -10.9877     45.8978     59.8482   8.4732451085e+01   6.0305883211e+01    0.2270402    0.1704206 -34.36 0.0005347157    1.199    0.166
       119  -9.9090    112.6814     47.3510   5.6880632354e+01   5.0252966216e+01    0.1407277    0.1111966 -76.58 0.0007047691    1.740    0.425
       120 -10.3815     43.1937     45.6432   8.0876951836e+01   6.3287574019e+01    0.2120107    0.1640978 -20.68 0.0004784526    1.128    0.114
       121 -11.9133     74.9794     39.6430   6.5661075103e+01   5.9183611094e+01    0.2835065    0.2496407  -8.39 0.0006666629    1.123    0.109
       122 -10.4600     81.2279     38.0723   6.2887780391e+01   5.8213584516e+01    0.2396216    0.1842524  75.97  0.001235878    2.070    0.517
       123 -10.1936    126.5833     35.1109   4.9457853882e+01   4.8677098034e+01    0.2214345    0.1771325  70.58 0.0004997341    1.257    0.204
       124 -11.5621    147.7473     32.9599   4.4646508411e+01   4.3896390465e+01    0.2379604    0.1782883  65.04 0.0002233385    1.204    0.169
       125 -11.0511     73.7397     32.3767   6.3218364644e+01   6.0429942421e+01    0.2970212    0.2063322  61.07  0.001542796    1.965    0.491
       126 -11.7636      2.0546     28.9999   9.5566528118e+01   7.0149843624e+01    0.3872122    0.1597037 -48.66  0.002065675    1.934    0.483
       127 -11.7938    152.3482     28.5421   4.2576774953e+01   4.3307451703e+01    0.2678416    0.2117702  64.23 0.0004026371    1.129    0.114
       128 -10.1659    178.9694     25.6385   3.7967494913e+01   3.7313123468e+01     0.180787    0.1436215  79.10  0.001092501    1.116    0.104
       129  -9.6010    124.0305     23.2247   4.6096894131e+01   5.0634244119e+01    0.1796055   0.09735905  59.85 0.0004526842    1.605    0.377
       130 -11.7315    206.5615     21.2326   3.3864192972e+01   3.1541454009e+01    0.3200636    0.2220669  50.55  0.001415884    1.732    0.423
       131 -10.3064     31.9228     20.6267   7.5831006545e+01   6.8703023165e+01    0.3099997    0.1328719  28.84  0.001528209    2.206    0.547
       132 -10.1668     41.7716     20.5966   7.1064570078e+01   6.7361193600e+01    0.2407982    0.1087888  37.11 0.0006405758    2.071    0.517
       133 -12.1788     90.4828     18.5150   5.2390528128e+01   5.8681082065e+01    0.2942097    0.2015526  52.69 0.0006285781    1.307    0.235
       134 -10.4223     37.8651     18.3745   7.1869449057e+01   6.8215187296e+01    0.2082378    0.1681572 -38.71  0.001126195    1.635    0.389
       135  -9.7674      1.4352     17.4872   9.1479232198e+01   7.2162615222e+01    0.1165682    0.0830977 -21.44 8.612881e-05    1.033    0.032
       136 -10.1589    220.5118     16.5057   3.1592069419e+01   2.9069966393e+01    0.1206688   0.09599479 -74.60 7.564388e-05    1.012    0.012
       137 -10.8145    219.1565    246.1875   7.9349112922e+01  -7.6529147893e+00    0.1518518    0.1360131   1.36 0.0008379775    1.358    0.264
       138 -12.2514     37.1829    244.1858   1.1699474230e+02   1.7836515013e+01    0.3535177    0.2436157  52.16  0.001057402    1.190    0.160
       139 -11.4309    209.9735    237.5493   7.9688083287e+01  -5.1943920851e+00    0.3286542     0.215229  45.68  0.001811866    2.102    0.524
       140 -12.0131     72.7242    228.9886   1.0819052397e+02   1.6611598251e+01    0.3606448    0.2909513 -81.97  0.001216452    1.280    0.219
       141 -13.2005     18.9273    236.6441   1.2012669550e+02   2.1312606064e+01    0.4443691    0.2490981  35.53   0.00124447    1.705    0.414
       142  -9.6277    127.3187    230.6960   9.6102769381e+01   8.3003931012e+00    0.1353378    0.0975929  59.41 0.0005275896    1.628    0.386
