#   1 NUMBER                 Running object number                                     
#   2 MAG_AUTO               Kron-like elliptical aperture magnitude                    [mag]
#   3 X_IMAGE                Object position along x                                    [pixel]
#   4 Y_IMAGE                Object position along y                                    [pixel]
#   5 X_WORLD                Barycenter position along world x axis                     [deg]
#   6 Y_WORLD                Barycenter position along world y axis                     [deg]
#   7 A_WORLD                Profile RMS along major axis (world units)                 [deg]
#   8 B_WORLD                Profile RMS along minor axis (world units)                 [deg]
#   9 THETA_WORLD            Position angle (CCW/world-x)                               [deg]
#  10 FWHM_WORLD             FWHM assuming a gaussian core                              [deg]
#  11 ELONGATION             A_IMAGE/B_IMAGE                                           
#  12 ELLIPTICITY            1 - B_IMAGE/A_IMAGE                                       
         1 -13.0888    214.6986     27.9051   4.3527147036e+01   2.7926982694e+01     1.567765    0.9023747  37.35  0.006954046    2.514    0.602
         2 -12.6317    236.2381      6.8628   3.6442842275e+01   2.5296616469e+01    0.7239586    0.5550357 -64.27   0.00263752    1.111    0.100
         3 -10.5195    244.2604    242.8604   8.6818516178e+01  -1.0493023475e+01    0.3896101    0.1874726 -10.67  0.001925102    2.764    0.638
         4 -11.8039    222.0177    238.3784   9.0008716857e+01  -6.8040037487e+00    0.5558662    0.4364089 -19.74  0.003832127    1.365    0.267
         5 -11.5933    216.5289    235.4914   9.0538202794e+01  -5.6180794017e+00     0.545103    0.2821571  27.27  0.002921924    1.714    0.417
         6 -11.0713    213.8514    249.1171   9.3158154317e+01  -6.9130360254e+00    0.7663817    0.2800695  40.59  0.003656461    2.361    0.576
         7 -11.2914    212.1963    243.0480   9.2526141585e+01  -5.9228176038e+00    0.4270082    0.2974146  -3.86   0.00272204    1.485    0.326
         8 -13.7521    189.4936    246.5063   9.7220047062e+01  -2.9072621584e+00     2.159242     1.239696  38.44   0.01258309    1.419    0.295
         9 -12.7920    180.3111    241.9379   9.8278525919e+01  -8.4291559138e-01     0.939753    0.5628862  45.35  0.005367271    1.548    0.354
        10 -10.1443    126.4658    249.5093   1.0943412328e+02   6.4980971429e+00    0.4121132    0.2512337  36.61  0.002339739    1.424    0.298
        11 -10.5192    133.0918    247.4715   1.0795822406e+02   5.7987806124e+00    0.3969981    0.2502894  30.01  0.002176513    1.598    0.374
        12 -12.2793    116.7379    237.5880   1.0994251652e+02   9.9560275610e+00     1.355381    0.6453423  56.73  0.006498559    2.270    0.559
        13 -11.3579    125.5898    230.4627   1.0736248040e+02   9.7970313795e+00    0.8143096    0.4883788 -66.07  0.004018816    2.105    0.525
        14 -11.6785    116.8694    227.7388   1.0876322316e+02   1.1663163597e+01    0.9406815     0.467462  50.21  0.004602171    1.790    0.441
        15 -12.4166     20.1988    221.2075   1.2666901987e+02   2.5683945931e+01    0.9128092    0.4651836  68.63  0.004540539    1.616    0.381
        16 -14.4568     38.1850    203.2501   1.2208442917e+02   2.7373494171e+01     10.10608      3.49459  84.83   0.03170748    5.981    0.833
        17 -10.7202     95.8754    223.0675   1.1242013830e+02   1.5755811740e+01    0.6271284    0.4888389  50.28  0.002843244    1.105    0.095
        18 -12.1470    234.5138    236.7772   8.7518490766e+01  -8.4292286401e+00    0.7403086    0.5253072  11.15  0.004934588    1.145    0.127
        19 -11.2977    111.2722    243.3827   1.1162309496e+02   9.8055714929e+00    0.8175691    0.5350607  50.01   0.00509196    1.233    0.189
        20  -9.2402     73.2399    234.0857   1.1789007468e+02   1.6911318165e+01    0.3440888    0.2081596 -71.88  0.002116228    1.745    0.427
        21  -9.5202     33.6271    233.7682   1.2504416137e+02   2.1861101017e+01    0.3392825    0.1462941  65.58  0.001871321    2.084    0.520
        22 -10.7474     80.5525    229.7708   1.1611112813e+02   1.6708213060e+01    0.8022045    0.2008608  48.19  0.003111294    3.314    0.698
        23 -10.5887     79.0626    219.0099   1.1535239446e+02   1.8977759901e+01    0.6447753    0.3466082  51.39  0.003309302    1.588    0.370
        24 -11.2132     65.6149    223.2804   1.1839265354e+02   1.9973150217e+01    0.6643399    0.5227476  10.10  0.004132164    2.114    0.527
        25 -10.4828     70.9636    220.0700   1.1705957831e+02   1.9886050355e+01    0.5473487    0.2463295 -74.75  0.002696766    2.438    0.590
        26 -12.1016    178.5648    221.8598   9.5567381934e+01   2.4284550845e+00    0.5335758    0.3926148   1.40  0.003050625    1.596    0.374
        27 -12.1970    170.2397    221.5670   9.7176305672e+01   3.8841339294e+00    0.8173712    0.4522614  23.39  0.003818472    2.163    0.538
        28  -9.7880    250.4821    223.9852   8.2553354316e+01  -9.1591324335e+00     0.291932    0.1051947 -32.45  0.001369805    2.758    0.637
        29 -11.0388    229.9458    232.1779   8.7565835779e+01  -7.2052804082e+00    0.4070769    0.2750439 -18.13  0.002576093    1.467    0.318
        30  -9.6935    114.4974    211.5283   1.0719952260e+02   1.5070598067e+01    0.2914097    0.2634763 -78.77  0.001876395    1.196    0.164
        31 -10.0342    111.9294    207.1199   1.0715561673e+02   1.6352198854e+01    0.4343288    0.3610859  39.26  0.002642852    1.186    0.157
        32  -9.9021     68.9984    210.4958   1.1652982873e+02   2.2066788009e+01    0.3409337    0.2667943  24.58  0.001846116    1.688    0.408
        33  -9.1807     57.1361    200.4837   1.1799132022e+02   2.5698888430e+01    0.3753492    0.1546614  69.73  0.001414884    3.723    0.731
        34 -10.7961    194.6864    195.5444   8.7769491030e+01   3.8818344898e+00    0.4046098    0.2814538 -35.77  0.002165919    1.521    0.343
        35 -10.6422     56.9035    183.7878   1.1633177574e+02   2.9365402588e+01    0.3331927    0.2426023 -38.26  0.001405151    1.977    0.494
        36  -9.7578     38.2287    181.7283   1.2023426640e+02   3.2014373408e+01    0.2788435    0.1514026  62.25 0.0009268547    1.766    0.434
        37 -10.6699     62.8572    177.4443   1.1425674934e+02   3.0036138502e+01    0.2590113    0.2199581 -55.67 0.0007461686    1.345    0.257
        38  -8.6189    194.6885    168.6655   8.2410525974e+01   8.5866697150e+00    0.1517643    0.1089882   2.50 0.0007044468    1.681    0.405
        39 -10.2167     73.3663    167.1084   1.1041779368e+02   3.1001242430e+01    0.2561643     0.218194 -67.08 0.0004277933    1.162    0.139
        40 -12.4021     59.9714    163.7215   1.1321868201e+02   3.3587830039e+01    0.4924052     0.276897 -47.39  0.001480307    2.080    0.519
        41 -12.1101     27.6650    212.9786   1.2480881826e+02   2.6529344109e+01    0.3519918    0.3329692  85.94 0.0008360331    1.428    0.299
        42 -12.8924     65.6496    141.6508   1.0851717471e+02   3.8147770169e+01     2.405475     1.177348  88.16   0.00635644    4.356    0.770
        43  -9.3781     98.5251    141.9738   9.9708710864e+01   3.3093569332e+01    0.3461456    0.2128285 -31.85   0.00142505    2.291    0.564
        44 -11.2609     83.7444    143.8324   1.0402412439e+02   3.5033062728e+01    0.3126909    0.2454097 -59.25 0.0004462989    1.204    0.170
        45 -14.2216      9.1741    207.3919   1.2788320711e+02   2.9484177211e+01      2.02946    0.9625804 -83.83   0.01221476    1.745    0.427
        46 -11.4828     79.8804    159.0696   1.0760531768e+02   3.1958210248e+01    0.9295506    0.5517098  57.69  0.001339257    1.836    0.455
        47 -10.3529    106.9666    132.1078   9.5354882956e+01   3.3967883153e+01    0.4075098     0.340408  60.30  0.001796249    1.271    0.213
        48 -10.0914     94.7314    129.5257   9.8176759040e+01   3.6730101475e+01    0.2848692     0.251424 -33.83 0.0006874519    1.222    0.182
        49 -12.6215      3.5389    246.4977   1.3062497328e+02   2.2680550173e+01    0.8317874    0.3533203  87.27  0.005283623    1.992    0.498
        50  -8.8441    105.6693    120.9073   9.3143856028e+01   3.6864742861e+01    0.2078322    0.1874618 -56.39 0.0004030638    1.067    0.063
        51  -8.6353    168.0339    113.0132   7.5016909983e+01   2.5325822651e+01    0.2591044     0.199376 -78.50   0.00112676    1.775    0.437
        52  -9.8701     95.8284    145.1304   1.0104309688e+02   3.2790346658e+01      0.31001    0.2543163 -48.41  0.001275349    1.243    0.195
        53  -8.7283    203.8128    111.3915   6.7121265796e+01   1.7365554590e+01    0.2166534    0.1409746  39.48 0.0009501048    1.663    0.399
        54 -14.2176     14.1522    240.2820   1.2867495968e+02   2.2737297092e+01     1.998948    0.8555964  62.77   0.01111307    1.808    0.447
        55  -9.6791     52.5611     89.6601   1.0213706799e+02   5.2350107201e+01    0.2374431    0.2114329 -25.66 0.0007606199    1.158    0.136
        56  -9.2028     96.7133    241.8508   1.1420757807e+02   1.2222513130e+01    0.2162059    0.2094796 -22.68  0.001388747    1.453    0.312
        57  -9.4611      2.0000     60.9846   1.1430125856e+02   6.2857385704e+01    0.2029518   0.05281537 -66.17 0.0008064358    2.970    0.663
        58  -9.5677     13.3205     60.0297   1.0956766202e+02   6.2474400529e+01    0.1808985    0.1277704 -53.32 0.0007259455    1.099    0.090
        59 -10.6117     10.5657     53.4180   1.0907558766e+02   6.4047924348e+01    0.2782847    0.1161603 -31.70  0.001331361    2.476    0.596
        60  -9.7168     18.4907     52.4949   1.0547105957e+02   6.3741695736e+01    0.1247587   0.09614494 -42.75 0.0008105978    1.005    0.005
        61 -11.4618     31.1822     38.5486   9.5367899268e+01   6.5472048640e+01     0.480254    0.3378666 -34.19  0.002996811    1.137    0.121
        62 -11.4093    100.2980    235.3001   1.1286384610e+02   1.2847793487e+01     1.181438    0.6913105  41.69  0.006825427    1.452    0.311
