#   1 NUMBER                 Running object number                                     
#   2 MAG_AUTO               Kron-like elliptical aperture magnitude                    [mag]
#   3 X_IMAGE                Object position along x                                    [pixel]
#   4 Y_IMAGE                Object position along y                                    [pixel]
#   5 X_WORLD                Barycenter position along world x axis                     [deg]
#   6 Y_WORLD                Barycenter position along world y axis                     [deg]
#   7 A_WORLD                Profile RMS along major axis (world units)                 [deg]
#   8 B_WORLD                Profile RMS along minor axis (world units)                 [deg]
#   9 THETA_WORLD            Position angle (CCW/world-x)                               [deg]
#  10 FWHM_WORLD             FWHM assuming a gaussian core                              [deg]
#  11 ELONGATION             A_IMAGE/B_IMAGE                                           
#  12 ELLIPTICITY            1 - B_IMAGE/A_IMAGE                                       
         1 -16.5610     10.4976     67.6984   1.1023726109e+02   6.1297381310e+01     7.101684    0.8053036 -60.71    0.0231858    4.260    0.765
         2 -16.7311    142.2444     90.3651   7.2272059860e+01   3.6095073693e+01     4.331931     3.985371  74.89   0.01709438    1.194    0.162
         3 -16.5818    125.2478     54.8055   6.5268336376e+01   4.6550668680e+01     5.025772     3.085624  52.86   0.01863404    1.611    0.379
         4 -12.8424    207.5629      9.4432   3.7677700982e+01   3.1818536064e+01    0.7359161    0.5338669  45.86  0.004208627    1.635    0.388
         5 -13.6403    242.3548      3.6961   3.3537690300e+01   2.4481834977e+01     1.296552    0.4214294  80.44    0.0053279    3.244    0.692
         6  -9.5648     73.2994    219.3133   1.1458818676e+02   1.9750657452e+01    0.1081018    0.0976603 -26.98 0.0002414472    1.607    0.378
         7 -13.3465     74.1125    248.0952   1.1703856800e+02   1.4218589631e+01    0.5895668    0.3381035  62.65   0.00357048    1.568    0.362
         8 -18.3111     34.3806    239.3386   1.2357384493e+02   2.0720247847e+01     4.507482     2.008399  34.65     0.019592    2.313    0.568
         9 -13.9471     49.4694    218.9181   1.1932100826e+02   2.2911510337e+01     0.861007    0.2132831  53.19  0.003105916    4.150    0.759
        10 -12.7813    114.2594    209.5174   1.0478494249e+02   1.5551834136e+01    0.4556607    0.2551864  62.51  0.002062415    2.228    0.551
        11 -11.9236     71.2651    210.9113   1.1415613216e+02   2.1741054786e+01    0.3496495    0.1780381  34.02 0.0006142808    2.036    0.509
        12 -11.7524     63.7743    208.0815   1.1543872602e+02   2.3335394973e+01    0.2567936    0.2067577  77.32 0.0005473387    1.070    0.065
        13 -13.6298     11.1406    206.6836   1.2587189220e+02   2.9527687618e+01    0.4563563    0.2139759  39.75  0.002702178    2.002    0.501
        14 -11.1423    237.0616    206.0594   7.9144584752e+01  -4.6776390253e+00    0.1903267    0.1557378   3.38 0.0002899706    1.036    0.035
        15 -11.8667     28.3033    205.3375   1.2245658059e+02   2.8107644396e+01    0.1906856       0.1458  66.25  0.000303646    1.093    0.085
        16 -10.7482     96.3093    201.6739   1.0766569237e+02   2.0021455454e+01    0.2906663    0.2228352 -32.85  0.001440463    1.809    0.447
        17 -11.7300     67.7820    196.0826   1.1330741543e+02   2.5373303931e+01    0.3214641    0.2393474 -46.34  0.001087371    1.697    0.411
        18 -10.5864    174.9884    193.4686   8.8959563532e+01   7.9453269309e+00    0.1993662    0.1847018 -16.29 0.0001150158    1.122    0.109
        19  -7.1313     28.7760    186.3623   1.2088303830e+02   3.2152398972e+01     0.384054    0.1065458  31.85  0.001465678    3.641    0.725
        20 -12.4428     38.1915    187.3606   1.1892894497e+02   3.0933251898e+01    0.3422617    0.1860986  46.43  0.001146009    1.712    0.416
        21 -12.0333     34.3148    186.6978   1.1971404020e+02   3.1500486339e+01    0.2648003     0.166706 -82.36 0.0004095573    1.381    0.276
        22 -13.0892    104.4597    248.2710   1.1137976980e+02   9.9178507133e+00     0.376809    0.3606557 -75.96  0.001290219    1.308    0.235
        23 -11.8848     76.1466    182.2501   1.0971192300e+02   2.7301977543e+01    0.5236366     0.449459  41.93    0.0024208    1.229    0.187
        24  -9.8941     29.8857    182.6216   1.2032210874e+02   3.2873164075e+01    0.1671942   0.09154928  49.79 0.0005654492    1.703    0.413
        25 -13.0784    188.3893    175.1669   8.2533958735e+01   8.7913455654e+00    0.3986259    0.2782173 -54.73  0.001742782    1.793    0.442
        26 -12.4763    195.8501    174.1066   8.0764675742e+01   7.5566925424e+00    0.2659671    0.2131053 -32.34  0.001427638    1.249    0.199
        27 -11.1639     23.4120    178.0640   1.2135426019e+02   3.4537225900e+01    0.2553625    0.1813124  14.40  0.001010549    2.053    0.513
        28 -11.0013     86.2495    170.9279   1.0565608868e+02   2.8420135994e+01    0.4656413    0.2831489  21.41  0.001635002    2.281    0.562
        29 -10.6917     89.5300    166.2333   1.0409610526e+02   2.9011288879e+01    0.3161846    0.2386537 -29.11  0.001589576    1.777    0.437
        30 -10.5116     31.1686    170.8565   1.1894797986e+02   3.5419806326e+01    0.2310551    0.1420399  39.36 0.0008519316    1.691    0.409
        31 -10.4708     24.6770    169.4290   1.2031127191e+02   3.6382076866e+01    0.2833269    0.1167352 -67.45  0.001373647    2.024    0.506
        32 -12.6183    186.9721    166.1696   8.0945585923e+01   1.0755926781e+01    0.2712894    0.2186331 -35.06  0.001264183    1.247    0.198
        33 -10.8827      6.0170    162.3731   1.2397755270e+02   3.9589356833e+01    0.1556539    0.1334567  76.88 0.0005283577    1.160    0.138
        34 -10.2164     95.3270    158.1182   1.0123673473e+02   2.9999456858e+01    0.1970511     0.172549 -72.35 0.0004275792    1.107    0.097
        35 -10.5676     64.6274    157.0357   1.0902993126e+02   3.4816006768e+01    0.2562984    0.1698469  54.66 0.0006798393    1.550    0.355
        36 -12.2509     22.0871    156.6238   1.1970303287e+02   3.9594289980e+01    0.2613672    0.2363796 -84.89 0.0006844576    1.163    0.140
        37 -12.3347     55.8281    153.4000   1.1078946667e+02   3.6815923899e+01    0.5703427    0.2449204 -70.57  0.002372156    2.275    0.560
        38 -10.2520     89.2371    243.0124   1.1375694968e+02   1.3033353439e+01    0.1586654    0.1310242  71.32 0.0004860534    1.129    0.114
        39 -10.4746     99.1659    153.1328   9.9324393131e+01   3.0545948732e+01     0.218913    0.1975185 -35.91 0.0005312704    1.226    0.184
        40 -13.1978     68.3744    144.8066   1.0610326822e+02   3.7283684132e+01    0.6833959    0.4311387  71.09   0.00265423    1.998    0.499
        41 -12.4300     84.7368    152.3810   1.0299823925e+02   3.3059712942e+01    0.3440173    0.2465504 -37.60 0.0008367189    1.660    0.398
        42 -12.1088    110.7551    137.0705   9.2946697222e+01   3.2317622886e+01    0.3853439    0.2339209 -29.58  0.001510622    2.313    0.568
        43 -11.6453     99.2854    137.4855   9.6177779337e+01   3.4276019129e+01     0.270155    0.2499787 -34.89 0.0003786349    1.146    0.127
        44 -12.2258    116.5399    129.6365   8.9678007053e+01   3.2972342278e+01    0.2841767    0.2234559 -28.22  0.000784893    1.439    0.305
        45 -12.5521    145.3623    223.9251   1.0024199792e+02   7.6912324150e+00    0.2738023    0.1778075  32.76  0.001479523    1.410    0.291
        46 -12.3306    182.5110     40.5212   4.9084412857e+01   3.4374828008e+01    0.6320457    0.5161623 -66.10  0.003288802    1.257    0.204
        47 -11.4962    187.5508     34.7587   4.6709400170e+01   3.3851730841e+01    0.4363407    0.3020533   4.69  0.001106114    2.117    0.528
        48 -10.3131      4.4292    215.2515   1.2757099665e+02   2.8415192110e+01   0.09711111   0.07860154  66.92 0.0002572057    1.199    0.166
        49 -11.1245    104.6253    125.1036   9.1926120807e+01   3.6288526027e+01    0.2721839    0.2273484  22.41 0.0007017534    1.336    0.251
        50 -10.9527     92.7034    218.6487   1.1052048304e+02   1.7103701143e+01    0.2247761    0.1783241  66.87 0.0005147907    1.142    0.124
