#   1 NUMBER                 Running object number                                     
#   2 MAG_AUTO               Kron-like elliptical aperture magnitude                    [mag]
#   3 X_IMAGE                Object position along x                                    [pixel]
#   4 Y_IMAGE                Object position along y                                    [pixel]
#   5 X_WORLD                Barycenter position along world x axis                     [deg]
#   6 Y_WORLD                Barycenter position along world y axis                     [deg]
#   7 A_WORLD                Profile RMS along major axis (world units)                 [deg]
#   8 B_WORLD                Profile RMS along minor axis (world units)                 [deg]
#   9 THETA_WORLD            Position angle (CCW/world-x)                               [deg]
#  10 FWHM_WORLD             FWHM assuming a gaussian core                              [deg]
#  11 ELONGATION             A_IMAGE/B_IMAGE                                           
#  12 ELLIPTICITY            1 - B_IMAGE/A_IMAGE                                       
         1  -8.1603     97.2880     14.7943   3.6013080032e+01   5.8480486216e+01    0.2383851    0.1017285 -36.27 0.0008495069    2.488    0.598
         2  -7.8554     83.8117     10.8144   3.8360133767e+01   6.1626042502e+01    0.1558029    0.1503222 -61.95 0.0004676651    1.338    0.253
         3  -8.5629     55.7841      9.8855   4.7814864660e+01   6.6529106896e+01    0.1942182    0.1541422 -41.90 0.0006378994    1.553    0.356
         4  -7.9342     47.5905      9.7618   5.1093592726e+01   6.7717440188e+01    0.1524886    0.1003128 -40.67 0.0006241244    1.666    0.400
         5  -8.2426     90.9667      8.7581   3.5346430901e+01   6.0451578704e+01    0.1871454    0.1461499  88.79 0.0005513141    1.926    0.481
         6  -7.9712     28.2902      9.6735   5.9706451154e+01   7.0046738057e+01   0.09421048   0.08720399 -53.99 0.0005099739    1.616    0.381
         7  -7.8087    101.4087      8.1285   3.2216405664e+01   5.8349002274e+01    0.1659291    0.1163481 -38.11 0.0004731558    1.622    0.383
         8  -8.1052     70.3307      6.0204   4.0681922581e+01   6.4634378390e+01    0.1681965    0.1420569 -11.44 0.0008833525    1.157    0.136
         9  -8.3462     33.5547      4.7879   5.4993799124e+01   7.0154448754e+01    0.2478449    0.1471833 -53.06  0.001349612    2.823    0.646
        10  -7.7613     44.6072      2.8085   4.9103458084e+01   6.9014140907e+01    0.1468239   0.09681289 -36.38 0.0004879476    1.606    0.377
        11  -8.5528     79.1174      3.5895   3.6697863883e+01   6.3306397424e+01    0.2166981     0.159307 -38.63 0.0007722876    1.614    0.380
        12  -7.5269    115.3142      1.7195   2.6368511611e+01   5.5887729884e+01    0.1236392   0.09909669 -76.27 0.0002376761    1.572    0.364
        13  -8.1805     62.5040      1.4531   4.1355355306e+01   6.6468848041e+01    0.1712392    0.1108867  54.74 9.128537e-05    1.908    0.476
        14  -7.3956     39.6565      1.3081   5.0540106650e+01   6.9856064925e+01   0.09482014    0.0916133 -60.22 0.0007043756    1.694    0.410
        15  -8.5638     67.5038    244.9394   9.1538836426e+01   1.6862057680e+01    0.1549629   0.09777148 -82.63  0.001029769    1.581    0.367
        16 -10.0538    248.6989    241.9042   5.8999890397e+01  -1.1567063953e+01    0.5240132    0.1995112 -34.85  0.002272246    2.984    0.665
        17  -8.7181    247.6191    234.2309   5.7970417978e+01  -1.0567450120e+01    0.1959239    0.1261653 -10.83  0.001244306    1.654    0.395
        18  -9.5806    246.6718    228.4264   5.7192142120e+01  -9.7640120704e+00    0.4581783    0.2199121 -30.94  0.002229117    2.264    0.558
        19  -8.5988     94.1724    249.3142   8.7266904863e+01   1.2251033223e+01    0.2886886    0.1420364  68.92   0.00138174    2.210    0.548
        20  -7.5308     86.4899    250.4895   8.8702254805e+01   1.3200738677e+01     0.118587   0.08380822  61.59 0.0001085279    1.018    0.017
        21  -7.5327     72.4719    250.5452   9.1107095365e+01   1.5207579788e+01    0.1160127   0.08076309  63.26   0.00038041    1.010    0.010
        22  -8.7352     49.9889    243.4665   9.4409715743e+01   1.9458550411e+01    0.3648941    0.1183071  85.50  0.001049578    8.693    0.885
        23  -8.7910    201.8858    243.2735   6.7222551130e+01  -4.5013370934e+00    0.1701869    0.1604061 -56.14 0.0007113556    1.454    0.312
        24  -8.5738    168.9680    243.2456   7.3130791954e+01   9.9612781562e-01    0.1980495    0.1522098  69.33 0.0006413684    1.539    0.350
        25  -9.5604    135.4873    238.7947   7.8731353933e+01   7.3550423224e+00    0.3153606    0.1678172  61.91  0.001122619    2.034    0.508
        26  -9.1073     78.4586    243.4062   8.9519883730e+01   1.5578991680e+01    0.3628448    0.1393385  65.46  0.001576298    3.162    0.684
        27  -8.9967    193.9759    239.3037   6.8065382324e+01  -2.6762814393e+00    0.1858534    0.1687714  89.44 0.0005519851    1.508    0.337
        28  -9.3288    183.2680    240.2021   7.0125117058e+01  -9.9680584376e-01    0.4385022    0.2437606  63.93  0.002007453    3.043    0.671
        29  -9.3215    160.1080    240.1739   7.4353407342e+01   2.9525828219e+00    0.3177452    0.2181754  86.19  0.001257087    2.252    0.556
        30  -8.3244    153.5523    241.7933   7.5761899010e+01   3.8262539870e+00    0.1465142     0.114732 -84.50 0.0008666248    1.638    0.390
        31  -8.3301     88.2737    241.8815   8.7656900496e+01   1.4398968217e+01     0.196721   0.09537718 -77.88 0.0007561945    2.461    0.594
        32  -8.1333    214.1830    241.1858   6.4756200542e+01  -6.2281805688e+00    0.1555233    0.1266751  48.63 0.0006191457    1.362    0.266
        33  -8.6532    146.4075    239.7781   7.6829143793e+01   5.3500257980e+00    0.2761997    0.1732972  74.18  0.001053476    2.176    0.540
        34  -9.0741    241.6373    237.9792   5.9561606920e+01  -1.0101549000e+01    0.4335651    0.2174138  -6.20   0.00192986    3.722    0.731
        35  -8.3212    110.8941    240.3399   8.3427422477e+01   1.1150974493e+01    0.1765067    0.1277563  50.83  0.001145117    1.129    0.114
        36  -7.9939     41.0000    239.1020   9.5642767195e+01   2.1365817338e+01    0.1584989   0.05321781 -75.28 0.0007962278    2.900    0.655
        37  -9.2698    231.1268    237.0807   6.1202006542e+01  -8.4020084219e+00    0.2693359    0.2173188  74.31  0.001467325    2.271    0.560
        38  -8.3392    209.1880    238.1778   6.5187855199e+01  -5.0451807792e+00    0.1485467    0.1330201  54.63 0.0005404407    1.375    0.273
        39  -8.3556    129.1433    238.1716   7.9834610394e+01   8.5211054648e+00    0.1789675    0.1197118  63.76 0.0008426933    1.390    0.281
        40  -8.5424     25.9170    236.9396   9.8018476115e+01   2.3542193656e+01    0.2927155   0.09627367  70.62  0.001352255    3.202    0.688
        41  -9.9100     10.6804    244.9308   1.0081761638e+02   2.3802648514e+01    0.5089365    0.1392891  68.23  0.002338846    3.547    0.718
        42  -8.7170    217.3177    235.6856   6.3380327360e+01  -6.0506181720e+00    0.2194198    0.1743365  42.76 0.0006726293    1.251    0.201
        43  -9.4620    213.6654    231.6326   6.3402787672e+01  -4.9403544422e+00    0.2937978    0.2406531  88.51  0.001452922    2.102    0.524
        44  -8.8677    203.0253    234.3173   6.5710364043e+01  -3.5256877226e+00    0.2665181    0.1730999 -56.04  0.001141023    2.365    0.577
        45  -9.9094    175.7306    233.2321   7.0535844548e+01   1.2891486261e+00    0.4337406    0.2290015 -58.91  0.002127528    2.929    0.659
        46  -9.2362    109.5681    234.4668   8.3063789501e+01   1.2369029473e+01    0.5192816    0.1957423  56.37  0.001857037    2.622    0.619
        47  -7.9828     58.9773    237.0000   9.2430740346e+01   1.9431307047e+01    0.1826062   0.05242854  41.02 0.0008055749    2.964    0.663
        48  -8.2909    170.1982    235.2007   7.1832764299e+01   1.9572787320e+00    0.1616757    0.1320916  68.00 0.0005978442    1.378    0.274
        49  -8.8536     78.9220    234.6281   8.8703238734e+01   1.7064514211e+01    0.2307705    0.1260217  81.29  0.001162003    1.949    0.487
        50  -9.3502      8.2384    235.0023   1.0077421092e+02   2.5806672289e+01    0.1513617   0.09747152  74.44 0.0006274275    1.053    0.050
        51  -8.1137    122.9869    233.9630   8.0504053299e+01   1.0251444468e+01    0.2042714    0.1239548  68.47 0.0007714553    1.756    0.431
        52  -8.1110     99.6556    234.2640   8.4880026868e+01   1.3984004816e+01    0.2052569    0.1119014  68.23  0.001093308    1.873    0.466
        53  -9.6284     68.2348    231.8714   9.0399125036e+01   1.9095371317e+01    0.4680971    0.1962281  74.19  0.002056798    3.185    0.686
        54  -8.3224    194.5199    232.3638   6.6957610641e+01  -1.8244300692e+00    0.1873826    0.1651557  68.33  0.000601038    1.417    0.294
        55  -8.4049    132.5822    232.7697   7.8562432280e+01   8.8352906364e+00    0.2179715     0.147577 -85.02  0.001011673    1.888    0.470
        56  -8.3902     92.5940    231.7028   8.5935581969e+01   1.5539313838e+01    0.3146069     0.151467  75.38  0.001127121    2.865    0.651
        57  -9.5026    186.2484    230.2018   6.8155823670e+01  -9.5937319381e-02    0.2820065    0.2167428 -81.98  0.001094087    2.045    0.511
        58  -8.2551    157.7864    231.9627   7.3712269085e+01   4.6101114523e+00    0.1863939    0.1331053  80.32 0.0007306289    1.882    0.469
        59  -9.0663    235.9279    230.4470   5.9335936886e+01  -8.3592339093e+00      0.25566    0.1546234 -32.91 0.0008575853    1.869    0.465
        60  -9.2212    239.1258    221.3568   5.7305353848e+01  -7.7546619633e+00    0.2590304    0.2016546 -45.87 0.0009738984    1.772    0.436
        61  -8.9678      1.9568    230.7270   1.0158881924e+02   2.7207975030e+01    0.2402797   0.08129296  65.32  0.001337412    2.278    0.561
        62  -9.0567    151.4744    228.9764   7.4508957549e+01   6.1907861603e+00     0.289924    0.1876377  80.08  0.001177224    2.310    0.567
        63  -9.3277    148.8829    224.3955   7.4394550076e+01   7.3999624106e+00    0.3881576    0.2294945  72.65  0.001815458    2.550    0.608
        64  -8.9856    140.3148    229.9792   7.6757945533e+01   7.9724199645e+00    0.2560092    0.1379277  55.24 0.0008134216    1.671    0.402
        65 -10.0069      9.2646    229.0635   1.0034476181e+02   2.6774519620e+01    0.3570479    0.1117502  72.44   0.00169015    3.162    0.684
        66  -7.9874    229.6066    228.2663   6.0074596283e+01  -7.0996021217e+00    0.1478024    0.1060975 -14.74 0.0006254604    1.515    0.340
        67  -9.0453    162.3234    227.7469   7.2284207278e+01   4.4755260396e+00    0.3075907    0.1844013  63.89  0.001555275    2.061    0.515
        68  -8.9038    127.8166    227.1692   7.8795464454e+01   1.0600504299e+01    0.3167531    0.1834844  67.75  0.001304201    1.977    0.494
        69  -8.2903    223.4645    226.5313   6.0868872664e+01  -5.8911924678e+00    0.2675161    0.1172729 -32.57  0.001298715    2.697    0.629
        70  -9.2845    225.6281    221.6589   5.9698827844e+01  -5.6178763291e+00    0.2604692    0.2440217   3.40  0.001365455    1.234    0.189
        71  -8.7484    180.4574    224.1021   6.8334331249e+01   1.8212203606e+00    0.2745498    0.1578337  51.28 0.0006452895    1.615    0.381
        72  -8.1022    119.6741    227.3223   8.0370798547e+01   1.1953323502e+01    0.2030408    0.1224139  67.54 0.0007323507    1.725    0.420
        73  -8.2244     49.8633    226.7816   9.3297688749e+01   2.2510744174e+01    0.2373639    0.1075702  73.81  0.001240209    2.189    0.543
        74  -8.3579    206.0457    225.8407   6.3870118516e+01  -2.8929241419e+00    0.1868744    0.1630004 -69.87 0.0006908286    1.651    0.394
        75  -8.4946    200.0335    226.0421   6.4995968251e+01  -1.8906276472e+00    0.1804868    0.1454866  69.63 0.0006451908    1.674    0.403
        76  -8.8789    104.8058    223.6704   8.2807818994e+01   1.5067010513e+01    0.3246346    0.1857368  79.86  0.001650336    2.152    0.535
        77  -8.9344     94.1455    223.9050   8.4870746764e+01   1.6723906503e+01    0.3639264    0.1882487  75.25   0.00148992    2.397    0.583
        78  -9.0095    216.5230    223.1425   6.1555455569e+01  -4.3004823282e+00    0.2447225    0.2120611 -56.42  0.001211101    1.615    0.381
        79  -8.2685     38.3513    224.2710   9.5161615404e+01   2.4419644374e+01    0.1518251    0.0819596  86.91 0.0004860089    1.608    0.378
        80  -8.8221    173.0594    222.7463   6.9533036885e+01   3.3491558655e+00    0.2489849    0.1840238  85.50 0.0009371855    1.991    0.498
        81  -8.4221    163.4086    222.7873   7.1381283174e+01   5.0723531417e+00    0.2187909    0.1588131  58.47  0.001281503    1.335    0.251
        82  -8.7087    159.0885    220.2549   7.1852272322e+01   6.2616205693e+00    0.2819754    0.1772185  65.75   0.00102324    1.935    0.483
        83  -7.7452    113.7289    223.3826   8.1057857319e+01   1.3651276130e+01    0.1314795   0.08221613  72.48 0.0006632572    1.701    0.412
        84  -9.3994    192.3615    221.0534   6.5640024758e+01   1.6506101036e-01    0.2994957    0.2438457 -69.60   0.00109912    1.729    0.422
        85  -7.9887    140.4938    222.4998   7.5763793243e+01   9.2041407217e+00    0.1330425    0.1041944  57.37 -8.202958e-05    1.081    0.075
        86  -8.1298      8.6582    222.3068   1.0012939444e+02   2.8082627848e+01    0.1163673   0.05178417  65.39 0.0007042589    1.687    0.407
        87  -8.7261     82.6003    220.1683   8.6698763979e+01   1.9199396909e+01    0.2806697    0.1587191  74.87 0.0009575385    1.795    0.443
        88  -8.0845     73.2600    220.5282   8.8503549925e+01   2.0506531035e+01    0.3088257    0.1315491  71.87  0.001292408    3.183    0.686
        89  -8.1930     27.4886    220.9828   9.6856177148e+01   2.6314452411e+01    0.1612562   0.08775596 -83.28  0.001032237    1.589    0.371
        90  -8.1954    202.5503    220.0049   6.3587384891e+01  -1.4744100874e+00    0.1632003    0.1252477 -36.84 0.0005082182    1.535    0.349
        91  -9.0362    120.3772    219.0614   7.9252487835e+01   1.3313543978e+01    0.4229847    0.2038837  66.21    0.0017606    2.873    0.652
        92  -8.4339    210.1322    218.8068   6.2007341881e+01  -2.6215611517e+00    0.1870256    0.1677469 -46.26 0.0006011132    1.416    0.294
        93  -9.6445    248.1252    217.4346   5.5119488676e+01  -8.6785685939e+00    0.3301527    0.2220466  65.60  0.001646268    3.288    0.696
        94  -8.4313     62.2827    217.2256   9.0279908888e+01   2.2687992664e+01    0.2865988    0.1147623  62.80  0.001244222    2.505    0.601
        95  -9.0721     51.8156    217.2556   9.2233189163e+01   2.4078266085e+01    0.2642759    0.1311166  84.30  0.001401119    2.007    0.502
        96  -7.9061    179.2919    217.6507   6.7581007459e+01   3.0233057165e+00    0.1257978   0.09598974  72.17 0.0007028977    1.670    0.401
        97  -8.7262    169.2684    215.8839   6.9240583091e+01   5.1300822496e+00    0.2677587      0.19744 -84.73   0.00101147    1.967    0.492
        98  -8.6996    142.9134    216.1640   7.4439950823e+01   9.8737120779e+00    0.3121372    0.1943716  76.62  0.001504818    2.273    0.560
        99  -7.7769    111.7860    216.9900   8.0691159731e+01   1.5150864832e+01    0.2114798    0.1254853  77.28  0.001057971    2.037    0.509
       100  -7.5680     18.5401    216.4667   9.8151036485e+01   2.8159727303e+01    0.1127675    0.0758756  72.91 0.0001733658    1.036    0.035
       101  -9.4245    133.0792    215.9745   7.6357537979e+01   1.1661780346e+01    0.5201808    0.2790362  73.89  0.002109387    3.220    0.689
       102  -8.6450    232.2493    214.3892   5.7323786913e+01  -5.7590179377e+00    0.2116176    0.1976403 -86.31  0.001199587    1.606    0.377
       103  -8.9423     93.5508    214.1667   8.3961174963e+01   1.8662184287e+01    0.3896661    0.1612168  62.91     0.001435    2.990    0.666
       104  -7.8453     41.7763    215.2094   9.3926639099e+01   2.5743080557e+01    0.2058052   0.07816469  66.75 0.0009420232    2.713    0.631
       105  -9.3674    214.1333    212.1943   6.0186482299e+01  -2.3856081686e+00    0.3914351    0.2522611  60.45  0.001753656    2.179    0.541
       106  -8.3866    185.5267    214.1673   6.5848649396e+01   2.4351936966e+00    0.2090104    0.1610407  59.33 0.0008106831    1.396    0.283
       107  -9.3702     73.4345    211.8208   8.7659028670e+01   2.2174523097e+01    0.6826563    0.2236291  60.97  0.002375459    4.235    0.764
       108  -8.2046    225.1530    212.4121   5.8239316418e+01  -4.3100236309e+00    0.1833956     0.144889 -35.90 0.0004980214    1.466    0.318
       109  -8.8017    161.6100    212.1507   7.0175243672e+01   7.1580624939e+00    0.2255793    0.1595205  55.67 0.0009162599    1.307    0.235
       110  -8.0054    106.4768    212.5065   8.1212553967e+01   1.6884763808e+01    0.1328108    0.1036936  64.19 7.203805e-05    1.038    0.037
       111  -9.0980    204.2115    210.5422   6.1736399601e+01  -3.9208783079e-01    0.2482358    0.2212261 -55.43 0.0007629534    1.426    0.299
       112  -9.3257    175.4792    209.9580   6.7119946645e+01   4.9560100060e+00    0.4109807    0.2500165  69.98  0.001691892    2.700    0.630
       113  -8.7320    148.0840    210.2826   7.2583226213e+01   9.9737981628e+00    0.3032056     0.196334  75.25  0.001098851    2.077    0.519
       114  -8.8850    116.2855    210.2042   7.8965174662e+01   1.5665545019e+01    0.3099488    0.1710383  74.07 0.0007861921    2.467    0.595
       115  -8.3160    192.0998    210.0859   6.3939645985e+01   1.8701624592e+00     0.191536     0.153908  75.48 0.0006110137    1.660    0.398
       116  -8.3137     85.7432    209.4589   8.4999573453e+01   2.0801688378e+01    0.2448081    0.1273063  72.44  0.001167919    2.188    0.543
       117  -8.3059     46.7911    209.6800   9.2580979749e+01   2.6210493474e+01    0.2412876     0.113149  75.12  0.001236716    2.130    0.531
       118  -8.4660     32.2311    210.1940   9.5324103303e+01   2.7862029640e+01    0.1796339   0.07216319  89.50 0.0008731096    2.518    0.603
       119  -9.3936    236.4836    207.6408   5.5422577632e+01  -5.5668213946e+00     0.389389    0.2350142 -41.01  0.001837658    1.939    0.484
       120  -8.0016    154.4185    215.2027   7.2038933171e+01   7.9569621401e+00     0.164593    0.1246857 -75.45 0.0009399353    1.654    0.395
       121  -8.3428    156.8831    208.5186   7.0565455775e+01   8.6592426352e+00    0.2500018    0.1742116 -80.39  0.001291147    2.017    0.504
       122  -9.9224    246.3918    207.0030   5.3608935662e+01  -7.0989706902e+00    0.2703553    0.2022106 -21.13 0.0005729323    1.341    0.254
       123  -9.3939    250.1652    201.9445   5.2073525373e+01  -7.0500392382e+00    0.3483608    0.1821523 -29.87  0.001239127    1.959    0.489
       124  -9.7202    245.9348    193.6398   5.1280969059e+01  -5.2507838387e+00    0.4286303     0.277695 -44.60   0.00178849    1.886    0.470
       125  -8.2124    139.2319    207.7400   7.3997709099e+01   1.2053296763e+01    0.2537555    0.1812806  75.68  0.000827286    1.580    0.367
       126  -7.9610    126.4473    208.2445   7.6656254556e+01   1.4260742924e+01    0.1704577    0.1203649 -83.92 0.0005774932    1.643    0.392
       127  -8.4846      6.2166    208.2412   9.9855194654e+01   3.0996961184e+01    0.1706805   0.06240889  87.60 0.0008757989    2.431    0.589
       128  -9.2290     99.3554    205.6578   8.1834989268e+01   1.9394382215e+01    0.3817459    0.2137967  85.34  0.001302064    2.312    0.567
       129  -8.4967     56.4996    205.4639   9.0371567905e+01   2.5802074761e+01    0.2788869    0.1264654  69.08  0.001019389    2.304    0.566
       130  -8.3875     11.5244    206.5130   9.8832056040e+01   3.0811779406e+01    0.1106292   0.07795354  76.89 0.0001242705    1.026    0.025
       131  -9.1464    183.6991    203.6688   6.4498975687e+01   4.4528238431e+00    0.3226482    0.2302888  67.79  0.001240973    1.790    0.441
       132  -8.0542    109.1817    205.1736   7.9772363195e+01   1.7852311919e+01    0.1872788    0.1316141  71.97 0.0007088022    1.357    0.263
       133  -7.5837     92.6491    205.3136   8.3156477542e+01   2.0545354980e+01    0.1405547   0.08090011  67.80 0.0007046204    1.726    0.421
       134  -8.1565     25.3115    205.6122   9.6289568065e+01   2.9547098114e+01    0.1272587   0.05952239  69.13 0.0007015461    1.822    0.451
       135  -9.3850    194.7712    203.3304   6.2303554108e+01   2.4359382465e+00    0.3329337    0.2632421 -41.18  0.001274182    1.457    0.314
       136  -9.1401    192.5428    197.1586   6.1671592201e+01   3.8480236115e+00    0.3912526    0.3002514  80.24 0.0008530905    1.881    0.468
       137  -9.6135    163.9339    202.9700   6.8296096769e+01   8.3080016932e+00    0.4686585      0.24379  59.05  0.001153642    2.298    0.565
       138  -8.6943    131.1881    203.6670   7.5059420831e+01   1.4276839654e+01    0.2813639     0.184249  77.45  0.001127763    1.868    0.465
       139  -8.5758    211.1336    201.7948   5.8954540032e+01  -3.3434539087e-01    0.2576844    0.2056114 -69.48  0.000964849    1.876    0.467
       140  -8.0596     17.2933    202.9526   9.7590275140e+01   3.0928616783e+01     0.185018   0.05919368  80.87 0.0007028439    4.146    0.759
       141  -9.1007    243.2588    200.3878   5.2966172335e+01  -5.7194384159e+00    0.2820464    0.1812694 -37.91 0.0008900155    1.716    0.417
       142  -8.9008    140.5323    200.9245   7.2741036875e+01   1.3080901856e+01    0.3465859    0.2198992  74.05  0.001329792    2.046    0.511
       143  -8.2866     80.2959    201.2190   8.5211698862e+01   2.3290710728e+01    0.3038616    0.1352646  64.46  0.001306311    2.570    0.611
       144  -8.1082     48.6471    202.3595   9.1633784653e+01   2.7451301917e+01    0.1988726    0.1047253  68.88  0.001096118    1.694    0.410
       145  -8.1863    222.2876    201.0354   5.6777146994e+01  -2.2191405235e+00    0.1734254    0.1582204 -10.79 0.0005285123    1.165    0.141
       146  -9.3828    149.6982    198.4419   7.0475960611e+01   1.1825015743e+01     0.449096    0.2825415  80.47  0.001383147    2.501    0.600
       147  -8.7721    124.1401    199.1395   7.5879434469e+01   1.6422709957e+01    0.3163441    0.2009941  82.53   0.00107409    2.023    0.506
       148  -9.3506    112.9736    198.2400   7.8087840162e+01   1.8575869259e+01    0.4583989    0.2461656  73.17  0.001674641    2.636    0.621
       149  -9.1536    237.1505    198.2209   5.3631352561e+01  -4.3994269106e+00    0.2952983    0.1656998 -38.76  0.001455988    1.944    0.486
       150  -8.5787    177.0671    198.6970   6.4974449529e+01   6.5457604157e+00    0.2083978    0.1864808 -89.37 0.0004714074    1.314    0.239
       151  -8.9692     88.7862    198.4650   8.3157625476e+01   2.2545322149e+01    0.3197758    0.1889393  77.94  0.001431208    1.839    0.456
       152  -8.4742    202.4781    197.6660   5.9853758202e+01   1.8941738169e+00    0.2352604     0.180148 -84.88 0.0008018229    2.136    0.532
       153  -9.1385     61.4490    196.9544   8.8604298667e+01   2.6881757996e+01    0.4065386    0.1779118  68.91  0.001466906    2.693    0.629
       154  -7.8304     53.9615    196.4783   9.0069393723e+01   2.7979636326e+01    0.2687145    0.1078675  72.63  0.001040598    3.530    0.717
       155  -7.8293     29.4883    197.4934   9.4953024850e+01   3.0723264153e+01    0.1182343   0.08539157  76.16 0.0008104964    1.015    0.015
       156  -8.6254     12.7068    196.9389   9.8071631896e+01   3.2593837623e+01    0.2506543   0.08969209  76.74  0.001149447    2.937    0.659
       157  -7.9363    133.1509    195.8985   7.3526291716e+01   1.5412635852e+01    0.2158433    0.1423921  84.44 0.0006808703    1.983    0.496
       158  -8.5433    224.8237    194.2218   5.5092268178e+01  -1.6755856319e+00    0.2569078    0.1780285 -52.20  0.001067429    1.929    0.482
       159  -7.4906    209.3152    195.6385   5.8203306479e+01   9.3861667672e-01    0.1275716     0.105148  83.11 0.0007042038    1.759    0.431
       160  -8.9466    185.0251    194.6558   6.2707017261e+01   5.7044487015e+00     0.226315    0.1980196 -62.97 0.0006318931    1.363    0.266
       161  -8.7803    160.9088    194.0535   6.7465977809e+01   1.0486010376e+01    0.3028503    0.2077151  75.44 0.0008874109    1.951    0.487
       162  -8.4478    231.0239    194.2652   5.3989757796e+01  -2.7816281258e+00    0.1778985      0.15507  23.46 0.0005511985    1.045    0.043
       163  -8.6499     76.9883    193.7126   8.5069376078e+01   2.5341966123e+01    0.2409959    0.1700355  75.43 0.0006596232    1.239    0.193
       164  -9.0396     43.7821    192.8786   9.1791997666e+01   3.0013988569e+01    0.4125521    0.1872075  73.01  0.001991217    2.334    0.572
       165  -8.2076    199.0168    191.7384   5.9459649298e+01   3.5002159227e+00    0.2164816    0.1768423 -65.42 0.0006456085    1.597    0.374
       166  -8.4468    172.5925    191.6463   6.4674423560e+01   8.6455941777e+00    0.2648408    0.1869718  77.91 0.0007822462    2.004    0.501
       167  -9.0458    139.4942    190.5515   7.1369688598e+01   1.5268430462e+01     0.364426    0.2354598  78.22  0.001296307    2.083    0.520
       168  -9.3603    249.3791    185.6180   4.9202008467e+01  -4.7225047047e+00    0.4292776    0.2498863 -21.70  0.001713095    1.846    0.458
       169  -7.8128    205.2834    191.6351   5.8241956316e+01   2.3244168569e+00    0.1276148     0.106477  87.97 0.0004016703    1.687    0.407
       170  -8.3134    179.3430    191.2239   6.3239193321e+01   7.3995916342e+00    0.1831232    0.1292441 -58.36 0.0006582635    1.737    0.424
       171 -10.3892     92.4038    188.6974   8.1202258289e+01   2.4003694893e+01    0.9588931    0.2552873  51.06  0.003055129    3.797    0.737
       172  -8.4082     21.1138    190.9487   9.6101855067e+01   3.2965015726e+01    0.3187521    0.1104832  68.61  0.001364277    3.262    0.693
       173  -8.6922    215.8304    195.2262   5.6917052589e+01  -1.9801644852e-01    0.2593119    0.1811027 -55.85  0.001109929    1.981    0.495
       174  -8.7782    237.3195    188.1583   5.1749011322e+01  -3.0065161122e+00    0.3085595    0.1647593 -29.19  0.001160346    1.994    0.498
       175  -9.2299    155.9952    187.2956   6.7356078996e+01   1.2706863424e+01    0.3568474    0.2268214 -65.23   0.00101168    1.986    0.497
       176  -8.6222    148.5683    188.9553   6.9194766728e+01   1.3837730802e+01    0.2479591    0.1707987 -72.83  0.001111247    1.816    0.449
       177  -8.8817    129.3435    188.4682   7.3210239821e+01   1.7592725995e+01    0.3020314    0.1883106  70.35 0.0008436373    1.901    0.474
       178  -9.5206    120.7239    186.0987   7.4710681161e+01   1.9664884479e+01    0.4942048    0.2624454 -75.38  0.002044207    2.681    0.627
       179  -8.7419     34.3281    188.0521   9.3285394643e+01   3.2137707974e+01    0.3202507      0.13846  75.59  0.001511661    2.495    0.599
       180  -8.8699    216.5170    187.6537   5.5400619401e+01   8.3987244660e-01    0.2329423    0.2176588 -78.47 0.0008243911    1.371    0.270
       181  -8.8538    191.6307    187.2795   6.0091045567e+01   5.6749440793e+00    0.3218182    0.2378266 -85.94  0.001469545    2.153    0.536
       182  -9.1599     54.7402    186.5204   8.8963846664e+01   2.9978933438e+01    0.4208743     0.184794  75.07  0.001758923    2.983    0.665
       183  -8.0786    230.7198    187.2228   5.2738142402e+01  -1.6985750924e+00     0.183248    0.1630984 -53.86 0.0007525811    1.431    0.301
       184  -8.6852    165.0487    186.6464   6.5356460172e+01   1.1042731679e+01    0.2801498    0.2072436  85.06  0.001174199    1.803    0.445
       185  -9.2096    109.5472    185.7896   7.7096180893e+01   2.1727424003e+01    0.4017758    0.2370794  80.59  0.001132475    2.249    0.555
       186  -8.6422    202.9117    184.4439   5.7371243835e+01   3.9499539501e+00       0.2322    0.1938362 -65.75 0.0006388337    1.534    0.348
       187  -8.7381    183.0394    184.7499   6.1341281300e+01   7.8108274554e+00     0.264622    0.2219394 -86.41  0.000895393    1.497    0.332
       188  -9.1171     66.8439    184.3804   8.6178158959e+01   2.8799353715e+01     0.361416    0.1907738  64.92  0.001108437    1.870    0.465
       189  -8.5413    224.1924    183.4781   5.3205665093e+01   5.8413718248e-02     0.227158    0.1786758 -33.79 0.0005991175    1.342    0.255
       190  -8.5606    210.0726    183.9195   5.5907250332e+01   2.6532095793e+00     0.218352    0.1918507 -31.46  0.000637831    1.226    0.184
       191  -8.1908    197.2709    183.4107   5.8271826218e+01   5.2258856944e+00    0.2157915    0.1681899 -68.90 0.0006646236    1.737    0.424
       192  -8.9619    174.2436    183.3528   6.2876187436e+01   9.8184451143e+00    0.2856609    0.2310304 -80.95 0.0004668443    1.548    0.354
       193  -8.5162    241.4334    181.2024   4.9715994482e+01  -2.7213326320e+00    0.4223437    0.2153894 -56.60  0.001485879    4.796    0.792
       194  -8.9537     44.5534    182.1281   9.0673641585e+01   3.2201340337e+01    0.3577785      0.18318  74.28 0.0009859424    1.946    0.486
       195  -8.3977      2.0211    183.6119   9.9294561103e+01   3.6289891176e+01    0.1938015    0.0704523  44.45  0.001076378    2.361    0.576
       196  -9.5034    147.1358    179.9048   6.7980900974e+01   1.5893801452e+01    0.4578397     0.297379 -84.94  0.001351001    2.308    0.567
       197  -7.7918     83.3916    182.1371   8.2325753157e+01   2.6836972280e+01    0.1821056    0.1123155 -84.67  0.000610143    1.678    0.404
       198  -8.2637    235.3613    181.2038   5.0773851387e+01  -1.6389356068e+00    0.1771634    0.1170571 -44.32 0.0005755593    1.726    0.421
       199  -7.7794     90.3362    181.3291   8.0694507980e+01   2.5913637220e+01    0.1223932    0.1085973 -22.64 0.0007052002    1.729    0.421
       200  -9.5391     25.4999    178.3822   9.4302346848e+01   3.5145877686e+01    0.6556957    0.2267498  80.20  0.002314259    4.637    0.784
       201  -8.6603    137.7526    179.1895   6.9898165034e+01   1.7876614560e+01    0.3376593    0.1962797  62.88  0.001275682    1.953    0.488
       202  -9.4042    191.5656    178.0947   5.8396806101e+01   7.2802128456e+00    0.3259955    0.2599373  82.34 0.0006549434    1.663    0.399
       203  -7.9487    169.5738    178.7195   6.3001604489e+01   1.1620308902e+01    0.1841747    0.1371859 -65.18 0.0007594303    1.615    0.381
       204  -9.1679     36.0303    176.4742   9.1948890780e+01   3.4416885789e+01    0.5303891    0.2032131  79.04  0.001977083    3.962    0.748
       205  -9.6468    248.5015    176.4395   4.7592565846e+01  -3.2690799711e+00    0.5041107    0.2605372 -46.39  0.001914831    2.384    0.581
       206  -8.7152    250.3425    172.5996   4.6534993177e+01  -3.0336206045e+00    0.2329167    0.1752022 -36.46 0.0006147425    1.366    0.268
       207  -8.7544    205.0947    177.3965   5.5614009761e+01   4.6998800292e+00    0.2803312    0.1807727 -45.65  0.000922724    1.723    0.419
       208  -8.6948    129.3415    177.2528   7.1427748287e+01   1.9894627586e+01    0.3527301    0.2106364  82.90  0.001115689    2.667    0.625
       209  -8.6683    231.1336    176.7589   5.0663152662e+01  -1.9370981404e-01    0.2219759    0.1758686 -42.61 0.0008846443    1.402    0.287
       210  -8.4961    217.4519    176.9387   5.3188263599e+01   2.3633257354e+00    0.2263567    0.1879123 -54.42 0.0006699761    1.455    0.313
       211  -8.0703     97.3561    177.3078   7.8581735440e+01   2.5632516297e+01    0.1255268    0.1114783 -10.28 0.0005457292    1.725    0.420
       212  -8.7359     89.2087    176.6527   8.0317257637e+01   2.7113392796e+01    0.2915901    0.1820245  73.09 0.0009280463    1.685    0.407
       213  -9.4307     58.7616    175.3769   8.6934386562e+01   3.1869667549e+01    0.4861034    0.2160728  68.34  0.002024928    2.843    0.648
       214  -9.1705     55.9792    170.7190   8.7030871734e+01   3.3266109501e+01    0.3611776    0.1892396  78.63  0.001723414    2.133    0.531
       215  -8.8668     13.0993    176.2124   9.6661157143e+01   3.6828289108e+01    0.2721576    0.1278803  72.49  0.001205281    1.919    0.479
       216  -8.2138    211.4482    176.2206   5.4174277681e+01   3.6463311372e+00     0.183838    0.1306467 -52.14 0.0009419893    1.691    0.409
       217  -9.0352    183.0490    175.7992   5.9676737630e+01   9.4184454327e+00    0.2670788    0.2261947 -82.55 0.0009121618    1.441    0.306
       218  -9.2008    158.8339    174.9123   6.4578272938e+01   1.4536025589e+01    0.3979806    0.2595645  76.48  0.001344291    2.233    0.552
       219  -9.3989    104.3717    174.5988   7.6606373611e+01   2.5024415604e+01    0.5406613    0.2570917  65.91  0.001977299    3.106    0.678
       220 -10.7454     75.8205    169.9248   8.2448338084e+01   3.0678230228e+01     1.226112    0.4448153 -77.14  0.003822596    4.734    0.789
       221  -9.7012     81.3876    155.3686   7.9084302340e+01   3.3133424267e+01    0.5082022    0.4627812 -64.09  0.001906906    1.250    0.200
       222  -8.6690    224.6149    174.1447   5.1325293844e+01   1.4390210604e+00    0.1988266    0.1657695 -51.22 0.0006847666    1.421    0.296
       223  -9.7422    175.7719    172.1725   6.0485006769e+01   1.1586310602e+01    0.3277495    0.2676407 -53.93 0.0008107762    1.351    0.260
       224  -8.4784    143.1219    172.6891   6.7597815494e+01   1.8152042884e+01    0.2413544    0.1911605 -78.98  0.000623638    1.401    0.286
       225  -8.5839    134.9075    171.5036   6.9215440334e+01   2.0022405027e+01    0.2684299    0.1955678 -82.16 0.0008897929    1.603    0.376
       226  -8.9122     45.1512    171.0476   8.9464442552e+01   3.4544527295e+01    0.3520937     0.174037  84.69   0.00138413    2.182    0.542
       227  -8.4576    205.9233    170.2128   5.4049393748e+01   5.7569955723e+00    0.2776619    0.1899146 -50.85 0.0007949225    1.691    0.409
       228  -9.5198    121.4159    170.2717   7.2050255170e+01   2.2876524955e+01    0.3803883    0.2534587  77.50 0.0009376472    1.789    0.441
       229  -8.4737    237.3052    169.3297   4.8111551129e+01  -1.9413850200e-01    0.2181185    0.1761466 -33.56 0.0008005279    1.258    0.205
       230  -9.0947    230.3055    168.7312   4.9226414725e+01   1.2142860370e+00    0.4108416    0.1850759 -45.68  0.001714919    2.555    0.609
       231  -8.3679    198.2498    169.8624   5.5475820232e+01   7.3762846433e+00    0.2066796    0.1904887  88.62 0.0006840487    1.257    0.204
       232  -8.6789    150.0343    169.3933   6.5478608938e+01   1.7433792291e+01    0.3086145    0.2235442 -85.37 0.0009182653    1.766    0.434
       233  -8.1696    244.5754    169.3251   4.6859696225e+01  -1.5244551018e+00     0.178947    0.1568339 -69.89 0.0005572698    1.572    0.364
       234  -9.1631    167.0197    168.3432   6.1596774444e+01   1.4139130209e+01    0.3721955     0.227129  67.26 0.0009580705    2.210    0.547
       235  -8.3656     88.8628    168.7247   7.9287570655e+01   2.8923642137e+01    0.2646872    0.1566319  82.51  0.000952905    2.057    0.514
       236  -8.5205    218.8472    168.1228   5.1188456576e+01   3.5317872699e+00    0.1958645    0.1883369  89.31 0.0004991515    1.228    0.186
       237  -8.0702    211.5597    167.8388   5.2497745220e+01   5.0285306921e+00    0.1874436    0.1317975 -52.24 0.0006490925    1.677    0.404
       238  -8.9081    111.6628    167.4564   7.3821498014e+01   2.5292155835e+01    0.3499203    0.2154187  67.88  0.001293298    1.829    0.453
       239  -8.8274    191.9077    166.5848   5.6086899711e+01   9.2724296819e+00    0.2515967    0.2096672 -52.87 0.0004797799    1.326    0.246
       240  -8.3951    184.9423    166.2895   5.7442554687e+01   1.0781252982e+01    0.2348846    0.1940999 -62.73 0.0004979419    1.390    0.280
       241  -8.0204     13.3180    167.6464   9.5997903582e+01   3.8629767000e+01    0.1258267   0.06445371  70.17 0.0005645815    1.745    0.427
       242  -9.6596    137.2982    164.5142   6.7430506570e+01   2.1024508643e+01    0.7276319    0.2914504  58.28  0.002246442    3.703    0.730
       243  -9.9943     94.9969    162.6457   7.6947240342e+01   2.9278848136e+01    0.8487686    0.4153299  75.03  0.002726231    4.238    0.764
       244  -9.0229     20.3337    165.9584   9.4381417679e+01   3.8337707199e+01    0.2664649    0.1206543  61.83  0.001394562    2.109    0.526
       245  -8.3995    234.0953    164.6987   4.7743730447e+01   1.1312886198e+00    0.2180496    0.1799453 -47.02 0.0007435236    1.363    0.266
       246  -9.3123     33.4615    163.0889   9.1256902000e+01   3.7632542173e+01    0.4988165    0.1795467  58.16  0.002115249    3.063    0.674
       247  -8.7182    212.8540    163.5602   5.1387053520e+01   5.4961195000e+00    0.2527898     0.198816 -47.56 0.0006938209    1.393    0.282
       248  -8.6682    159.4790    163.8736   6.2363497329e+01   1.6603438061e+01    0.2747864    0.2164409  82.54 0.0007861006    1.483    0.326
       249  -8.8743    246.0643    162.9544   4.5332210718e+01  -8.3222006944e-01    0.1967722    0.1810473  -1.75 0.0004304121    1.033    0.032
       250  -8.4174    204.9631    162.5287   5.2686966136e+01   7.2900054040e+00    0.2514208    0.1927791 -55.86 0.0005464432    1.524    0.344
       251  -9.1259      3.3357    162.0306   9.7681106288e+01   4.0687667431e+01     0.394413    0.1335409  61.71  0.001822028    3.046    0.672
       252  -9.1221    177.3875    160.5672   5.7863790212e+01   1.3465862476e+01    0.2917408    0.2520905 -80.06 0.0008987531    1.321    0.243
       253  -8.7950    151.6627    160.6868   6.3472486424e+01   1.8890006285e+01    0.2879795    0.2200605 -76.79 0.0007854005    1.530    0.346
       254  -9.7268    242.7066    149.4270   4.3111383808e+01   1.9070872675e+00    0.3677388    0.2514548  51.84  0.001933577    1.583    0.368
       255 -10.4398    241.8899    143.4091   4.1975428950e+01   3.0323011176e+00      0.55896    0.3549094  -0.01   0.00243859    2.491    0.599
       256  -9.4258    242.4530    159.5455   4.5250173816e+01   3.6131378416e-01    0.2127405    0.1718133 -15.50 0.0005986208    1.222    0.182
       257  -9.9244    241.5726    154.0173   4.4260895585e+01   1.3956897665e+00    0.5398867    0.3398106  78.32  0.002075004    3.808    0.737
       258  -9.7632    250.1735    157.5770   4.3556427135e+01  -7.6557826459e-01    0.3390888    0.1914401 -38.90 0.0008722421    1.733    0.423
       259  -8.9913    246.5882    155.4747   4.3719217692e+01   2.2001728030e-01    0.1975229    0.1513034   6.69  0.000145347    1.439    0.305
       260  -9.1861    237.0847    158.9531   4.6050050540e+01   1.4713072786e+00    0.2819636      0.16896 -50.36 0.0008391814    2.032    0.508
       261  -8.6653    227.3758    158.8119   4.7734037582e+01   3.3833147162e+00    0.2908981     0.217407 -63.25 0.0008713148    1.824    0.452
       262  -8.6045     60.8042    159.9405   8.4637773995e+01   3.5054684478e+01    0.2962847    0.1641879  66.74  0.001096086    1.910    0.477
       263  -8.1022    128.1462    158.5435   6.8441272067e+01   2.4128985992e+01    0.2473009    0.1893269 -89.61 0.0007609513    1.439    0.305
       264  -9.6190    106.0210    157.6772   7.3519616460e+01   2.8487792440e+01    0.5362374    0.3339191  76.92  0.001497768    2.028    0.507
       265  -8.5629    196.5321    157.3987   5.3286498042e+01   9.9792718549e+00     0.239556    0.1999295 -69.77 0.0005747083    1.436    0.304
       266  -8.3742    188.1745    157.6149   5.5019958073e+01   1.1722431041e+01    0.2474322    0.1937622 -56.72 0.0006703163    1.428    0.300
       267  -9.2837    167.6602    157.0026   5.9217344152e+01   1.6251369825e+01    0.3763409    0.2704903 -89.27  0.001212298    1.955    0.488
       268  -8.6654    217.9348    156.3399   4.8943792029e+01   5.6963681617e+00    0.3005835    0.1898223 -53.54 0.0009203537    1.940    0.485
       269  -9.1752    157.3968    155.8810   6.1244108091e+01   1.8675926308e+01    0.2777968    0.2159489 -84.88 0.0008070103    1.546    0.353
       270  -9.2078    119.6692    154.9592   6.9781489540e+01   2.6567164955e+01    0.4089727    0.2665851 -88.79  0.001430528    2.024    0.506
       271  -9.3347     49.7590    155.1602   8.6650814428e+01   3.7552199571e+01    0.3891936    0.1896005  62.89  0.001815851    2.259    0.557
       272  -8.5292     33.5520    155.7975   9.0506983051e+01   3.9248019477e+01    0.2184474    0.1504524  17.88  0.001274864    2.196    0.545
       273  -8.2118    204.5380    154.8775   5.1181930609e+01   8.7398275511e+00    0.2217934    0.1960042  87.18  0.001095932    1.341    0.254
       274  -8.4437    144.1569    154.4482   6.3950592553e+01   2.1768464141e+01    0.2405259    0.1967026  88.92 0.0004439071    1.328    0.247
       275  -9.4130     68.1663    153.7555   8.2053638819e+01   3.5459520174e+01    0.4258446    0.2146669  65.39  0.001394187    2.413    0.586
       276  -8.2901     23.4637    155.4907   9.2777320097e+01   4.0333001730e+01    0.1743758    0.1205975  10.19  0.001028873    2.411    0.585
       277  -9.8017    132.7598    152.7477   6.6265611790e+01   2.4476875084e+01    0.4636148    0.3252451  74.73  0.001263617    1.672    0.402
       278  -8.8675    133.5006    148.0287   6.5162673797e+01   2.5362100958e+01    0.3292583    0.2855001  10.05  0.001461713    1.529    0.346
       279  -9.5664     29.1645    150.2136   9.0949222912e+01   4.0951913948e+01    0.4504852    0.1998263  75.72  0.001986125    2.801    0.643
       280  -8.6948      2.9050    150.6353   9.6955046563e+01   4.3167354093e+01    0.2748476    0.1172323 -80.88  0.001111873    1.847    0.459
       281  -9.6062    248.9428    149.2532   4.2041087990e+01   7.4614739451e-01    0.3576811    0.1795308 -36.38 0.0008082255    1.894    0.472
       282  -9.0676    247.1088    143.6788   4.1169980993e+01   1.9730441777e+00    0.2460658    0.1832465 -28.15 0.0005215688    1.289    0.224
       283  -8.8474    189.4098    149.9918   5.3162112127e+01   1.2899150473e+01     0.339372    0.2290731 -67.93 0.0008924344    2.074    0.518
       284  -8.0666    182.6270    151.2845   5.4840150877e+01   1.4133331735e+01    0.2238304    0.1716172 -88.81 0.0006770809    1.730    0.422
       285  -8.5763     98.4428    150.7664   7.4174189854e+01   3.1394011063e+01    0.2801203    0.1993216  76.55 0.0008986444    1.495    0.331
       286  -8.4235    213.0879    149.6475   4.8434066660e+01   7.8650465879e+00    0.2352905    0.1952107 -52.77 0.0005964502    1.318    0.241
       287  -8.2939    162.4248    150.2675   5.8975804927e+01   1.8751092018e+01    0.2587453    0.1827437  70.99 0.0006896609    1.694    0.410
       288  -8.5224    198.8929    148.5271   5.0937160326e+01   1.1107719557e+01    0.2625623    0.2003121 -60.95 0.0007142217    1.543    0.352
       289 -10.0159     89.2888    146.0235   7.5634397401e+01   3.4030336113e+01    0.7135684    0.3698076 -88.14   0.00250905    3.455    0.711
       290  -9.4523     39.8894    147.6756   8.8119544795e+01   4.0401038584e+01    0.4966156     0.223765  66.76  0.001931982    2.797    0.642
       291  -9.8466    233.6672    147.3830   4.4223438775e+01   4.0151660695e+00    0.4106964    0.1919629 -31.36  0.001479935    2.295    0.564
       292 -10.3694    149.0351    144.9967   6.0899751079e+01   2.2756853527e+01    0.6327484    0.4042658  82.48  0.001704686    2.509    0.601
       293 -10.2261     55.0415    144.5828   8.4006108858e+01   3.9327100982e+01    0.7547541    0.3330172  68.93   0.00272264    3.796    0.737
       294  -9.9357     55.5495    135.7736   8.2620512519e+01   4.1307647348e+01    0.5208257    0.3284416  -0.39  0.002222275    3.617    0.724
       295  -8.4653    223.4526    146.6554   4.5878223988e+01   6.2182388201e+00    0.2620528    0.2266415 -59.37 0.0007494482    1.314    0.239
       296 -10.0324    106.7250    144.4614   7.0993432406e+01   3.1367446733e+01     0.724917      0.44804  79.28  0.003040036    2.244    0.554
       297  -9.1511     77.9663    146.5912   7.8566004758e+01   3.5684372598e+01    0.2659305    0.1740556 -86.74 0.0008277889    1.615    0.381
       298  -9.2389     13.2873    146.0173   9.4236954845e+01   4.3344557236e+01     0.340949    0.1650776  74.02  0.001573495    2.097    0.523
       299  -8.0213    206.6770    146.1453   4.8900122518e+01   9.8588391609e+00    0.2203094    0.1769141 -59.39 0.0006028397    1.421    0.296
       300  -8.1826    175.8604    146.1203   5.5165465305e+01   1.6639326991e+01    0.2350538    0.1978398  89.70 0.0006443864    1.361    0.265
       301  -9.7072    139.2822    144.9242   6.3163123930e+01   2.4845182161e+01    0.4137903    0.2716024 -82.81  0.001219844    2.183    0.542
       302  -9.7508    125.1326    142.6958   6.6106592476e+01   2.8241451861e+01    0.5149473    0.3366684  87.61  0.001431587    2.165    0.538
       303  -8.6355    165.6570    143.8466   5.6894037132e+01   1.9362856279e+01    0.2674746    0.2216412  87.77 0.0006755406    1.365    0.268
       304  -7.7150    194.3369    143.6965   5.0796380318e+01   1.3010948121e+01     0.150876    0.1180451  89.37 0.0003407765    1.668    0.400
       305  -8.6884    105.3260    138.3661   7.0186273182e+01   3.3023961469e+01    0.4691205    0.2197156  26.62  0.001417375    4.545    0.780
       306  -9.6964     73.2574    129.2206   7.6876921328e+01   4.0441676059e+01    0.3784362    0.2407671  74.52 0.0009911843    1.896    0.473
       307 -10.5936     69.3060    140.8365   7.9849366354e+01   3.8292801500e+01    0.5775807    0.3452725 -88.20  0.002001629    1.907    0.476
       308  -9.8026     70.0463    133.8607   7.8527792919e+01   3.9817761844e+01    0.3327033     0.242263   9.29  0.001677934    2.196    0.545
       309  -8.3289    182.0076    141.3769   5.2822994968e+01   1.6208607960e+01    0.2720359    0.2067402 -74.13 0.0007430826    1.653    0.395
       310  -9.1276      2.6361    141.3945   9.6295118009e+01   4.5193546635e+01    0.3374808    0.1387398  71.23  0.001632011    2.676    0.626
       311  -8.0121    250.4834    140.5194   3.9953889503e+01   1.8246999178e+00    0.1329231    0.1235117 -20.97 0.0008099814    1.027    0.027
       312  -8.8113    172.1669    137.8708   5.4148687520e+01   1.9127871662e+01    0.3328183    0.2311374 -70.13 0.0007701929    1.869    0.465
       313  -8.8482    139.6581    137.6499   6.1540304294e+01   2.6358563685e+01    0.4672361    0.2844672 -21.76  0.001579352    3.582    0.721
       314  -9.9083     23.4705    137.9360   9.1018091937e+01   4.4260321037e+01     0.452264    0.2009709  61.62  0.002055341    2.574    0.611
       315  -7.8333    218.5623    138.4558   4.4979883868e+01   8.6740371632e+00    0.1399351    0.1386861 -44.52 0.0008052741    1.045    0.043
       316  -8.4572    207.7653    137.5847   4.6804922053e+01   1.1179864498e+01    0.2867081    0.1841737 -56.10 0.0007741864    1.856    0.461
       317  -8.6957    197.6594    137.3313   4.8717200517e+01   1.3474150938e+01    0.2739316    0.2216777 -72.40   0.00071242    1.478    0.323
       318  -9.0641    149.9602    136.1816   5.8784299838e+01   2.4446787796e+01    0.4985324    0.3386845   7.41   0.00183356    3.037    0.671
       319  -9.4546    241.1845    136.7502   4.0661853912e+01   4.2567335606e+00    0.2969989    0.1933548 -24.79  0.001458326    1.633    0.388
       320  -8.6582    246.9884    129.9735   3.8245133990e+01   4.1981917453e+00    0.2652446    0.1798342 -37.08 0.0007047234    1.384    0.278
       321  -8.9837    248.4302    134.8771   3.9076776362e+01   3.1213488001e+00    0.3088619     0.213864 -38.65 0.0008604215    1.367    0.268
       322  -9.0828    250.7554    129.2785   3.7499129192e+01   3.5616201025e+00    0.5449715    0.1206292 -36.37   0.00152125    4.231    0.764
       323  -8.7364    162.3888    136.0672   5.5909242364e+01   2.1705133022e+01    0.2747588    0.2082292  78.97 0.0007417888    1.577    0.366
       324 -10.3259     83.3841    132.9865   7.4859517805e+01   3.8019215664e+01    0.5540196     0.319114 -69.93  0.001469505    1.776    0.437
       325  -9.1792     38.9821    135.6767   8.6869713421e+01   4.3246890548e+01    0.2649424    0.1617171  72.98 0.0007368699    1.714    0.416
       326  -8.0595    187.7893    135.5675   5.0316877720e+01   1.6040977178e+01    0.2060028    0.1428607  61.34 0.0004273058    1.546    0.353
       327  -8.3221    124.8453    135.4246   6.4678241502e+01   2.9934302759e+01    0.2135187    0.1428907  33.47  0.000943779    1.750    0.429
       328  -8.0699    231.4610    133.9765   4.1698430871e+01   6.7136071146e+00    0.2105739    0.1337145 -38.69 0.0004251345    1.529    0.346
       329  -8.5885    179.3434    133.6785   5.1655637085e+01   1.8340246726e+01     0.315765    0.2408379 -83.98 0.0009262745    1.683    0.406
       330  -8.9620    157.1442    133.7981   5.6589943453e+01   2.3359911118e+01    0.2075983    0.1867916  13.75 0.0006233138    1.330    0.248
       331  -8.8733    113.1388    133.2334   6.7168488600e+01   3.2741169084e+01    0.3477222    0.2287855  82.21 0.0008947444    2.065    0.516
       332  -7.9187    237.4558    133.2399   4.0517939206e+01   5.5944062138e+00    0.1966248    0.1249573 -47.47  0.000839505    1.638    0.390
       333  -9.9966    132.0840    130.9801   6.1927050457e+01   2.9437120409e+01     0.503282    0.3068118 -74.99  0.001144354    2.387    0.581
       334  -9.4051    143.1396    131.0626   5.9256540841e+01   2.7049828374e+01    0.4611722    0.2599106 -51.44  0.001461837    1.832    0.454
       335  -9.9942     97.8903    129.3664   7.0338491562e+01   3.6439987439e+01    0.6166641    0.2365646 -53.11  0.002293148    2.514    0.602
       336  -9.7923    153.0551    128.6554   5.6362663150e+01   2.5371926022e+01    0.5492327    0.2558018 -53.97  0.001061975    2.420    0.587
       337 -10.4925     60.5228    125.4430   7.9667706192e+01   4.3083722288e+01    0.7896898    0.4140664  77.37   0.00310977    3.115    0.679
       338 -10.0324     12.7756    128.7485   9.2699754186e+01   4.7223373825e+01    0.4908445    0.2378466  79.80  0.001825872    2.233    0.552
       339  -8.2214    204.6556    130.1270   4.5712592465e+01   1.3247808888e+01     0.236489    0.1796144 -60.12 0.0007731452    1.492    0.330
       340  -8.2350    192.8564    130.0685   4.8024025065e+01   1.5948039474e+01    0.2298131    0.1999901 -78.05 0.0004383928    1.275    0.216
       341  -9.1741    168.2502    129.3964   5.3077765749e+01   2.1755711679e+01    0.3401239    0.2561581  89.44 0.0006402634    1.692    0.409
       342  -7.8465      1.5024    129.9858   9.5598056344e+01   4.7767526868e+01    0.1640968    0.0724199  78.92 0.0008083445    2.399    0.583
       343  -7.6094    220.4986    129.5673   4.2640419358e+01   9.8235495773e+00    0.1409236    0.1402026 -22.36 9.012223e-05    1.015    0.015
       344  -8.1373    211.5702    128.8204   4.4103885571e+01   1.1932735197e+01    0.2138072    0.1339511 -51.58  0.000938985    1.745    0.427
       345 -10.7559     45.2131    123.5065   8.3526212061e+01   4.5380226544e+01     1.083117    0.5071204  78.31  0.003875957    4.085    0.755
       346  -9.9811    117.7693    124.8351   6.4182970785e+01   3.3752733705e+01    0.5581557    0.3557161  77.90  0.000954835    2.295    0.564
       347  -7.6971    228.5220    125.4654   4.0302348396e+01   8.7965733657e+00    0.1411957    0.1365153 -48.12 0.0004048854    1.038    0.037
       348  -8.9543    179.1875    124.6839   4.9596231524e+01   2.0175127974e+01    0.3233808    0.2509795  79.00 0.0008004515    1.513    0.339
       349 -10.2601     28.6361    122.0835   8.7802624712e+01   4.7388482183e+01    0.7057815    0.3233625  75.71  0.002908328    3.327    0.699
       350  -9.4429    235.1387    124.2068   3.8899528726e+01   7.5959444006e+00    0.2661704    0.2111202  81.03  0.001384307    1.582    0.368
       351  -7.9606    188.4895    123.9759   4.7487042631e+01   1.8139750537e+01    0.2129346    0.1295024 -64.89 0.0004763766    2.344    0.573
       352  -8.9532    134.6711    124.5643   5.9842087096e+01   3.0312567364e+01    0.2988166    0.1471778  41.93  0.001134872    2.087    0.521
       353  -9.9660    131.3047    118.7057   5.9317207951e+01   3.2331886621e+01    0.6410007    0.3872077  78.47  0.001951123    2.923    0.658
       354  -8.7720     85.0173    122.6307   7.2451019827e+01   4.0178797574e+01    0.4513062    0.2862233  10.30   0.00178508    3.220    0.689
       355  -7.9376    203.3432    121.7589   4.4019270002e+01   1.5106241456e+01    0.2036285    0.1411983 -32.15 0.0005836463    1.543    0.352
       356  -8.9088    172.0723    121.3702   5.0339981603e+01   2.2511630038e+01    0.2848102    0.2233609 -56.24 0.0004413351    1.331    0.249
       357  -9.3673    158.6745    121.4332   5.3361193398e+01   2.5622379289e+01    0.3625636    0.2705376 -88.77  0.001048287    1.705    0.414
       358  -7.6863    101.6245    131.7063   6.9827990266e+01   3.5233343465e+01    0.1417969    0.1181841  -9.72 0.0003544441    1.739    0.425
       359  -9.7990     71.0506    119.2597   7.5658092150e+01   4.3091110263e+01    0.4135166    0.2375139 -77.55  0.001208085    2.017    0.504
       360  -9.9633    141.5667    117.9023   5.6573229488e+01   3.0265883239e+01    0.6330665    0.3422057 -60.66  0.001435924    2.294    0.564
       361  -8.7118    100.5473    119.6203   6.7594165607e+01   3.8222606614e+01     0.514358    0.2601081  22.12  0.001495144    5.092    0.804
       362  -9.6194      2.9923    117.2183   9.4014839560e+01   5.0474893780e+01    0.4797489    0.2010195  74.67  0.002182827    3.096    0.677
       363  -8.1023    231.5886    117.7391   3.8024974084e+01   9.4613988516e+00    0.2027839    0.1268986 -47.66 0.0007639884    1.612    0.380
       364  -9.8949    109.4944    114.1886   6.3953958583e+01   3.7794849492e+01    0.5019138    0.2955362 -70.05  0.001357992    2.191    0.544
       365  -8.3719    185.5189    115.5156   4.6063237272e+01   2.0494483732e+01    0.2651178    0.1411238 -51.93 0.0007928445    2.084    0.520
       366  -8.4457    250.3021    114.9326   3.4420264139e+01   5.9688486208e+00    0.1930685    0.1755405 -29.59  0.001147849    1.050    0.048
       367  -8.4788    192.9588    115.1329   4.4462799568e+01   1.8796579382e+01    0.2395673    0.2013209 -80.53  0.000588551    1.332    0.249
       368  -9.9468     78.9936    112.3203   7.2030398161e+01   4.3525729879e+01    0.5696421    0.3535846 -87.59  0.001825596    2.253    0.556
       369  -9.0176     58.8063    115.3624   7.8388403645e+01   4.5654554530e+01    0.2634186    0.1761181 -10.84 0.0009955633    2.730    0.634
       370 -10.2651     66.3481    110.2782   7.5255546670e+01   4.5838602459e+01    0.3808692    0.2679419 -89.11  0.001369663    1.614    0.380
       371  -8.6189    167.5194    114.0550   4.9558712878e+01   2.5080290576e+01    0.2344707    0.1548916 -45.30 0.0005712383    1.546    0.353
       372 -10.1009     92.7817    112.1279   6.8084860314e+01   4.1319984973e+01    0.5815153    0.3299191 -70.27  0.001509378    2.157    0.536
       373  -9.9586    133.4548    109.4601   5.6522450481e+01   3.3897614136e+01    0.6611931     0.355258 -51.07  0.002085499    1.902    0.474
       374  -9.7562    121.8970    112.2720   6.0198437023e+01   3.5744705722e+01    0.3773536    0.2928243 -85.90 0.0007997486    1.504    0.335
       375 -10.5535    248.5133    107.5713   3.3043303971e+01   7.5374757965e+00    0.5024734     0.293949 -38.36   0.00240657    1.572    0.364
       376  -9.8619    249.5476    101.9865   3.1631993884e+01   8.2278899953e+00    0.4458829    0.1982406 -30.16  0.001671529    2.441    0.590
       377  -8.4821    174.8209    111.5700   4.7342409626e+01   2.3838454249e+01    0.3037355    0.1964435 -59.81 0.0006464074    1.808    0.447
       378  -8.7972    159.1900    111.5669   5.0822663823e+01   2.7565442286e+01    0.2798921    0.2165711 -51.01 0.0005439263    1.317    0.241
       379  -9.7015     14.2875    110.8051   9.0260316101e+01   5.1121835246e+01    0.4259917    0.2249826  85.01  0.002111903    2.048    0.512
       380  -8.0211    150.1759    110.1193   5.2570678423e+01   2.9977270109e+01    0.2236355    0.1830345 -85.01 0.0005443767    1.375    0.273
       381  -7.8249    182.8505    109.5804   4.5148947194e+01   2.2297004326e+01    0.2094712    0.1471508  66.67 0.0004298502    1.551    0.355
       382  -8.0377    189.4029    107.6876   4.3340416360e+01   2.1078661888e+01    0.2792267    0.1448352 -44.98 0.0007801173    1.944    0.486
       383  -8.7898    109.7054    107.2876   6.2256480188e+01   3.9312185522e+01    0.3641203    0.2548962  -0.22  0.001457698    2.706    0.630
       384  -8.1427      4.9797    109.0000   9.2604021281e+01   5.2158793448e+01    0.1530048   0.06653789  21.66 0.0008036046    2.951    0.661
       385  -9.8935    119.0256    105.4972   5.9290174135e+01   3.7841560244e+01    0.4364212    0.3648505  61.02  0.002236539    1.205    0.170
       386 -10.7372    108.6963     98.5097   6.0339814634e+01   4.1460245943e+01     1.012663    0.4998647  63.07  0.001314359    3.587    0.721
       387  -8.8690    107.4497     92.5312   5.9124705034e+01   4.3008445910e+01    0.5893852    0.3171215  28.87   0.00221674    2.712    0.631
       388 -10.7036     22.8743    102.3515   8.6651433627e+01   5.2356175881e+01    0.6738636    0.3449053  73.45  0.002494369    2.799    0.643
       389  -9.5520    150.7310    103.0847   5.0635267059e+01   3.1322354351e+01    0.5224153    0.3143649 -67.71  0.001750497    2.415    0.586
       390  -9.6199    139.8608    103.8153   5.3473709089e+01   3.3682323947e+01    0.4936191    0.2804239 -49.75  0.001618838    1.799    0.444
       391 -10.5246     45.7482    102.1424   7.9789717790e+01   5.0242690175e+01    0.6889891    0.3712474  74.51  0.002879005    3.150    0.683
       392  -9.3578     45.8347     92.4834   7.7887909889e+01   5.2418402636e+01    0.4193504     0.248694  -5.97  0.001877995    3.159    0.683
       393  -8.7287    166.7993    103.7825   4.7119373614e+01   2.7338525293e+01    0.3071122    0.2097764 -55.79 0.0006300012    1.573    0.364
       394  -9.9864    128.6099    101.8910   5.5839078058e+01   3.6597578894e+01    0.4010103    0.2949784 -79.17  0.001031973    1.709    0.415
       395  -8.7472      6.6667    102.6766   9.1387105462e+01   5.3445299743e+01    0.2295121    0.1295498  71.99 0.0007828586    2.015    0.504
       396  -8.1592    175.5313    101.6122   4.4661442009e+01   2.5641877036e+01    0.2807366    0.1396684 -51.83 0.0008142721    2.255    0.557
       397  -8.3994    159.9635    100.9437   4.7920364454e+01   2.9563740985e+01     0.244168    0.2209866 -79.13 0.0005403277    1.125    0.111
       398  -9.3536     82.0596     99.8230   6.8364252234e+01   4.5908995044e+01    0.3512669    0.2446498 -77.47    0.0011132    1.687    0.407
       399 -10.1099     64.1251     96.1333   7.2952075017e+01   4.9378459763e+01     0.621845    0.3643946 -79.36  0.001788513    2.309    0.567
       400  -9.1907     95.1309     96.9505   6.3816437529e+01   4.4345122282e+01    0.3114429    0.2346631 -70.76 0.0006230643    1.444    0.307
       401  -8.5280      7.3075     97.3340   9.0522119954e+01   5.4579427389e+01    0.1194922   0.06806305 -49.08 0.0003948805    1.670    0.401
       402  -8.2467    164.9765     93.9769   4.4943304186e+01   2.9736570037e+01    0.2512836    0.1876758 -78.84 0.0005196677    1.652    0.395
       403  -9.3641    139.2407     92.0590   5.0493473322e+01   3.6284895512e+01    0.4812385    0.3051579 -65.71  0.001435155    2.068    0.517
       404  -9.3174    120.4307     92.7913   5.5595665921e+01   4.0304191002e+01    0.2989466    0.2515429 -25.88  0.001305732    1.368    0.269
       405  -9.8569    124.7033     90.8573   5.3919757234e+01   3.9795968793e+01    0.4197818    0.3347754 -86.22  0.001031539    1.501    0.334
       406  -8.1935    176.3313     92.9622   4.2227695288e+01   2.7122876996e+01    0.2253411     0.197397 -53.98 0.0005559187    1.147    0.128
       407  -9.5281     34.8527     89.6661   8.0819818599e+01   5.4155186683e+01    0.4220997    0.2444829  89.05  0.001569999    2.359    0.576
       408  -9.0702     22.8378     89.8841   8.4672410390e+01   5.5136031209e+01    0.3093304      0.22382 -30.43   0.00167866    1.618    0.382
       409  -9.6498      5.0075     91.5560   9.0435439461e+01   5.5979794853e+01    0.2760675     0.172945  79.04  0.001280256    1.737    0.424
       410  -8.0654    157.8298     91.3671   4.5848352095e+01   3.2001959336e+01    0.2169341     0.190987 -70.17 0.0004400502    1.171    0.146
       411  -8.3266    151.0207     89.0151   4.6786927092e+01   3.4119210635e+01    0.2522475     0.188012 -76.98 0.0006199567    1.666    0.400
       412 -10.0696     86.4983     85.6603   6.3475701395e+01   4.8318197780e+01    0.6178254    0.3897356 -64.02  0.001961291    1.790    0.441
       413  -8.6561     64.9950     87.5519   7.0698047974e+01   5.1178954155e+01    0.3245425    0.2042591  -3.15  0.001391304    2.963    0.663
       414  -9.2432    248.5103     86.9793   2.8362316084e+01   1.0872690223e+01    0.1965947     0.123956  -9.95 6.656953e-05    2.655    0.623
       415  -9.7416     48.2826     83.8631   7.5254170350e+01   5.4063041458e+01    0.4797158    0.2969202  82.47  0.001743152    2.625    0.619
       416  -7.7201    179.3130     85.6529   3.9658926600e+01   2.7755687439e+01    0.1657716     0.119314 -75.20 0.0007046614    1.715    0.417
       417  -9.6717    104.7873     82.9822   5.7266993201e+01   4.5560733253e+01    0.4129363    0.2840934 -70.43 0.0008856662    1.887    0.470
       418  -8.6904    105.2686     77.0130   5.5407019950e+01   4.6697008369e+01     0.316829    0.2214326   0.16  0.001351279    2.346    0.574
       419  -8.3239    158.0174     83.5837   4.3653829299e+01   3.3474555932e+01    0.2395441    0.2047495 -44.60 0.0004636592    1.199    0.166
       420  -7.3416    170.6925     83.3436   4.0813151354e+01   3.0358371096e+01    0.1648565    0.1200946 -75.97 0.0007043371    1.693    0.409
       421  -9.2917    140.9017     82.5333   4.7409433656e+01   3.7816228120e+01     0.385255     0.213617 -44.60 0.0009163587    1.831    0.454
       422  -8.9970    140.5363     75.7076   4.5517455237e+01   3.9226736890e+01    0.3326433      0.24539 -42.31 0.0007614079    1.385    0.278
       423  -7.6802    185.3088     82.3115   3.7570687343e+01   2.6853768568e+01    0.1539654    0.1235603  20.97  0.000228703    1.623    0.384
       424  -8.1930     64.0992     82.3585   6.9712351314e+01   5.2438670859e+01    0.1761234    0.1692672 -87.84 0.0006918817    1.110    0.099
       425  -9.5811     24.6965     80.2966   8.2336908149e+01   5.7089143456e+01     0.382526    0.2244993 -88.50  0.001364717    2.168    0.539
       426  -9.2706     10.2516     81.0634   8.7232913409e+01   5.7937687088e+01    0.3608276    0.1764466  55.22  0.001838607    2.883    0.653
       427  -7.6109    164.2292     87.0000   4.3214338034e+01   3.1279722576e+01    0.2007311     0.130711 -41.15 0.0003374266    1.572    0.364
       428  -8.3531    150.2421     79.9873   4.4427735793e+01   3.6071680107e+01    0.3222027    0.1980518 -53.47  0.001084492    1.788    0.441
       429  -8.9426     74.4885     80.2662   6.5807862550e+01   5.1400164873e+01    0.3292292    0.2352178 -74.41  0.001206342    1.718    0.418
       430  -8.2104    166.8260     79.5723   4.0588307082e+01   3.2035088352e+01    0.2425307    0.1841029 -50.20 0.0004732005    1.345    0.256
       431  -8.7999    119.4710     79.4779   5.2109168957e+01   4.3267017297e+01    0.3585647    0.2412111 -51.12  0.001032529    1.528    0.346
       432  -7.9246    184.1902     78.0662   3.6640307512e+01   2.7902418601e+01    0.2088934    0.1208142 -37.01  0.000851256    1.786    0.440
       433  -7.3903    174.7080     78.3225   3.8592265179e+01   3.0270355953e+01    0.1606628     0.118665 -74.68 0.0003127424    1.611    0.379
       434  -8.1477    157.0281     76.2688   4.1799990135e+01   3.5102857207e+01    0.2176951    0.2009533  70.97 0.0004132929    1.043    0.041
       435  -9.2476    128.1758     75.1358   4.8490784415e+01   4.2205393157e+01    0.3506293    0.2430281 -61.41 0.0006475083    1.707    0.414
       436 -10.0448     63.0925     73.1565   6.7649707788e+01   5.4542280745e+01    0.4965071     0.274075 -63.76  0.001277148    2.075    0.518
       437  -9.6796     82.4127     72.2930   6.1031570192e+01   5.1815792997e+01    0.3995494    0.2840841 -72.56  0.001009431    1.859    0.462
       438  -8.3253    163.4744     73.0779   3.9465759247e+01   3.4071610684e+01    0.2342009    0.1518035 -42.33  0.001018254    1.573    0.364
       439  -8.2028    151.4747     72.9890   4.2111388065e+01   3.7086193064e+01    0.2297334     0.152652 -41.28 0.0006373586    1.542    0.352
       440  -8.5696    115.8723     72.6427   5.1072143981e+01   4.5392118852e+01    0.2760274    0.2087829 -53.73 0.0005577261    1.386    0.278
       441  -8.3923     42.8619     72.7535   7.4495530674e+01   5.7050160464e+01    0.2202813    0.1528302 -86.88 0.0008897522    1.919    0.479
       442  -7.7801    175.4813     72.4499   3.6799480911e+01   3.1127031000e+01    0.1548457    0.1470016  74.29 0.0004629278    1.032    0.031
       443  -8.9188    105.8244     71.4717   5.3589089210e+01   4.7695822051e+01    0.2669412    0.2200918 -75.86 0.0006332532    1.454    0.312
       444  -9.3051     95.2030     70.9405   5.6612111496e+01   4.9846781491e+01    0.3923287    0.2318985 -58.95  0.001016872    2.038    0.509
       445  -9.3176     29.3629     70.0223   7.8599430208e+01   5.8907432423e+01    0.4952872    0.2254414 -22.83  0.001871066    4.601    0.783
       446  -9.5119     51.4816     69.4968   7.0662237866e+01   5.6778568373e+01    0.3996998     0.233844 -74.94   0.00151398    2.508    0.601
       447  -9.1664     16.6351     68.8638   8.2859690577e+01   6.0123910670e+01    0.4676094    0.1540425 -67.50  0.001991895    2.788    0.641
       448  -7.4795    219.5184     69.5020   2.8347167997e+01   2.0458616800e+01    0.1457309    0.1380931 -77.05 0.0001439147    1.054    0.051
       449  -7.8298    157.4154     69.5092   3.9750042948e+01   3.6240645738e+01    0.1536282    0.1463368  87.30 4.555598e-05    1.023    0.022
       450  -8.9727    147.1519     67.8241   4.1581976301e+01   3.9091767673e+01    0.3302658    0.2005872 -53.43 0.0006757965    1.860    0.462
       451  -8.8164    121.6568     65.9324   4.7417650957e+01   4.5414072908e+01    0.3033652     0.231696 -75.45 0.0006255897    1.700    0.412
       452  -7.3584    203.2819     66.6512   3.0169770938e+01   2.4989251635e+01    0.1594457    0.1089322 -67.14 0.0003765705    1.647    0.393
       453  -8.8719     37.2706     63.8852   7.4284451173e+01   5.9469591674e+01    0.2655774    0.1812019 -82.06  0.001257441    1.953    0.488
       454  -9.0600    110.2939     63.2225   4.9724542510e+01   4.8363600416e+01    0.3473649    0.2292005 -53.34 0.0009905857    1.682    0.405
       455  -8.6083     64.5376     62.8592   6.4226175472e+01   5.6454589062e+01    0.3518394    0.2176127  -8.62   0.00155954    2.722    0.633
       456  -8.2371    158.1541     61.8381   3.7317174672e+01   3.7397219842e+01    0.2329805    0.2033293 -81.24 0.0004534545    1.200    0.167
       457  -9.1245     97.7266     60.4030   5.2542432305e+01   5.1407299387e+01    0.2771829     0.245802  49.97 0.0008044987    1.178    0.151
       458  -9.6603     73.3355     59.2618   6.0083548853e+01   5.5863986349e+01    0.3795254    0.2274443 -55.11  0.001034291    1.800    0.444
       459  -8.1134     89.1819     59.2440   5.4838239331e+01   5.3213179365e+01    0.1831959    0.1612092 -72.83 0.0005181497    1.351    0.260
       460  -8.5659    138.7594     66.0988   4.3067078516e+01   4.1436323795e+01     0.303732    0.1958478 -52.12 0.0007063016    1.701    0.412
       461  -8.2893    130.6939     57.3603   4.2336912494e+01   4.4888511845e+01     0.259032    0.1714146 -49.18 0.0006114998    1.631    0.387
       462  -9.7699     23.4216     56.1143   7.7503370150e+01   6.2260656736e+01    0.4141867    0.2536882  86.59  0.002059754    2.917    0.657
       463  -9.4211      7.4736     56.8428   8.3741800210e+01   6.3170578527e+01    0.2972328    0.1711912 -78.56  0.001199033    1.892    0.472
       464  -8.0870    140.1739     56.1463   3.9628348902e+01   4.2833451821e+01    0.2051555    0.1718159 -66.35 0.0004169473    1.323    0.244
       465  -9.1252    118.9604     54.9701   4.4630263312e+01   4.7976942206e+01    0.4258989    0.1930163 -45.74  0.001446989    2.379    0.580
       466  -8.9751     44.1158     55.2083   6.9370438467e+01   6.0514998921e+01    0.2731621    0.1850719 -67.41  0.001092761    1.746    0.427
       467  -9.2324     62.8297     54.2539   6.2172895132e+01   5.8372303680e+01     0.329258    0.1708932 -54.22 0.0006957443    2.034    0.508
       468  -9.0337     54.0730     53.6135   6.5166142138e+01   5.9656692347e+01    0.3537313     0.169623 -58.97  0.001279865    2.492    0.599
       469  -8.4921    105.8968     53.1168   4.7688344361e+01   5.1094554716e+01    0.2128812    0.1922823 -77.82 0.0004766172    1.298    0.229
       470  -9.4618     92.4713     50.2961   5.0804574123e+01   5.4231204400e+01    0.3980233    0.2327125 -51.56  0.001194145    1.981    0.495
       471  -8.4793    144.6200     48.3699   3.6130735438e+01   4.3007411083e+01    0.2838639    0.1350982 -40.05  0.001118357    2.165    0.538
       472  -8.4330    129.7146     48.9495   3.9845961203e+01   4.6521626929e+01    0.2032561    0.1865532 -30.74 0.0004726918    1.139    0.122
       473  -7.5730    163.5112     47.9873   3.2042685419e+01   3.8273512222e+01    0.1994354    0.1351676   5.02 0.0008086187    2.405    0.584
       474  -8.4226    120.8257     47.1722   4.1527860873e+01   4.8859731054e+01    0.2133567    0.1953232 -78.81 0.0006433409    1.227    0.185
       475  -8.1517    112.3265     46.8116   4.3705644693e+01   5.0799415628e+01    0.2115441    0.1689214 -56.38  0.000643383    1.444    0.308
       476  -9.0334     82.2471     46.1898   5.2692826447e+01   5.6793413272e+01    0.2926882    0.2180381 -58.78 0.0006527657    1.677    0.404
       477  -8.3494     45.1390     44.6026   6.5697178033e+01   6.2427629822e+01    0.2043245    0.1508872 -54.56 0.0006500477    1.392    0.282
       478  -8.9647     16.9381     44.4813   7.7061778408e+01   6.5029800481e+01    0.2004242    0.1432559 -71.43 0.0006784815    1.561    0.359
       479  -8.0278     32.3781     44.2780   7.0691199675e+01   6.3811650299e+01    0.1228926   0.07705653 -23.59 0.0007006308    1.706    0.414
       480  -8.2811    132.8261     43.0827   3.7137576653e+01   4.6702931938e+01    0.2190915    0.1937467 -72.54 0.0004316947    1.260    0.206
       481  -8.5540     93.1942     42.3061   4.7766884297e+01   5.5442503092e+01    0.2709247    0.1987378  14.27  0.001140242    1.597    0.374
       482  -9.3665     69.7946     41.4769   5.5318841749e+01   5.9656357660e+01    0.3326337    0.2403974 -67.87  0.001102585    2.159    0.537
       483  -9.0278     58.3379     42.3234   5.9834406708e+01   6.1185710199e+01    0.3008532    0.2022045 -65.07  0.001101893    2.216    0.549
       484  -9.6340      5.2515     41.7850   8.1201202047e+01   6.6266140549e+01     0.327943    0.1831187 -77.18  0.001487498    2.216    0.549
       485  -8.6273    106.0849     41.3363   4.3553933793e+01   5.3005410949e+01    0.2639702    0.1736639 -52.98 0.0005825166    1.865    0.464
       486  -7.3973    140.3150     41.2897   3.4806474487e+01   4.5153428525e+01    0.1488695    0.1090692  29.14 0.0003760917    1.591    0.371
       487  -8.5571     36.9516     40.5246   6.7641630844e+01   6.4062745937e+01    0.2075001    0.1557206 -60.75 0.0007207912    1.511    0.338
       488  -7.8473    151.6860     38.3072   3.1404013294e+01   4.2741049040e+01    0.1501755    0.1110592 -74.53 0.0006094048    1.625    0.384
       489  -8.7326     95.6836     37.8630   4.5381124195e+01   5.5664521738e+01    0.2416187    0.1755776 -49.75 0.0007350132    1.592    0.372
       490  -8.0443     80.8118     36.8044   4.9767761216e+01   5.8602451146e+01    0.1673327    0.1538264 -57.71 0.0003569408    1.322    0.243
       491  -9.3280     26.1545     35.0907   7.0387978686e+01   6.6069298354e+01    0.2750929    0.1757322 -62.14 0.0009533166    1.781    0.438
       492  -7.8503    126.0196     35.3053   3.6135782812e+01   4.9462855406e+01    0.1980381    0.1722123  53.05 0.0003890972    1.086    0.079
       493  -8.4817    111.9945     34.5136   3.9458714007e+01   5.2763822096e+01    0.2592257    0.1858798 -51.41 0.0007698888    1.651    0.394
       494  -7.7819     88.7564     33.9866   4.6101494290e+01   5.7594381994e+01    0.1710741    0.1086472 -33.29  0.000740234    1.571    0.364
       495  -8.4325    119.1309     32.4964   3.6863469550e+01   5.1452766912e+01      0.28426    0.1682846 -48.15  0.001023026    2.001    0.500
       496  -8.8354     60.7677     32.1839   5.5193831982e+01   6.2560287477e+01    0.2346313    0.1585424 -48.19 0.0006140984    1.630    0.386
       497  -8.6017     48.4190     33.0850   6.0373296353e+01   6.4076788778e+01    0.1941759    0.1727489  26.28 0.0006786168    1.278    0.217
       498  -8.8844     72.1846     30.8027   5.0460801583e+01   6.1008217796e+01    0.2083028    0.1630512 -42.34   0.00061533    1.374    0.272
       499  -8.7717     12.9371     30.1820   7.4634178358e+01   6.7970286867e+01    0.2642833    0.1514039 -68.89  0.001349992    2.248    0.555
       500  -8.4560    101.6544     29.1382   4.0355374695e+01   5.5737585000e+01    0.2034498    0.1617738 -48.17 0.0008438062    1.456    0.313
       501  -7.7479     42.2995     29.6988   6.1621708608e+01   6.5379467526e+01    0.1028238   0.09463892 -80.73 0.0002719007    1.582    0.368
       502  -8.7808     81.5743     27.1951   4.5814030786e+01   5.9922936694e+01    0.2640197     0.204599 -56.84 0.0009353652    1.741    0.426
       503  -8.9690      3.7840     27.3125   7.7928593793e+01   6.9041660826e+01    0.2312365    0.1352457 -74.05   0.00115282    2.287    0.563
       504  -8.1064    110.1358     27.1360   3.7255570176e+01   5.4196722775e+01    0.1806852    0.1609239 -60.57 0.0004107997    1.330    0.248
       505  -8.7513     91.9081     26.2880   4.2155522059e+01   5.8102722168e+01    0.2684248    0.1748929 -46.90 0.0006360533    1.837    0.456
       506  -8.2874    104.5925     22.7795   3.7112446571e+01   5.5966109552e+01    0.1801696    0.1222902 -40.40 0.0005155382    1.625    0.385
       507  -9.1258     63.6428     20.8618   4.9568013822e+01   6.3846931645e+01    0.2628334    0.2011462 -47.46 0.0007869405    1.607    0.378
       508  -8.9044     48.4309     21.3793   5.5784660288e+01   6.5951343759e+01    0.2371899    0.1800083 -46.94 0.0008937121    1.534    0.348
       509  -7.8109     34.7650     22.6308   6.2142631840e+01   6.7376228805e+01    0.1426677    0.1021881  35.00 0.0005243784    1.649    0.393
       510  -8.1746    120.9383     20.9871   3.2268632861e+01   5.2537603347e+01    0.2131798    0.1635244 -70.71 0.0006890654    1.703    0.413
       511  -8.0731     19.7693     21.5503   6.8559635147e+01   6.8965989289e+01    0.1310887    0.1002854  29.39 0.0005311374    1.591    0.371
       512  -8.7992     74.1501     19.3701   4.5153647522e+01   6.2322918638e+01    0.2289527    0.1693873 -38.59  0.000703413    1.471    0.320
       513  -8.2342     38.7770     17.8147   5.8417901031e+01   6.7682964565e+01    0.2043125    0.1218628 -35.51  0.001140128    1.470    0.320
       514  -8.0769    112.8539     16.8098   3.2681552127e+01   5.4880786927e+01    0.1732479    0.1579905 -81.65 0.0004134571    1.299    0.230
       515  -8.2160     87.8524     17.1472   3.9748703031e+01   6.0091399667e+01    0.1832716      0.17196 -45.56 0.0006173152    1.295    0.228
       516  -9.2537    211.1087    246.5508   6.6075015265e+01  -6.3918858874e+00    0.2860689    0.2140834 -69.84  0.001197239    2.559    0.609
       517  -8.0545     29.8662     15.5824   6.1504371913e+01   6.8998148576e+01    0.1361661    0.1005091  35.68 0.0005355908    1.676    0.403
       518  -7.9668      7.6903     15.3536   7.2117226051e+01   7.0885343911e+01   0.09211163   0.08222214 -86.33 0.0007043802    1.723    0.420
       519  -8.9231    175.6853    247.5008   7.2472594766e+01  -7.2760066639e-01    0.2865651     0.198665  79.33  0.001224798    2.382    0.580
       520  -8.9125    132.4201    247.9514   8.0326563911e+01   6.4167314900e+00    0.2933123    0.1741373  70.41 0.0008655735    2.030    0.507
       521  -8.1985    113.4190    248.4220   8.3783083422e+01   9.4141927412e+00     0.186704    0.1050548 -81.44  0.001023642    2.390    0.582
       522  -8.5977     26.0232    250.0000   9.8665150051e+01   2.1235935355e+01    0.1565063   0.04648147  40.68 0.0004260796    2.888    0.654
       523  -9.1209    243.0327    246.4138   6.0628165585e+01  -1.1232515192e+01     0.311097    0.1555304 -24.57  0.001805621    2.333    0.571
       524  -8.5885    218.4839    247.3532   6.4915556304e+01  -7.6456504259e+00    0.2394972    0.1575222 -40.10  0.001171401    1.959    0.490
       525  -8.7654    156.2428    247.8305   7.6013166723e+01   2.4773830939e+00    0.2172149    0.1542911  65.41 0.0008044362    1.518    0.341
       526  -9.5476    147.5138    246.1128   7.7387061982e+01   4.1930405403e+00    0.3924844    0.1981845  64.35   0.00180256    2.824    0.646
       527  -9.1735    103.7446    246.3829   8.5310539761e+01   1.1269854873e+01    0.3879331    0.1916119 -83.62  0.001903278    3.030    0.670
       528  -8.9352    232.5237    246.6409   6.2419050311e+01  -9.7085059031e+00    0.2186871    0.1506745 -27.00  0.001242827    1.673    0.402
       529 -10.0020    223.9050    243.7042   6.3446906415e+01  -8.0605894003e+00    0.4038806    0.2333685 -46.98  0.002341974    2.548    0.608
       530  -9.3323    120.2393    245.2110   8.2232427511e+01   8.8394423890e+00    0.3381702    0.1959205  77.42  0.001772686    2.259    0.557
