#   1 NUMBER                 Running object number                                     
#   2 MAG_AUTO               Kron-like elliptical aperture magnitude                    [mag]
#   3 X_IMAGE                Object position along x                                    [pixel]
#   4 Y_IMAGE                Object position along y                                    [pixel]
#   5 X_WORLD                Barycenter position along world x axis                     [deg]
#   6 Y_WORLD                Barycenter position along world y axis                     [deg]
#   7 A_WORLD                Profile RMS along major axis (world units)                 [deg]
#   8 B_WORLD                Profile RMS along minor axis (world units)                 [deg]
#   9 THETA_WORLD            Position angle (CCW/world-x)                               [deg]
#  10 FWHM_WORLD             FWHM assuming a gaussian core                              [deg]
#  11 ELONGATION             A_IMAGE/B_IMAGE                                           
#  12 ELLIPTICITY            1 - B_IMAGE/A_IMAGE                                       
         1 -12.9746    194.3401     46.9993   2.6057284997e+02  -5.9137612852e+01    0.1456201    0.1260981  45.52  0.003814648    1.173    0.147
         2 -13.2361    221.1369     18.2191   2.5926153177e+02  -6.0376120694e+01     0.152329    0.1292986  36.85  0.004094252    1.179    0.152
         3  -8.3676     93.2241     12.2392   2.5627631907e+02  -5.6059209266e+01   0.02594501    0.0201373 -31.75 0.0006085919    1.342    0.255
         4 -11.5762      7.0462      8.2473   2.5462845864e+02  -5.3129998016e+01    0.1206727   0.05941801 -17.98  0.003650443    2.583    0.613
         5  -9.3079    172.2600      3.2527   2.5719538478e+02  -5.8866184603e+01   0.03966303   0.02008931 -17.83  0.001185247    2.580    0.612
         6  -8.8183     53.3154      2.6676   2.5502101564e+02  -5.4774451620e+01   0.01998812    0.0126015 -36.10 0.0005685516    1.685    0.407
         7 -11.1555    119.1584     10.1381   2.5661591318e+02  -5.6972260986e+01   0.08775089    0.0591277  60.78  0.003285072    1.631    0.387
         8  -9.2480     90.1343    202.5741   2.6730939942e+02  -5.3575894745e+01    0.0382522   0.02769461  45.68  0.000861243    1.432    0.302
         9 -12.6647    247.0127    242.6491   2.7426945535e+02  -5.7856929233e+01    0.2399653    0.1124918  31.14  0.007699724    2.140    0.533
        10 -12.9509      7.7669    176.6682   2.6395640005e+02  -5.1257440423e+01     0.429305    0.1603362  20.86   0.01218012    2.735    0.634
        11  99.0000     50.4497    237.6095   2.6815661317e+02  -5.1769362302e+01    0.2235092    0.1049349  -1.30   0.00512373    4.878    0.795
        12 -16.0857     68.2254    142.0882   2.6342447602e+02  -5.3712642679e+01     1.918522    0.8296665 -27.55   0.04637459    4.153    0.759
        13  -8.7278     41.1573    191.9296   2.6552565167e+02  -5.2140275763e+01   0.02427129   0.02162104 -12.95 0.0002996494    1.166    0.142
        14  -9.7476     85.3232    186.8770   2.6632669851e+02  -5.3651885429e+01   0.04999482   0.03069961 -20.21  0.001682255    2.135    0.532
        15  -9.9531     81.9766    183.1371   2.6603715512e+02  -5.3597061882e+01   0.05966397   0.03229345 -60.44  0.001215614    1.780    0.438
        16  -9.0637      1.8260    188.3076   2.6443667457e+02  -5.0906132212e+01   0.02687136   0.01917082 -65.14  0.001047001    1.397    0.284
        17 -18.2244     13.4183    233.0781   2.6701275852e+02  -5.0649829643e+01     0.828212    0.6328254  32.83   0.01872612    1.297    0.229
        18  -9.6975    181.7560    181.4351   2.6862992661e+02  -5.6854981051e+01    0.0706308   0.02224513  29.13  0.001888942    2.968    0.663
        19 -10.0532    180.5055    175.4990   2.6824411114e+02  -5.6907805533e+01   0.04654614   0.02632419   9.82    0.0014592    2.215    0.549
        20  -9.7141      1.8366    182.8074   2.6414932035e+02  -5.0980720073e+01     0.026606   0.02349054  87.35 0.0007967496    1.205    0.170
        21 -10.0751     73.0485    205.1937   2.6701515404e+02  -5.2984229385e+01    0.0310403   0.02549758   7.36 0.0004604012    1.282    0.220
        22  -9.1799     31.4687    203.3985   2.6590464389e+02  -5.1662256815e+01   0.02469589   0.01743209   0.06 -4.418298e-05    1.621    0.383
        23  -9.7296    221.4864    176.8490   2.6955467720e+02  -5.8198864147e+01   0.04813534   0.01911675  21.92  0.001329428    2.883    0.653
        24  -9.8699    193.0055    194.7617   2.6974512700e+02  -5.7001063642e+01    0.1026962   0.05259508 -15.94  0.002498213    4.370    0.771
        25 -11.3858    231.3137    169.6646   2.6942451326e+02  -5.8628316129e+01   0.06013079   0.05207487 -28.89  0.002589278    1.214    0.176
        26 -10.5784    144.4927    182.6683   2.6764511257e+02  -5.5635043647e+01   0.03785056   0.03311422 -21.13 0.0007853256    1.206    0.170
        27 -10.5002    143.6904    167.0012   2.6671957046e+02  -5.5844814311e+01   0.06951281    0.0402326 -12.43  0.001920413    2.535    0.606
        28  -9.3134    187.7313    169.9633   2.6812560847e+02  -5.7226723080e+01   0.06626485   0.02806628  16.59  0.001822204    3.011    0.668
        29  -8.4307     58.6521    217.4566   2.6730781821e+02  -5.2336825424e+01     0.039583   0.01905544  33.00  0.001289363    1.987    0.497
        30  -9.6038    123.7720    156.9166   2.6561289807e+02  -5.5340913153e+01   0.03321986   0.02479905  -9.01 0.0005296842    1.533    0.348
        31  -9.4899     59.0742    197.2088   2.6623848473e+02  -5.2648071972e+01   0.02597093   0.02442065 -30.77 0.0005114424    1.069    0.064
        32 -11.7534    111.4227    150.7624   2.6494654362e+02  -5.5022193648e+01    0.1038667   0.04776198 -40.18  0.001560527    2.538    0.606
        33 -10.9844    133.8874    146.2711   2.6525276523e+02  -5.5824560540e+01    0.1707575   0.05106156  14.21  0.003266608    6.255    0.840
        34 -10.0720    114.8951    146.1234   2.6476511200e+02  -5.5201282628e+01   0.04142402   0.02634052 -22.63  0.001224648    1.938    0.484
        35  -9.5073     75.3739    249.6248   2.6942897469e+02  -5.2376784266e+01   0.03012299    0.0185201  33.20 0.0008160559    1.597    0.374
        36  -9.6132    138.8570    145.7431   2.6534964841e+02  -5.5995419994e+01    0.0502397   0.02515016 -25.73  0.001397782    3.093    0.677
        37  -8.9823     30.1067    195.4027   2.6545103355e+02  -5.1731170461e+01   0.02433583   0.02037014 -50.19 0.0007341996    1.182    0.154
        38  -7.8419    192.2792    144.3062   2.6670787448e+02  -5.7764431326e+01   0.01869626   0.01348362  57.81   0.00030907    1.554    0.356
        39 -10.9391    115.5342    141.1837   2.6449448012e+02  -5.5290749004e+01   0.05896562   0.03022494 -37.01  0.001847561    2.311    0.567
        40  -9.5312    124.8619    141.1587   2.6472474085e+02  -5.5598988127e+01   0.02718019   0.02424021 -32.91 0.0002986784    1.144    0.126
        41  -9.9900    121.6426    136.9212   2.6439670456e+02  -5.5551231457e+01   0.05903489   0.02829563  35.41  0.001040929    2.001    0.500
        42 -10.0421    135.8697    128.8393   2.6427361212e+02  -5.6132673300e+01    0.0637522   0.02382022  22.88  0.001806721    2.656    0.624
        43 -14.3526     29.3044    219.2426   2.6668136410e+02  -5.1363724032e+01    0.1479928   0.06873352   2.27   0.00376654    3.840    0.740
        44  -9.9797    114.0391    128.1981   2.6370041687e+02  -5.5417761496e+01   0.04021261   0.03115703  76.48 0.0009177215    1.456    0.313
        45  -9.8450    101.3820    123.7970   2.6314335038e+02  -5.5055423795e+01   0.04015661   0.02946904  57.44 0.0006586793    1.493    0.330
        46  -7.8936    234.3328    123.6686   2.6663293681e+02  -5.9440032377e+01   0.01983282   0.01329777 -29.84 0.0007052156    1.726    0.421
        47  -9.6427    120.8073    122.1707   2.6350855973e+02  -5.5723123770e+01   0.05492724   0.02674272  58.00  0.001578243    2.844    0.648
        48  -8.0591    173.4631    118.5869   2.6461622817e+02  -5.7517120238e+01   0.01796659   0.01760175 -48.21 0.0001311486    1.015    0.015
        49  -8.7308    109.5254    117.9763   2.6299322742e+02  -5.5402926211e+01    0.0260814   0.02417207 -68.03  4.90144e-05    1.080    0.074
        50  -9.4966    101.8202    114.3269   2.6260015885e+02  -5.5193185608e+01   0.05386507   0.03282127 -15.24  0.001754946    2.079    0.519
        51 -10.3292    118.5274    110.4923   2.6276167212e+02  -5.5800632637e+01   0.03853513   0.02960841 -42.06  0.001198162    1.325    0.245
        52  -8.4204    181.3408    194.2969   2.6936856833e+02  -5.6636846363e+01   0.01911301   0.01375414  65.46 0.0007032751    1.662    0.398
        53  -8.4207    100.9769    107.1987   2.6216219521e+02  -5.5256020476e+01   0.02457058   0.02313613 -67.84  0.001091143    1.063    0.059
        54 -11.0901    119.2435    103.7386   2.6237551986e+02  -5.5911483766e+01   0.06245225   0.04109749  -9.72  0.002249792    1.813    0.448
        55  -8.7329     74.8264     90.0975   2.6059100514e+02  -5.4587263258e+01   0.02650595   0.02352862 -29.65  0.000274961    1.151    0.131
        56 -11.2575     42.2735    249.8194   2.6857777539e+02  -5.1321324255e+01   0.03592534   0.02832442  68.34 0.0007209477    1.460    0.315
        57  -8.7373    167.3965    224.2683   2.7066079025e+02  -5.5703759127e+01   0.03213527    0.0233005  12.28 0.0008285491    1.532    0.347
        58  -8.1774    156.4248     84.8005   2.6209491857e+02  -5.7397924195e+01   0.02584992   0.01608613  34.96  0.000592727    1.572    0.364
        59  -8.6075     34.3518    192.2364   2.6538226800e+02  -5.1914036122e+01   0.02827895   0.02369215  44.03 0.0005150234    1.217    0.178
        60 -10.5414     70.7984    191.5564   2.6622096234e+02  -5.3111174557e+01   0.03384851   0.02966091  22.82 0.0004207455    1.142    0.124
        61  -7.9573    126.3221     74.7705   2.6078257237e+02  -5.6508356257e+01    0.0186342   0.01274189 -41.78 0.0002258281    1.507    0.336
        62 -12.3287    178.5090     60.1831   2.6105881747e+02  -5.8445348114e+01    0.1993392    0.1138307  60.47  0.005028221    2.148    0.534
        63  -9.7079     68.3321    248.4756   2.6918258620e+02  -5.2171285451e+01   0.01970332   0.01744396  83.96 0.0004370399    1.225    0.184
        64 -11.9062    199.8196     41.5461   2.6034099460e+02  -5.9387093382e+01   0.07151261   0.06097157  34.15  0.001280197    1.169    0.145
        65  -9.9832    165.9324     59.7804   2.6073968313e+02  -5.8025771042e+01   0.03089173   0.02610266  20.19 0.0005056436    1.182    0.154
        66  -9.3695    141.7940     42.5832   2.5911407312e+02  -5.7405723241e+01   0.04027651   0.02485832  16.05 0.0007884089    1.641    0.391
        67  -9.9214    206.1346     32.1783   2.5986251066e+02  -5.9709497241e+01   0.02769037   0.02378962  54.50 0.0003800892    1.206    0.170
        68  -8.5699     79.5723    242.8402   2.6918634727e+02  -5.2617421242e+01   0.02360065   0.01747674  29.33 0.0004801397    1.343    0.255
        69 -10.4860     45.7054    242.7650   2.6830281966e+02  -5.1538996984e+01   0.02981179   0.01958786  28.98 0.0005756663    1.503    0.335
        70 -10.2330     67.4825    241.9253   2.6881947917e+02  -5.2246751345e+01   0.03150659    0.0180693  23.09  0.001030932    1.793    0.442
        71  -9.0450    190.0822     15.6888   2.5839569194e+02  -5.9346565422e+01   0.03176159   0.02540915  -7.09  0.000786097    1.319    0.242
        72  -8.8347     58.2028    239.5697   2.6845630288e+02  -5.1987142630e+01   0.03039735   0.01940069  28.33  0.001124861    1.550    0.355
        73  -8.3534     70.8100    232.9691   2.6843696630e+02  -5.2491833394e+01   0.02105162   0.01393603  26.43 0.0004491513    1.507    0.337
