#   1 NUMBER                 Running object number                                     
#   2 MAG_AUTO               Kron-like elliptical aperture magnitude                    [mag]
#   3 X_IMAGE                Object position along x                                    [pixel]
#   4 Y_IMAGE                Object position along y                                    [pixel]
#   5 X_WORLD                Barycenter position along world x axis                     [deg]
#   6 Y_WORLD                Barycenter position along world y axis                     [deg]
#   7 A_WORLD                Profile RMS along major axis (world units)                 [deg]
#   8 B_WORLD                Profile RMS along minor axis (world units)                 [deg]
#   9 THETA_WORLD            Position angle (CCW/world-x)                               [deg]
#  10 FWHM_WORLD             FWHM assuming a gaussian core                              [deg]
#  11 ELONGATION             A_IMAGE/B_IMAGE                                           
#  12 ELLIPTICITY            1 - B_IMAGE/A_IMAGE                                       
         1 -12.5107     72.1493      7.9182   5.0844430864e+00   6.5054191301e+01    0.4132893    0.2330967 -19.08  0.001865639    2.056    0.514
         2 -10.7611     92.4102      8.2424   4.8957613901e-01   6.0018858616e+01    0.1785714    0.1199444 -40.47 0.0006421149    1.588    0.370
         3 -11.1089     83.0725      7.1119   1.9524065363e+00   6.2453532150e+01    0.1991691    0.1783485  71.85 0.0004203157    1.027    0.026
         4 -11.1468     39.6527      3.8831   1.4609572001e+01   7.2831249874e+01    0.2091926     0.151627  40.86 0.0003368303    1.214    0.176
         5  -9.8941     25.3105      1.7153   2.1164379020e+01   7.5893564290e+01    0.1110786    0.1000705  85.49 0.0003028235    1.572    0.364
         6 -10.5997    246.3447    245.2328   2.9928033836e+01  -4.7860844413e+00    0.1198656    0.0741299 -30.31 0.0002182088    1.548    0.354
         7 -11.8416    238.4746    250.6313   3.1850328478e+01  -4.7113330063e+00    0.1575997   0.07643175  22.28  0.001075354    1.846    0.458
         8 -12.0493    139.4474    248.6951   4.9223480963e+01   5.5988443654e+00    0.2835203     0.218316 -38.62  0.001281807    1.499    0.333
         9 -11.2394    125.0079    248.2447   5.2154936561e+01   7.3340582082e+00    0.3564366    0.1383745 -56.95  0.001664806    3.445    0.710
        10 -11.1853    114.4537    248.8200   5.4448861397e+01   8.4662804641e+00    0.2225809     0.187607  67.94  0.001176979    1.606    0.378
        11 -11.7238     50.9956    249.1156   6.8390502128e+01   1.5501592132e+01    0.4229027    0.1966265  26.28  0.002226898    1.789    0.441
        12 -13.8893     31.3596    225.9334   7.1496617837e+01   2.2034463980e+01    0.9854618    0.5657673 -11.26  0.004536691    3.108    0.678
        13 -13.4556     30.2070    247.0939   7.2870033307e+01   1.7952628548e+01     1.118257    0.2883848  34.44  0.004623732    2.463    0.594
        14 -13.0977     32.3094    239.9624   7.2043001023e+01   1.9117098533e+01    0.4906891    0.3201665  56.93  0.002013182    1.358    0.264
        15 -13.1871     35.5220    231.0721   7.0810500592e+01   2.0567791026e+01    0.6173758    0.3010656 -73.64   0.00323664    2.286    0.563
        16 -13.9681      4.0184    200.7932   7.7017262870e+01   2.9991522701e+01    0.9896263    0.5464415 -88.33  0.005138231    1.765    0.433
        17 -14.4767     15.2997    228.7365   7.5410376255e+01   2.2954790675e+01     1.228102    0.6094852  66.69  0.006579011    1.925    0.480
        18 -14.9636     10.9750    240.1014   7.6820428357e+01   2.1053634434e+01     1.312691    0.6217192  46.00  0.007480528    1.577    0.366
        19 -12.9523      3.9007    220.7974   7.7771577442e+01   2.5586489745e+01     0.431164    0.3117817 -64.56 0.0005703125    1.639    0.390
        20 -13.3131      1.9454    216.7116   7.8098726272e+01   2.6617541093e+01    0.6049291     0.351438 -52.75  0.002170141    2.227    0.551
        21 -14.4042      5.3969    246.9250   7.8246770997e+01   2.0215718648e+01    0.6330861    0.2678831  48.02  0.001923503    1.723    0.420
        22 -12.6036      1.6409    250.0424   7.9125381931e+01   1.9941705111e+01    0.2098578    0.1324833  72.79 0.0007682329    1.485    0.327
        23 -13.7216      3.2232    237.8334   7.8455194985e+01   2.2155276375e+01     0.505763    0.2526021 -83.20  0.002178725    2.129    0.530
        24 -13.8803      7.4502    233.9395   7.7395255911e+01   2.2577265277e+01    0.6969883    0.2827415  55.37  0.002691285    2.018    0.504
        25 -11.1594    143.0033    243.1550   4.7824836826e+01   6.0355377318e+00    0.1926881    0.1668387 -25.11  0.001385979    1.291    0.225
        26 -10.5311    131.7810    244.6186   5.0319595385e+01   7.1190798291e+00    0.1752169   0.08806843  35.35 0.0009415779    1.730    0.422
        27 -10.7604    204.8372    243.6189   3.6276505617e+01  -7.8152577122e-01    0.1444206   0.08438458  30.17 0.0009476988    1.735    0.424
        28 -10.5496     87.2775    250.4458   6.0484812842e+01   1.1313601289e+01    0.1677168   0.08784897  36.19  0.000926281    1.512    0.339
        29  -9.9243    193.2394    242.6879   3.8162114657e+01   5.2021781766e-01   0.08932778   0.08150741   5.34 0.0002230804    1.501    0.334
        30  -9.9853    186.5031    242.0028   3.9274436183e+01   1.3208832591e+00    0.1620519   0.07553282 -20.52  0.000810655    2.605    0.616
        31 -10.3824    127.3234    242.6467   5.1023580573e+01   7.9600409238e+00    0.1185144   0.08396864  50.50 0.0007047251    1.759    0.431
        32 -11.3743    117.1379    241.4639   5.3065402776e+01   9.3659433312e+00    0.2125496    0.1778895  43.08 0.0009878412    1.298    0.230
        33 -10.5020    178.5127    247.3941   4.1465075944e+01   1.4468044815e+00    0.1133376   0.08379132   5.87 9.316282e-05    1.031    0.030
        34 -11.2914    101.9135    238.4946   5.6084701486e+01   1.1698135869e+01    0.1969751    0.1831315 -48.96 0.0005081805    1.303    0.232
        35 -10.5957    207.5065    236.4847   3.4812787954e+01  -1.4518718874e-01    0.1109421    0.0815566  -2.93 -4.304647e-05    1.001    0.001
        36 -10.4324    137.5010    235.9892   4.8064785419e+01   7.8212624336e+00    0.1414798    0.1085349  80.74 0.0008084418    2.398    0.583
        37 -12.1446     73.2218    229.5780   6.1795157913e+01   1.6768036467e+01    0.7389434    0.2175876 -52.89  0.002912544    3.807    0.737
        38 -10.6442     47.4869    235.4951   6.8297703217e+01   1.8458475927e+01    0.1260307   0.09844247  43.59 0.0002309468    1.047    0.045
        39 -10.9191    166.0249    234.4691   4.2083654864e+01   4.6688049877e+00    0.1740015   0.09756322  26.62 0.0003999062    1.536    0.349
        40 -10.9010    158.2712    233.4958   4.3479447990e+01   5.7256315128e+00    0.1917647    0.1530679 -26.71 0.0007182743    1.293    0.227
        41 -10.5128    216.5447    231.5059   3.2581000626e+01  -4.2516890814e-01    0.1097025   0.08047045  -5.70 7.896883e-05    1.011    0.011
        42 -11.9261    152.4907    229.8450   4.4147422219e+01   6.9893098744e+00    0.2543447    0.2252324  18.52  0.001217677    1.209    0.173
        43 -11.1039     61.5235    231.1505   6.4691588091e+01   1.7795131355e+01    0.2165456     0.130957  25.25 0.0006226031    1.462    0.316
        44 -11.0093    194.5076    228.5204   3.5912986979e+01   2.2927813943e+00    0.2116375    0.1011135 -39.87  0.001188816    2.101    0.524
        45 -11.6345    138.2893    228.0406   4.6865971703e+01   9.0345213169e+00    0.2130755    0.1947876 -26.19 0.0004228139    1.249    0.200
        46 -10.6593     57.6062    229.1987   6.5463061002e+01   1.8619599651e+01    0.1549193    0.1134318 -54.67 0.0008643045    1.627    0.385
        47 -13.1250    115.3260    224.5333   5.1461505156e+01   1.2549851654e+01    0.6053357    0.3023037 -61.92  0.002899301    2.659    0.624
        48 -11.9498    106.5010    226.2865   5.3684226863e+01   1.3344709770e+01    0.2533554    0.2058904  -5.91  0.001584875    1.307    0.235
        49 -11.0022     80.2852    226.0967   5.9791065447e+01   1.6614621296e+01    0.2293945     0.184505 -58.78  0.001350064    1.451    0.311
        50 -12.4862    147.5145    224.7099   4.4466270541e+01   8.4348154635e+00    0.2839581    0.2487206 -12.23 0.0006144505    1.151    0.131
        51 -11.8511    160.8343    223.7796   4.1603873621e+01   6.9308536504e+00    0.3286243    0.1947866 -14.19 0.0009555425    1.970    0.492
        52 -11.7037    158.3510    221.6689   4.1800720436e+01   7.5756993793e+00    0.2556277    0.1939509  45.40  0.001100669    1.680    0.405
        53 -10.8543     91.9133    224.8340   5.6909524478e+01   1.5441396931e+01    0.1862548    0.1581196   9.12 0.0004415092    1.180    0.153
        54 -12.4889    173.1179    220.6378   3.8718728709e+01   5.9198021607e+00    0.3944692    0.3632852 -18.07  0.002854855    1.324    0.245
        55 -11.5453    120.0210    214.0000   4.9024581502e+01   1.3889582764e+01    0.2429911     0.158827  34.80 0.0008853435    1.374    0.272
        56 -12.9652    124.5780    221.6793   4.9015488606e+01   1.1880093739e+01    0.4009413    0.2821378  36.92  0.002030357    1.336    0.251
        57 -11.2615    121.5189    217.4808   4.9149276357e+01   1.3042869978e+01    0.1992463    0.1932096  32.66 0.0006096017    1.200    0.167
        58 -12.2826     48.9939    220.4676   6.6866026396e+01   2.1358950643e+01    0.2613094    0.2154844  80.19  0.001665403    1.278    0.217
        59 -11.4036     26.9680    220.8132   7.2263736059e+01   2.3537197337e+01    0.2047136    0.1626844 -47.02 0.0006037997    1.593    0.372
        60 -10.7077     32.4028    217.1699   7.0722008445e+01   2.3788098803e+01    0.2257216    0.1142446  49.29 0.0004181687    1.688    0.408
        61 -12.4833     25.9350    209.0898   7.1848475352e+01   2.6193915858e+01     0.542159    0.3001427 -42.36  0.002623777    2.526    0.604
        62 -11.5366     28.8480    215.8666   7.1521001628e+01   2.4419593234e+01    0.2603116    0.2333609   2.72  0.001724141    1.335    0.251
        63 -11.6939     20.7768    220.4520   7.3740115235e+01   2.4195568569e+01    0.2173709    0.1684503  28.25 0.0006583128    1.237    0.192
        64 -12.9551     13.5501    216.1131   7.5285370889e+01   2.5777433790e+01      0.62187    0.3179021  62.72  0.003276694    1.783    0.439
        65 -12.1049     13.9962    210.3697   7.4915695482e+01   2.6999356665e+01    0.3080636    0.1949313  48.53 0.0002441506    1.296    0.229
        66 -12.4786     23.0757    216.7948   7.2994121605e+01   2.4768453680e+01    0.3349223    0.3086464  -4.68  0.001765268    1.343    0.256
        67 -12.3294     18.8618    214.5307   7.3912380704e+01   2.5649288178e+01    0.4375235    0.2770218 -78.90  0.002528688    1.663    0.399
        68 -11.0806    190.2717    219.9965   3.5399698235e+01   3.9790335410e+00    0.1618133    0.1241074 -11.58 0.0004100576    1.089    0.081
        69 -10.1821    152.3206    220.3045   4.2841672358e+01   8.5569644153e+00    0.1278214   0.08452085  -5.37 0.0003520092    1.633    0.388
        70 -10.6937     77.0393    219.7021   5.9931002334e+01   1.8285178668e+01    0.1890444    0.1452592  34.62 0.0006575503    1.106    0.096
        71 -11.8139    140.3150    207.8372   4.3574052401e+01   1.2292589451e+01    0.2740134    0.2493444  72.95  0.001222912    1.503    0.335
        72 -12.4200    145.1413    216.7349   4.3837280192e+01   1.0081149556e+01    0.3586672    0.2661528  37.59  0.001188329    1.393    0.282
        73 -11.5257    141.4635    212.5078   4.4014681502e+01   1.1302338455e+01    0.2115292    0.1917335 -36.30  0.000936387    1.257    0.205
        74 -10.8103     64.3489    218.6593   6.2938246687e+01   2.0010584885e+01    0.1435242   0.08096588  53.83 0.0007045057    1.795    0.443
        75 -11.0405     92.1135    217.1440   5.6002938031e+01   1.6925585544e+01    0.1879123    0.1615686   4.53  0.000342497    1.202    0.168
        76 -11.8203    250.6276    215.6714   2.4969596180e+01  -1.7810368582e+00    0.1762051   0.07667792 -33.56  0.000252654    1.857    0.462
        77 -12.8800    127.8525    214.5321   4.7315708449e+01   1.2748797933e+01     0.343215    0.2670166  56.62 0.0003054004    1.647    0.393
        78 -10.4371     52.8304    216.1026   6.5571932636e+01   2.1863887038e+01     0.162621    0.1457211  -1.32 0.0003524793    1.295    0.228
        79 -12.1662    108.3741    214.7146   5.1830559130e+01   1.5296211892e+01    0.2860053    0.2494341 -55.97 0.0009293536    1.330    0.248
        80 -11.1518     84.6852    214.4698   5.7507205296e+01   1.8408164761e+01    0.3995231    0.2091763  46.54  0.001912229    1.868    0.465
        81 -11.7070    156.6648    213.5571   4.0947958085e+01   9.1227195330e+00    0.2342275    0.2173021 -89.96 0.0004760468    1.619    0.382
        82 -11.5672    115.1512    213.8985   5.0137304115e+01   1.4556554180e+01    0.1879284    0.1619765  40.24 0.0003112804    1.184    0.156
        83 -12.8461    194.1403    211.7598   3.3421462012e+01   4.7295535818e+00    0.2342992    0.1897647 -10.19 0.0004669819    1.072    0.067
        84 -11.5042     41.6125    211.7582   6.8051884700e+01   2.4024277480e+01    0.3559679    0.2661333  10.37  0.002062366    1.507    0.336
        85 -11.5603    172.1277    210.9517   3.7433383436e+01   7.5625034370e+00    0.2992983    0.1743633 -53.43  0.001564864    2.351    0.575
        86 -10.6825     72.8475    212.1203   6.0191922027e+01   2.0370561010e+01    0.1989109    0.1544871  47.76 0.0003328614    1.190    0.159
        87 -11.7424     34.4747    208.3404   6.9625077542e+01   2.5521253774e+01     0.388775    0.2027383  25.90  0.001929901    1.755    0.430
        88 -12.0970     38.3072    206.4042   6.8501880284e+01   2.5562330652e+01     0.527972       0.1912  50.53  0.001833195    2.601    0.616
        89 -11.0980     97.3273    209.8616   5.3867931933e+01   1.7717744431e+01    0.3839503    0.2072379 -77.46  0.001325569    3.000    0.667
        90 -12.9519    180.1794    207.5433   3.5337832443e+01   7.0831910983e+00    0.2671584    0.2131651 -13.25 0.0004282493    1.086    0.079
        91 -12.2731    161.0013    208.2459   3.9241785226e+01   9.4469531612e+00    0.4073138    0.2817264  35.19   0.00138751    1.466    0.318
        92 -11.1854    228.9955    207.9964   2.6982966514e+01   1.3325367211e+00    0.1615139     0.115117  47.83  0.001024516    2.560    0.609
        93 -10.7773    124.1271    208.1546   4.7267874848e+01   1.4442155350e+01    0.1725851    0.1454712  45.27  0.000263276    1.291    0.226
        94 -10.2367     33.6135    212.1927   7.0102407305e+01   2.4752691695e+01    0.2348914    0.1173348 -72.27 0.0004425162    2.131    0.531
        95 -10.6284    103.7559    205.7566   5.1772084216e+01   1.7693143731e+01     0.182478    0.1474666  52.60 0.0008955916    1.330    0.248
        96 -12.4555    146.4505    202.0544   4.1344790846e+01   1.2496743430e+01    0.4857537    0.3829814  49.23  0.002438096    1.559    0.359
        97 -11.1971     16.3424    204.2505   7.4024173003e+01   2.8168949525e+01    0.3084444   0.09911939  84.83  0.001084408    4.003    0.750
        98 -10.8660    115.3938    204.2177   4.8756065203e+01   1.6407811531e+01    0.1679639    0.1320869 -70.21 0.0005888267    1.605    0.377
        99 -12.6170     91.5093    198.5721   5.3884031642e+01   2.0862772862e+01    0.8014035    0.2621688 -53.16  0.002642466    3.136    0.681
       100 -10.4347    214.2152    201.9746   2.8376707105e+01   3.7895922145e+00    0.1689667    0.1298879  69.20 0.0008923229    3.662    0.727
       101 -12.6734     84.3764    198.4576   5.5702435452e+01   2.1846242352e+01    0.6408798    0.4108227 -60.64  0.003289476    1.711    0.415
       102 -11.7089    135.7488    199.0426   4.3250068687e+01   1.4556440556e+01    0.3743998    0.2370412 -69.60  0.001753643    2.574    0.612
       103 -10.5863    138.4843    196.5499   4.2239274039e+01   1.4639482586e+01    0.1975526    0.1179419  20.61 9.891105e-05    1.703    0.413
       104 -13.1414    122.4601    197.2327   4.6054372506e+01   1.6802904621e+01     0.498354    0.3221069 -40.70  0.002588784    1.647    0.393
       105 -10.4552    102.2582    199.5022   5.1298197167e+01   1.9189701199e+01    0.1926977     0.123873  15.78 0.0008952262    1.665    0.399
       106 -13.4603     21.6332    196.4612   7.2206133892e+01   2.9491218618e+01    0.6811842    0.4579686   3.17  0.003628679    1.871    0.466
       107 -11.6363      5.2629    191.4470   7.6303896248e+01   3.2071962858e+01    0.4032852     0.160507  24.58  0.001811351    2.302    0.566
       108 -12.2129     13.5127    194.9516   7.4279578539e+01   3.0567770138e+01    0.3029917    0.2215203 -72.21 0.0008605291    1.441    0.306
       109 -13.3369     12.3380    189.8109   7.4323594481e+01   3.1887341354e+01    0.7878258    0.3278565 -52.67  0.001492839    2.916    0.657
       110 -11.8362    176.8355    198.5994   3.4525294742e+01   8.9539052654e+00    0.2498586    0.1775704  37.58 0.0009890447    1.557    0.358
       111 -11.6586    173.0986    196.5831   3.4921250869e+01   9.7891526936e+00    0.2307323    0.1741344 -52.52  0.001338584    1.681    0.405
       112 -10.8264     20.8343    204.2253   7.2869859953e+01   2.7769627888e+01    0.2438816     0.163625 -68.10  0.001006813    1.613    0.380
       113 -11.7505     36.7762    196.6918   6.8168810193e+01   2.7951686554e+01    0.3306913    0.1502607  52.27  0.001071349    2.087    0.521
       114 -12.5309    192.9827    193.9127   3.0705295799e+01   7.5881286474e+00    0.2557976     0.193032 -21.59 0.0005648992    1.145    0.127
       115 -10.0243    160.3500    193.2888   3.6956389476e+01   1.2121143779e+01    0.1354407   0.09161758  -4.20 0.0007025082    1.665    0.399
       116 -11.0041     52.8586    192.6519   6.3450633682e+01   2.7126886132e+01    0.1963647    0.1764204 -63.73 0.0003415311    1.224    0.183
       117 -10.4325     50.3149    190.3029   6.3917818256e+01   2.7976516964e+01    0.2358105    0.1631381  47.11 0.0003101016    1.306    0.234
       118 -11.9732    133.3495    191.0852   4.2535360352e+01   1.6439540331e+01    0.3680063    0.2545487 -11.58  0.001741685    1.738    0.425
       119 -10.8348    164.0421    191.5401   3.5896313183e+01   1.1908113259e+01    0.1881536    0.1182753  31.50 0.0008006346    1.537    0.350
       120 -12.4932    110.6912    188.9136   4.7656214008e+01   2.0221627949e+01    0.4248495    0.2520528 -72.21  0.001864412    2.461    0.594
       121 -11.9110    117.1090    188.8283   4.6051401248e+01   1.9294596631e+01    0.2176947    0.1867377  52.75  0.001244522    1.286    0.223
       122 -12.1877     21.1467    188.0926   7.1812113820e+01   3.1528263740e+01    0.5071095    0.1442271  28.14  0.001626646    2.845    0.649
       123 -11.2358    226.0257    186.5391   2.3898947339e+01   4.5957656365e+00    0.2018249    0.1398692 -39.94 0.0006282246    1.500    0.334
       124 -10.3465    187.1555    186.8272   3.0553209699e+01   9.4950730072e+00    0.1714526    0.1264364 -11.36 0.0004098752    1.267    0.211
       125 -12.1133    127.6967    186.0383   4.3039076920e+01   1.8289502073e+01    0.2594774    0.2248936  43.50  0.001228178    1.223    0.183
       126 -10.0357    104.2825    188.3037   4.9184247753e+01   2.1288612158e+01    0.1374293     0.104595 -15.23 0.0002657845    1.555    0.357
       127 -10.5351    209.0170    186.2431   2.6586623669e+01   6.7157368002e+00    0.1380722   0.09396558  25.65 0.0002545618    1.509    0.337
       128 -10.6344     33.5143    185.0089   6.8132102364e+01   3.1081335987e+01    0.1966474    0.1294522 -82.91 0.0005554369    1.546    0.353
       129 -12.3260     25.9833    183.3046   7.0128291276e+01   3.2242805896e+01    0.4331863    0.2578727  29.16  0.002194114    1.565    0.361
       130 -12.2688      2.5046    184.2952   7.6735405915e+01   3.3995822282e+01    0.3441689    0.2204579 -81.68 0.0007612994    1.509    0.337
       131 -12.8714      1.8463    174.2422   7.6467251586e+01   3.6512685929e+01    0.7242509    0.1724644 -82.29  0.002391601    3.999    0.750
       132 -11.7136    105.1464    183.2267   4.8188870245e+01   2.2269368701e+01    0.2327323    0.1847439 -41.03 0.0006584634    1.339    0.253
       133 -12.0161    163.5629    183.4313   3.4589759530e+01   1.3421715304e+01    0.5493442    0.3105623 -65.75  0.002055544    4.172    0.760
       134 -11.8482     94.7649    180.4711   5.0494985046e+01   2.4419987749e+01    0.4205737    0.2450611 -56.16  0.001384036    1.807    0.447
       135 -11.2890     56.9689    178.6747   6.0800896287e+01   2.9992526337e+01    0.5205449    0.2163448  52.30  0.001181044    2.720    0.632
       136 -11.7892      8.1290    184.7007   7.5209597809e+01   3.3463803046e+01     0.383847    0.2061475 -32.19  0.001700369    2.864    0.651
       137 -13.5936    128.4686    175.0843   4.0985621421e+01   2.0430616673e+01    0.6169012    0.4433241 -49.47  0.002806501    1.449    0.310
       138 -12.2903    127.1387    166.8322   3.9819947997e+01   2.2390962322e+01    0.3201849    0.2147631  56.42  0.001420564    1.899    0.473
       139 -10.3806    191.4797    177.4933   2.8093452424e+01   1.0428582666e+01    0.1263775     0.107071 -14.21 0.0001104781    1.021    0.021
       140 -12.3257    137.1983    176.5077   3.9161653791e+01   1.8762959490e+01    0.3441064    0.2711986 -69.03   0.00125061    1.648    0.393
       141 -10.5776     62.5583    177.1402   5.9006904441e+01   2.9666104825e+01     0.281989     0.187857   0.14  0.001284134    2.022    0.505
       142 -12.2209     31.1982    176.1659   6.8056948279e+01   3.3505454812e+01    0.3211814     0.203556 -60.53  0.001616246    1.646    0.392
       143 -12.3755    106.9441    175.3844   4.6465176270e+01   2.3735594242e+01    0.2982753     0.244952  32.70 0.0006527306    1.150    0.130
       144 -12.9562     20.3817    173.4624   7.1025215140e+01   3.5214742746e+01    0.4179508    0.3268143 -80.21  0.002387523    1.256    0.204
       145 -11.9071     14.1178    171.0206   7.2708638343e+01   3.6374313269e+01    0.2181821    0.1909227  21.74            0    1.243    0.195
       146 -13.4082     16.3360    167.2935   7.1789567321e+01   3.7138916191e+01    0.5396938    0.3493656  31.88   0.00155187    1.468    0.319
       147 -12.9887     91.1931    171.4300   5.0070614741e+01   2.7044011023e+01     0.487462    0.3248332 -48.60  0.001444611    1.578    0.366
       148 -11.9095     79.8148    173.2315   5.3538512225e+01   2.8279248991e+01    0.3182816    0.2501037  23.39 0.0009652667    1.273    0.215
       149 -10.8981    156.8792    179.1630   3.5236156274e+01   1.5203718724e+01    0.1824798    0.1748591  16.60 0.0002823725    1.174    0.148
       150 -10.9162    158.5010    171.5081   3.3486993189e+01   1.6393380417e+01    0.1340151    0.1240918  -7.16 -4.826671e-05    1.054    0.051
       151 -12.6121    153.3440    170.1201   3.4340380732e+01   1.7473188401e+01    0.3843252    0.2549352 -33.84  0.001406764    1.499    0.333
       152 -11.3732    152.4310    165.0025   3.3568049973e+01   1.8616732012e+01     0.251826    0.1917482  49.24 0.0006280561    1.522    0.343
       153 -11.7077    197.6241    170.2211   2.5660896234e+01   1.0753835589e+01    0.3400745    0.1682173  34.23  0.001324058    2.175    0.540
       154 -12.2411    116.0528    178.0174   4.4562361756e+01   2.1749558430e+01    0.3712561    0.1930635  19.42  0.001474086    2.431    0.589
       155 -12.4140    120.3331    168.5771   4.1839180273e+01   2.3122545739e+01    0.4042709    0.2480497  23.03   0.00182927    1.775    0.437
       156 -10.3638    160.5217    168.4709   3.2486147635e+01   1.6649042932e+01    0.1356536    0.1227639  -9.40  2.83552e-05    1.007    0.007
       157 -11.3913     98.9858    167.6837   4.7309170797e+01   2.6728976709e+01    0.2043096    0.1837134  34.14 0.0004699618    1.062    0.058
       158 -11.8674    143.5110    172.8772   3.7048736427e+01   1.8495353696e+01     0.453352    0.2246189  53.86  0.001660093    3.393    0.705
       159 -12.0047     83.7763    166.9062   5.1448656620e+01   2.9230921658e+01    0.2974644    0.1642862  52.81 0.0009373034    2.066    0.516
       160 -12.8216    110.2259    164.7017   4.3758879632e+01   2.5624645258e+01    0.4275678    0.3439715  -2.31  0.002196701    1.428    0.300
       161 -10.4351    218.0106    164.7004   2.1261772842e+01   8.8109756296e+00    0.1588213    0.1335551 -10.34 0.0003083262    1.091    0.084
       162 -12.1755    170.4912    160.4948   2.8889149369e+01   1.6546095445e+01    0.3506022    0.1708196 -29.16  0.001444618    2.469    0.595
       163 -10.9570    168.8395    156.7937   2.8487817557e+01   1.7499733899e+01    0.1991303     0.191481 -79.76 0.0006158181    1.294    0.227
       164 -12.1902    112.1097    157.7223   4.1969566323e+01   2.6904278446e+01    0.3942868    0.2703682   0.81  0.001721356    2.052    0.513
       165 -11.7777     93.6822    163.4324   4.8061348336e+01   2.8559047372e+01    0.2961438    0.2359099  69.50  0.000966356    1.453    0.312
       166 -12.1162     80.3123    163.1137   5.1853560265e+01   3.0669538375e+01    0.2833012    0.2007384  40.75 0.0003186511    1.341    0.254
       167 -11.2997     12.2566    161.9141   7.2661472279e+01   3.8862294739e+01    0.2731985    0.2361366  72.36   0.00134894    1.029    0.028
       168 -11.1940      7.6488    163.1992   7.4160803512e+01   3.8886309928e+01    0.2309199    0.1601155  41.74 0.0005329974    1.332    0.249
       169 -12.2999      4.6770    160.3211   7.4902252965e+01   3.9846301994e+01    0.4316068    0.2350113 -39.23   0.00196256    2.364    0.577
       170 -10.8815     48.9345    160.8313   6.1069320081e+01   3.5477581523e+01    0.2101441    0.1927575 -34.64 0.0004216978    1.225    0.184
       171 -12.3373     37.0379    160.5584   6.4776976636e+01   3.6901457549e+01    0.3994379    0.2153558  33.07  0.001248713    1.723    0.420
       172 -10.9653    192.8355    159.7094   2.4511217864e+01   1.3198730098e+01    0.2351352    0.1523397 -28.78  0.001151766    1.417    0.294
       173 -11.6996     25.2671    159.6746   6.8409747832e+01   3.8317504501e+01    0.2763731    0.2365753  14.38   0.00073515    1.293    0.227
       174 -11.6951    105.0012    158.4876   4.4035434459e+01   2.7909559927e+01    0.4139745    0.2173476  65.48  0.001218429    4.591    0.782
       175 -10.6848    208.0646    169.9799   2.3836315316e+01   9.3409433849e+00     0.174845    0.1509717 -64.77  0.001125487    1.740    0.425
       176 -10.7960    249.0982    157.5359   1.5527229662e+01   5.8951219550e+00    0.1970051    0.1100085  51.46  0.001140145    2.892    0.654
       177 -10.9180    240.3883    156.7980   1.6550002895e+01   7.0662480698e+00    0.1624043   0.08630463 -28.67 0.0004109882    1.561    0.359
       178 -10.9877    211.2305    157.0327   2.0892992615e+01   1.0936220159e+01    0.1780476    0.1401676 -26.45   0.00055526    1.052    0.049
       179 -12.4385    132.3183    156.5623   3.6579745214e+01   2.3720816049e+01    0.3077474    0.2963349   2.92  0.001783911    1.020    0.020
       180 -11.8506     60.6101    155.9125   5.6738930937e+01   3.5270861057e+01    0.2419264    0.2025044  15.19 0.0003866985    1.294    0.227
       181 -12.5999     42.8246    155.2800   6.2324655367e+01   3.7645392272e+01     0.299324     0.273915  59.09 0.0003721218    1.028    0.027
       182 -13.3730     83.3638    150.9354   4.8893895800e+01   3.3228337202e+01    0.6602132    0.4237297 -16.96  0.002044008    2.462    0.594
       183 -13.5250     74.8158    150.6315   5.1459311652e+01   3.4614561584e+01    0.4647302     0.447013  64.28  0.002498671    1.013    0.013
       184 -11.0864     54.4939    153.9930   5.8404064975e+01   3.6569546525e+01    0.2143769    0.1045889 -44.10 0.0007837359    2.450    0.592
       185 -13.1091      4.2521    150.8345   7.4465077894e+01   4.2353592972e+01    0.7722489    0.4378268 -27.06  0.003503244    2.401    0.584
       186 -12.0618     10.9779    142.0109   7.1587657673e+01   4.4225178969e+01    0.3016124    0.1922038  85.14 0.0006453504    1.499    0.333
       187 -11.5719    172.4436    152.2481   2.6850318244e+01   1.7748330867e+01    0.2691236    0.1212852 -38.41  0.001139839    2.105    0.525
       188 -10.3694     67.6206    153.7013   5.4204702012e+01   3.4876503489e+01     0.155246    0.1138452 -21.07  0.000702357    1.762    0.432
       189 -10.7497    123.4740    151.4919   3.7775492851e+01   2.6360136127e+01    0.1454909    0.1413248  -0.45 6.082468e-05    1.003    0.003
       190 -11.4918     27.7644    150.2130   6.6681630415e+01   4.0583646102e+01    0.3750966    0.2301636 -26.16   0.00152766    2.232    0.552
       191 -11.7159    109.0513    149.2479   4.1151410471e+01   2.9383326894e+01    0.3105197    0.2826826  69.48 0.0007975584    1.196    0.164
       192 -12.1411    118.5537    157.0812   4.0149853780e+01   2.5961262369e+01    0.3064907    0.2008261  12.47  0.001327459    2.008    0.502
       193 -11.7784     96.0428    148.9538   4.4768977050e+01   3.1664595429e+01    0.2286665    0.2215217  50.63 0.0004701319    1.023    0.022
       194 -10.4423     20.7280    148.5332   6.8859084783e+01   4.1682448518e+01    0.2045035    0.1167299  38.51 0.0009471212    1.650    0.394
       195 -10.2086    182.2156    145.4031   2.3573789706e+01   1.7368602713e+01    0.1612931    0.1294946  51.40 0.0002352031    1.500    0.333
       196 -11.1132    170.4320    145.2173   2.5796034276e+01   1.9394710411e+01    0.1918965       0.1242 -50.66 0.0006489316    1.625    0.385
       197 -10.6021    158.0026    145.5094   2.8417665383e+01   2.1503374114e+01    0.2027433     0.138227  37.32 0.0003764562    1.529    0.346
       198 -12.4890    102.9381    142.6988   4.1540171129e+01   3.1993899363e+01    0.5212087     0.369265  76.66  0.001344664    2.005    0.501
       199 -10.8489     61.6468    145.2719   5.4767450078e+01   3.7902665953e+01    0.1597797    0.1062791  58.07 0.0006998694    1.636    0.389
       200 -10.7773    143.0162    143.9852   3.1432005269e+01   2.4490543659e+01    0.1735676    0.1641307  17.45 0.0004113403    1.063    0.060
       201 -10.9442     47.3520    141.7864   5.9012526618e+01   4.0699034416e+01    0.2699863     0.219862 -71.26 0.0008496003    1.205    0.170
       202 -11.5897     53.8001    143.8142   5.7136211689e+01   3.9342656444e+01    0.2789061    0.2109083 -80.17 0.0002419528    1.356    0.262
       203 -11.4455     50.6428    142.2838   5.7966847167e+01   4.0155700517e+01    0.3142411    0.1909964  47.45  0.000706699    1.643    0.391
       204 -10.9148     37.7039    142.9828   6.2482728533e+01   4.1499264792e+01    0.2041086    0.1780715 -80.87 0.0003342975    1.105    0.095
       205 -10.2519    122.0222    145.7441   3.6968907735e+01   2.7900128151e+01    0.1866539    0.1263558  37.71 0.0003484693    1.471    0.320
       206 -11.2679     60.1892    139.8037   5.4346126718e+01   3.9545867015e+01     0.211021    0.1766858 -34.44 0.0006575062    1.332    0.249
       207 -12.4203     95.2426    138.8809   4.3001477287e+01   3.4257247060e+01    0.5841036    0.2728287  22.36  0.001889689    3.247    0.692
       208 -13.1708     69.6664    137.3917   5.0760119412e+01   3.8803180586e+01    0.6205633    0.2970733  49.01   0.00156074    2.314    0.568
       209 -12.3058     51.0411    129.6653   5.5793783548e+01   4.3491627423e+01    0.4556281    0.3037697 -22.80  0.001178579    2.028    0.507
       210 -12.9719     58.0302    126.6247   5.2744890615e+01   4.3352912387e+01    0.5901164    0.3881959 -11.67  0.002415348    2.260    0.557
       211 -11.8065     41.1272    137.4660   6.0543831643e+01   4.2604121144e+01     0.394861    0.2875229  57.12  0.001938613    1.393    0.282
       212 -11.6360     45.3213    133.9373   5.8535413540e+01   4.3061604191e+01    0.3456592    0.2523314  -8.81  0.001615545    1.752    0.429
       213 -11.9762     19.4026    138.5745   6.8344759522e+01   4.4481762397e+01    0.2908719    0.2229402 -39.10  0.000579928    1.470    0.320
       214 -11.4676      1.5983    137.9340   7.4517128119e+01   4.5957207835e+01    0.2969815    0.1214887 -81.25 0.0009214812    2.227    0.551
       215 -11.1979    133.2319    136.3688   3.2106992473e+01   2.7909729309e+01     0.380898    0.2761163 -27.19   0.00181081    1.558    0.358
       216 -10.4535    186.5495    143.5136   2.2390962416e+01   1.6985304497e+01    0.1327728    0.1174812 -31.34 3.265747e-05    1.057    0.054
       217 -10.2346    239.6123    135.8524   1.2756716806e+01   1.0165223999e+01    0.1599423   0.08768579 -41.82 0.0003135003    1.539    0.350
       218 -10.1513     32.2977    136.3279   6.3514926555e+01   4.3878330375e+01    0.1510003    0.1046586 -39.75  0.000567022    1.635    0.388
       219 -12.6817    126.2989    134.2738   3.3377059697e+01   2.9673006648e+01    0.5130749    0.3485812  41.51  0.001688513    1.490    0.329
       220 -12.2932     13.3323    134.5120   7.0105687425e+01   4.6075909252e+01    0.3334067    0.2528267 -61.45  0.000977046    1.292    0.226
       221 -12.4600     19.9060    132.0320   6.7474148460e+01   4.6220482291e+01    0.3264897    0.2652588  41.53 0.0004257736    1.227    0.185
       222 -11.1357      7.0160    134.7845   7.2384975789e+01   4.6456547851e+01    0.2380759    0.1194084  48.68 0.0005808931    1.944    0.485
       223 -10.3555    196.5075    134.4832   1.8783314712e+01   1.6896413072e+01    0.1314274    0.1138644 -34.02 7.949133e-05    1.049    0.047
       224 -11.5245    102.9459    133.5275   3.9592467145e+01   3.4188623100e+01     0.241514    0.1490113  38.65 0.0008822116    1.608    0.378
       225 -13.2428     82.4735    130.5301   4.5219445330e+01   3.8523267341e+01    0.6125162    0.4568622  -1.12  0.002018821    1.790    0.441
       226 -11.4969     68.2729    131.0403   5.0023772919e+01   4.0674580707e+01    0.2128728    0.1967763 -82.50 0.0004616186    1.080    0.074
       227 -11.4498    121.8248    128.3123   3.3175286670e+01   3.1856489807e+01    0.2675931    0.2088983 -62.18 0.0008039433    1.387    0.279
       228 -11.6843    101.1090    128.5693   3.9026914249e+01   3.5715005624e+01    0.2890132     0.239129  78.11 0.0006948833    1.419    0.295
       229 -10.0722    130.4584    128.4534   3.0992130416e+01   3.0156125281e+01    0.1477755    0.1440489 -30.34 0.0002236086    1.004    0.004
       230 -10.7031    109.7702    127.9808   3.6387911878e+01   3.4236942872e+01    0.2045511    0.1260904 -50.48 0.0004432277    1.613    0.380
       231 -10.6766     40.6580    127.7072   5.9250914833e+01   4.5309242053e+01    0.1537576     0.110071 -31.45 0.0007028224    1.655    0.396
       232 -12.4625      9.7993    126.0930   7.0607635179e+01   4.8628749050e+01     0.305998    0.1800625  63.32  0.001416193    1.745    0.427
       233 -10.2614     35.6210    126.7219   6.0970546841e+01   4.6146966327e+01    0.1538846    0.1080012 -30.03 0.0007005947    1.709    0.415
       234 -11.5596     27.0246    125.6962   6.4058030671e+01   4.7310530419e+01    0.2002975    0.1890515  40.90 0.0005706127    1.101    0.091
       235 -11.7167     23.0077    124.0113   6.5365940776e+01   4.8146470401e+01    0.2134487    0.1976423  77.21 0.0003160446    1.035    0.034
       236  -9.9560     49.3218    123.7355   5.5377536683e+01   4.5315942273e+01     0.155468    0.1087519  59.39 0.0002961791    1.558    0.358
       237 -12.7237      4.8041    123.0010   7.2213089404e+01   4.9800888126e+01    0.3176791     0.239962 -46.76  0.001716443    1.385    0.278
       238 -10.4405    179.1308    121.8573   1.9044404615e+01   2.2141889340e+01      0.18074    0.1535498 -11.79 0.0003072367    1.261    0.207
       239 -13.7281     14.3604    119.9046   6.8216260778e+01   4.9991381210e+01    0.6118413    0.3684806  41.12  0.001880942    1.662    0.398
       240 -11.2593    105.2764    121.0678   3.6050913395e+01   3.6718168894e+01    0.2169228    0.2041223 -66.48 0.0006281851    1.073    0.068
       241 -11.2592     28.2998    120.4846   6.2845478656e+01   4.8616952743e+01    0.3422756    0.2773963  47.33 0.0009946994    1.241    0.194
       242 -10.0714    144.2223    119.9763   2.5690408078e+01   2.9238617501e+01    0.1894974    0.1167905 -44.62  0.000349861    1.553    0.356
       243 -12.7654     95.7007    118.8708   3.8401461090e+01   3.9064161655e+01     0.535426    0.3435323 -52.33  0.002337302    1.550    0.355
       244 -11.1777    100.2897    113.6380   3.5707141779e+01   3.9440395438e+01    0.2490739    0.1567594  43.02 0.0006551936    1.593    0.372
       245 -11.4997     71.2192    118.7654   4.6462357534e+01   4.3409068436e+01    0.2265104    0.2004475 -62.25 0.0006267991    1.120    0.107
       246 -13.5551     81.7053    117.3978   4.2558537636e+01   4.1978418983e+01     0.706774    0.5616262  32.62  0.001001676    1.287    0.223
       247 -12.9100     74.2755    114.2554   4.4366647063e+01   4.4060753823e+01    0.4182504    0.3653956  86.63  0.000204898    1.232    0.188
       248 -12.5657     21.5794    117.7898   6.5111261759e+01   4.9982509995e+01    0.4275621    0.2228068  51.07  0.001249408    2.052    0.513
       249 -11.8067    121.9892    117.9193   3.0637790873e+01   3.4144799230e+01    0.2389612    0.2133595 -47.33 -0.001877172    1.100    0.091
       250 -10.2551     38.5287    118.4944   5.8553034688e+01   4.8068441328e+01    0.1482046    0.1410705 -67.77 -4.725531e-05    1.039    0.037
       251 -12.0117    201.6865    114.2186   1.3614133956e+01   1.9397574463e+01     0.227935    0.1986589 -45.28 0.0003077226    1.090    0.083
       252 -10.6118    169.6172    115.1799   1.9261142639e+01   2.5159518635e+01    0.1938089    0.1249517 -31.75  0.000281264    1.564    0.360
       253 -13.1300     62.1497    110.7752   4.7956316027e+01   4.6935134537e+01    0.6095695    0.3538428 -57.88  0.001011058    1.676    0.403
       254 -13.4202      8.4694    110.2872   6.9502894155e+01   5.3043813414e+01    0.4772336    0.2972182  38.77  0.002335644    1.641    0.391
       255 -10.9142    165.3132    111.6648   1.9246845504e+01   2.6657369434e+01    0.1449722    0.1090157 -71.87 0.0004667372    1.687    0.407
       256 -11.1959     20.0760    110.5566   6.4725040740e+01   5.2098895274e+01    0.2174781    0.1416418  21.60  0.001036612    1.625    0.385
       257 -10.2482    123.6370    109.1575   2.7983158027e+01   3.5728766956e+01    0.2156863    0.1391861 -36.23  0.000542835    1.658    0.397
       258 -12.4372      2.2876    107.8688   7.1819006553e+01   5.4073023208e+01    0.5227581    0.2084269 -53.80  0.001938402    2.302    0.566
       259 -10.5977    139.2381    107.2110   2.3651966822e+01   3.2870473726e+01    0.2104957    0.1772624 -80.96  0.001068456    1.372    0.271
       260 -12.1617     65.5563    105.0348   4.5324962923e+01   4.7879211866e+01    0.5088256    0.2515839  58.88  0.001633016    3.310    0.698
       261 -11.9614     62.2607    101.5660   4.5725429631e+01   4.9304959990e+01    0.2905412    0.1794147 -46.87 0.0008826506    1.635    0.389
       262 -10.6362    111.0617    114.6639   3.2808967366e+01   3.7071978537e+01     0.358353    0.2179223 -87.58  0.001092833    4.057    0.753
       263 -11.7544     12.5333    104.6613   6.7103006174e+01   5.4305284586e+01    0.3003686    0.1890864 -35.77  0.001208794    1.741    0.426
       264 -10.4015    104.9430    102.4673   3.1380848768e+01   4.1099278886e+01     0.231965    0.1523957  44.58 0.0004364703    1.533    0.348
       265 -10.7600     78.5995    101.8454   3.9752212605e+01   4.6415024416e+01    0.2678326     0.183169  43.52  0.001194012    1.467    0.318
       266 -11.7673     55.9269    101.0615   4.8090820615e+01   5.0424155196e+01    0.2764252    0.2329389 -49.15 0.0004783192    1.175    0.149
       267 -11.2355     57.9603     97.5040   4.6398037735e+01   5.1030616450e+01    0.2613607    0.2495455 -22.92 0.0007442854    1.090    0.082
       268 -12.2496      5.7010     95.0289   6.8883344329e+01   5.7369965906e+01    0.3897705     0.304486  37.25  0.001862055    1.360    0.265
       269 -12.1882      9.8234    100.0964   6.7684359381e+01   5.5737560645e+01    0.3663553    0.3010828 -31.87  0.001090561    1.291    0.225
       270 -12.5471      5.5144     99.5092   6.9522414743e+01   5.6166245485e+01    0.3202752    0.2539414  -3.43  0.001765432    1.416    0.294
       271 -10.8526    191.4893     98.9835   1.1720288951e+01   2.3773978569e+01    0.1892569   0.09785886 -55.73 0.0005187733    2.304    0.566
       272 -11.4537     98.3589     96.9289   3.1836448123e+01   4.3717212028e+01    0.3646917    0.2285749 -47.15  0.001467336    1.588    0.370
       273 -11.5866     94.1233     98.4352   3.3595167169e+01   4.4235200486e+01    0.3147389    0.2668279  76.61 0.0007274367    1.329    0.248
       274 -11.6203    177.9751     96.1776   1.3203436817e+01   2.6899002176e+01     0.352981    0.1607258 -52.07  0.001399548    2.442    0.591
       275 -10.4028    123.1559     97.5889   2.5001441739e+01   3.8297623309e+01    0.2124008    0.1442577  35.85 0.0008572753    1.661    0.398
       276 -10.3499    104.1569     96.6249   2.9988824156e+01   4.2577497592e+01    0.2097828    0.1453365  32.03 8.222552e-05    1.637    0.389
       277 -12.8880     82.2961     93.6140   3.6183228833e+01   4.7707446095e+01    0.5421615    0.3780681  38.76  0.001423483    1.448    0.309
       278 -11.2990     25.8916     92.1471   5.9075871486e+01   5.6569221545e+01    0.4245815     0.252088  30.68  0.001948098    1.716    0.417
       279 -11.1600     57.8536     91.6440   4.4909876583e+01   5.2539004943e+01    0.2803861    0.2123381 -49.52 0.0004113792    1.299    0.230
       280 -12.1229     54.7871     85.5393   4.4504318039e+01   5.4557216823e+01    0.5352703    0.4967355 -50.92  0.002902076    1.059    0.055
       281 -10.0717     41.3474     91.7364   5.1978824898e+01   5.4911700753e+01    0.1528972    0.1095877  58.79 0.0003456601    1.608    0.378
       282 -10.9032    121.2086     89.9539   2.3341539846e+01   4.0305991863e+01     0.240812    0.1985668 -67.81  0.001194089    1.301    0.231
       283 -11.3891    125.2586     87.8098   2.1697709931e+01   3.9835624473e+01    0.3992341    0.2657712 -31.51  0.001319644    1.694    0.410
       284 -11.8228     73.6314     90.0180   3.8272342468e+01   5.0208123232e+01    0.2883551    0.2609441  15.08 0.0008137785    1.192    0.161
       285 -12.0804      2.8259     87.3565   6.9236984640e+01   5.9593507670e+01    0.4748454    0.2440194 -89.40  0.001918285    2.034    0.508
       286 -12.0941      6.9293     86.6131   6.7138250618e+01   5.9561923480e+01    0.2661013     0.239916 -30.93  0.000454097    1.142    0.124
       287 -10.9985    155.3223     89.3263   1.5523725456e+01   3.2866501811e+01    0.1435095    0.1155305   6.29 0.0007048053    1.687    0.407
       288 -10.5828    134.9965     84.2917   1.8378390808e+01   3.8325374330e+01    0.2860195    0.1877681 -29.98  0.001273983    1.730    0.422
       289 -11.4710    189.6388     83.3585   8.2804499424e+00   2.6670500755e+01     0.237021    0.1780134   6.26 0.0009704844    2.016    0.504
       290 -10.7427     94.9327     83.4937   2.8924090414e+01   4.7428690066e+01    0.2283183    0.2044426 -52.08 0.0003566963    1.117    0.105
       291 -11.5530     64.5999     81.8873   3.9350277797e+01   5.3794420999e+01    0.3627094    0.2757588  27.03  0.001162829    1.399    0.285
       292 -11.0204     10.2748     81.6890   6.4681258564e+01   6.0659098595e+01    0.2679755    0.1807989 -69.54 0.0008920733    1.361    0.265
       293 -11.0278      9.0959     76.9661   6.4449191018e+01   6.1982476830e+01    0.2829762    0.1931352 -77.95 0.0008512968    1.432    0.302
       294 -11.2339     88.8365     79.4932   2.9645439586e+01   4.9592567489e+01    0.3560449     0.223942 -37.16  0.001520665    1.738    0.425
       295 -11.0398      5.0162     80.0399   6.7087967600e+01   6.1421774029e+01    0.2315144    0.1518747  60.20  0.001140378    1.733    0.423
       296 -10.8553    153.4577     79.4933   1.3212682228e+01   3.5029810436e+01    0.1464956    0.1315633 -63.56 4.776454e-05    1.055    0.052
       297 -10.5325    108.1589     78.8082   2.3491415491e+01   4.5499528055e+01    0.1996022    0.1783033 -16.33 0.0005241054    1.282    0.220
       298 -10.5772    162.0332     78.0000   1.1254526652e+01   3.3376574010e+01    0.2280306   0.08095683  57.37 0.0008099481    2.995    0.666
       299 -10.9806    105.5656     73.6558   2.2575418180e+01   4.7117053835e+01    0.3375007    0.2226284 -66.34  0.001417152    1.960    0.490
       300 -11.6987     70.9541     70.0275   3.2941494799e+01   5.5312823603e+01      0.50702    0.3297416 -18.47  0.002023282    2.408    0.585
       301 -11.4311     53.4364     70.8670   4.0599674450e+01   5.8318086842e+01    0.4680026    0.2789589 -17.81  0.001700188    2.990    0.666
       302 -11.0000      2.4863     72.4913   6.7204812206e+01   6.3537994242e+01    0.1366821    0.1225966 -57.54 0.0001770513    1.003    0.003
       303 -12.2330     62.0492     67.9017   3.5821472624e+01   5.7480093380e+01    0.3596831    0.2789061  66.66  0.001008932    1.578    0.366
       304 -10.1675    187.2510     68.3485   4.9164613595e+00   2.9478926392e+01    0.1240794     0.102521  -5.70 0.0001628297    1.587    0.370
       305 -11.7567     49.1943     65.9867   4.0907481942e+01   6.0145206747e+01     0.366426    0.2666204 -43.17  0.001061698    1.367    0.269
       306 -11.2419     46.9743     62.9910   4.0924162690e+01   6.1187667476e+01    0.3320505    0.1988197  38.18 0.0006072532    1.670    0.401
       307 -11.0369      8.3430     67.2939   6.2971151345e+01   6.4537361111e+01    0.1488932   0.08930872 -36.01 0.0007029927    1.660    0.398
       308 -13.2143     17.5977     61.3983   5.6208637366e+01   6.5294100365e+01    0.3665215    0.3093101  -2.51 0.0005609556    1.214    0.176
       309 -11.6527     12.6703     59.9030   5.8717705834e+01   6.6084598127e+01     0.263845    0.2199726 -39.43 0.0006140218    1.109    0.098
       310 -11.1561     42.1800     59.3798   4.2016649231e+01   6.2756277956e+01    0.2518755    0.1894184 -38.42 0.0006530289    1.330    0.248
       311 -10.6715     27.8451     60.5127   5.0085351619e+01   6.4436226564e+01    0.2016319    0.1377321  22.46  0.000551255    1.502    0.334
       312 -10.5362    167.6283     59.7340   5.3934622744e+00   3.5040747078e+01    0.1325502    0.1053681  32.14 0.0006989193    1.665    0.399
       313 -10.2548    153.1886     57.4202   6.9850956183e+00   3.8716283604e+01     0.186571    0.1314625  81.74 0.0004389689    1.527    0.345
       314 -12.2454     23.5691     55.8354   5.1028372138e+01   6.6036135193e+01    0.4261836    0.2862905 -28.83  0.001788158    1.577    0.366
       315 -11.7779    110.5925     54.8094   1.4826860560e+01   4.9382537258e+01    0.3101209    0.2344718 -74.84  0.001505615    1.540    0.351
       316 -12.4081    110.0100     51.0098   1.3624814118e+01   5.0150194888e+01    0.3922578    0.2536222  58.75 0.0003348669    1.495    0.331
       317 -12.2116     37.5416     53.6120   4.2312159603e+01   6.4742527946e+01    0.3349082    0.2310707 -45.75  0.001557711    1.414    0.293
       318 -10.2481    126.2769     54.6668   1.1161790509e+01   4.5599473355e+01    0.1510793    0.1065103 -67.77 0.0002971237    1.603    0.376
       319 -10.9130    106.3330     51.2637   1.4643181401e+01   5.1000255709e+01    0.2158534    0.2060635  38.65 0.0001592808    1.124    0.110
       320 -12.1878     33.1875     57.8106   4.6220161392e+01   6.4401555672e+01     0.590394    0.3408414  62.62  0.002263985    3.091    0.676
       321 -10.0522    195.4745     52.4864   5.4794914261e-04   3.0030321255e+01    0.1305448     0.108215 -56.04 0.0001075752    1.008    0.008
       322 -10.8519    151.5076     51.5143   5.5206208034e+00   3.9998753272e+01    0.1400355    0.1282043 -71.50 0.0005541456    1.022    0.021
       323 -12.2289     30.2612     49.9786   4.5015229647e+01   6.6567790601e+01    0.3406187    0.2333171  13.78  0.001709246    1.581    0.367
       324 -11.2957     16.1707     49.9700   5.3644913197e+01   6.8176225523e+01    0.2078558    0.1865334   9.25 0.0003025935    1.131    0.116
       325 -12.4080     98.0783     47.5628   1.5471040542e+01   5.3594327070e+01    0.5251442    0.2948041 -61.81  0.002034931    2.589    0.614
       326 -11.5734    128.9599     47.0840   8.1066028178e+00   4.6113347785e+01    0.3518173    0.2095935 -33.75  0.001094363    1.735    0.423
       327 -10.5308     44.2573     48.4290   3.6677627159e+01   6.4795614371e+01     0.190424    0.1305517  46.04 0.0008245548    1.544    0.352
       328 -11.1221    142.5894     45.2261   5.0575445510e+00   4.3049279636e+01    0.1947798    0.1375488 -19.93 0.0007018044    1.738    0.425
       329 -10.3750     49.7907     44.2043   3.2067094966e+01   6.4670076340e+01    0.1874239    0.1575503   1.07  0.000489231    1.286    0.222
       330 -11.3717     93.7218     40.4804   1.3910362027e+01   5.5757903461e+01    0.2595975    0.1945192  38.87 0.0004357653    1.429    0.300
       331 -12.7980     32.8506     40.4070   3.9514438722e+01   6.8244856922e+01    0.3904472    0.2502661  33.11  0.001070529    1.533    0.347
       332 -11.0409    120.9297     39.6068   7.1349409394e+00   4.9179721750e+01    0.2084753    0.1988816 -16.07 0.0004274232    1.202    0.168
       333 -11.1671     80.3700     37.5204   1.6702047421e+01   5.9379937842e+01    0.3167202    0.2074678 -41.00  0.001529667    1.605    0.377
       334 -11.6771     22.0270     36.5380   4.4622034962e+01   7.0521730265e+01    0.2736142    0.1783035 -76.51  0.001264553    2.436    0.589
       335 -10.6831      9.9967     36.5385   5.3113524149e+01   7.1800093197e+01    0.1893322    0.1238399  16.45 0.0003905132    1.535    0.348
       336 -11.1841     85.8042     34.4029   1.3665723464e+01   5.8563487591e+01    0.2094776    0.1218883  48.02  0.000935017    1.646    0.392
       337 -11.4853     42.4911     33.8493   3.0929919391e+01   6.7920579130e+01    0.2500441    0.2159872   9.44 0.0009493899    1.146    0.127
       338 -10.4555      4.6325     35.6750   5.6816988635e+01   7.2421598672e+01    0.1466745   0.08087753 -30.62 6.777902e-05    1.803    0.445
       339 -11.9470     30.7362     31.7311   3.6668104131e+01   7.0268141022e+01    0.2409921    0.1615363  29.64  0.001160374    1.448    0.309
       340 -11.9489     77.4941     30.5419   1.4528556274e+01   6.1085543063e+01    0.2921345    0.2399428 -88.53  0.000773674    1.417    0.294
       341 -10.9841     72.0643     30.9805   1.6559211268e+01   6.2280024718e+01    0.2102895    0.1962657  52.81 0.0004399027    1.023    0.023
       342 -10.6853      3.0142     30.3434   5.6123988183e+01   7.3720639648e+01    0.2866751    0.1155466  15.39  0.001243692    2.533    0.605
       343 -11.1889     67.8359     28.3939   1.6839312296e+01   6.3615951500e+01    0.2628577   0.09872207 -36.19 0.0009919526    2.775    0.640
       344 -11.0701     61.5886     28.8009   1.9440082481e+01   6.4941139933e+01     0.187408    0.1294291 -46.45 0.0006120232    1.625    0.385
       345 -11.3721     45.5885     25.8772   2.5147834385e+01   6.8691006368e+01    0.2434742    0.1827101  87.18   0.00118726    2.238    0.553
       346 -12.1901     85.4176     24.1543   9.2722372011e+00   6.0039204328e+01    0.2609119    0.2367131  69.70 0.0006525539    1.042    0.040
       347 -10.1860      1.4531     25.4612   5.5473177748e+01   7.4887800406e+01    0.1253949    0.1104845 -25.35 7.633643e-05    1.033    0.032
       348 -11.5319     70.3120     21.2564   1.2453211635e+01   6.4011242455e+01    0.2333031    0.1988874  25.32 0.0006430551    1.233    0.189
       349 -10.5081     19.4767     23.9689   4.0212223671e+01   7.3341625887e+01    0.1821341    0.1249384 -48.85 0.0008865774    1.526    0.345
       350  -9.9227    167.2716     19.2921   3.5417337112e+02   4.0372823845e+01     0.114851   0.09787529  40.80  0.000180221    1.514    0.340
       351 -10.7962     81.4933     19.5014   8.2150702208e+00   6.1556932024e+01    0.1377066    0.1262166  66.98 0.0008104938    1.028    0.027
       352 -10.8930    132.7325     16.9780   3.5732888203e+02   4.8984123616e+01    0.1798311    0.1645374 -70.46  0.000362028    1.077    0.072
       353 -10.5360    116.6993     11.6282   3.5768313760e+02   5.3558734988e+01    0.1387945   0.09499697  38.09 0.0007030501    1.747    0.428
       354 -11.5069     68.3020    247.0990   6.4399849689e+01   1.4021913754e+01    0.2771927    0.1836039  60.63  0.001687954    1.637    0.389
       355 -10.6779     58.8682    248.1706   6.6580493782e+01   1.4847226444e+01     0.189955     0.126972  39.17  0.001193217    1.182    0.154
       356 -10.6532    162.4057    247.2837   4.4492293678e+01   3.2148461583e+00    0.1299626    0.1093302 -43.10 0.0007137816    1.577    0.366
       357 -10.7851     99.4479    246.8302   5.7483104122e+01   1.0540237022e+01    0.1971729    0.1417765  11.05 0.0005071328    1.349    0.259
