#   1 NUMBER                 Running object number                                     
#   2 MAG_AUTO               Kron-like elliptical aperture magnitude                    [mag]
#   3 X_IMAGE                Object position along x                                    [pixel]
#   4 Y_IMAGE                Object position along y                                    [pixel]
#   5 X_WORLD                Barycenter position along world x axis                     [deg]
#   6 Y_WORLD                Barycenter position along world y axis                     [deg]
#   7 A_WORLD                Profile RMS along major axis (world units)                 [deg]
#   8 B_WORLD                Profile RMS along minor axis (world units)                 [deg]
#   9 THETA_WORLD            Position angle (CCW/world-x)                               [deg]
#  10 FWHM_WORLD             FWHM assuming a gaussian core                              [deg]
#  11 ELONGATION             A_IMAGE/B_IMAGE                                           
#  12 ELLIPTICITY            1 - B_IMAGE/A_IMAGE                                       
         1 -12.9619     20.2567     25.6876   3.6683425098e+01   7.2894732256e+01     0.946422    0.3632436 -41.17  0.003902784    2.670    0.626
         2 -12.0635     24.9230     14.0432   2.6484783095e+01   7.4175052798e+01    0.5135715     0.258284 -40.65  0.002517285    2.107    0.525
         3 -13.0319     27.7668      5.0322   1.8410240768e+01   7.4924396714e+01    0.6669102      0.39936  26.56  0.003499641    1.807    0.447
         4 -12.2728      1.4909     21.9036   4.9948962390e+01   7.5683772058e+01    0.9527839    0.2269744 -63.45  0.002953529    5.351    0.813
         5 -11.4640      2.0417      3.7581   3.8630131719e+01   7.9037693746e+01    0.3628397    0.2647416 -23.85  0.002024188    1.280    0.219
         6 -12.4403     10.5281      2.3368   2.9238318424e+01   7.8163839159e+01    0.6095213    0.2480268  32.30   0.00254837    2.392    0.582
         7 -13.6327      9.3373     12.6765   3.7761343063e+01   7.6657690908e+01    0.8495108    0.5012448 -31.74   0.00416749    1.719    0.418
         8 -12.5925     16.4040      7.8427   2.8480929552e+01   7.6472132334e+01    0.4470903    0.2841287 -28.14  0.002087213    1.640    0.390
         9 -11.1074     35.2955     15.8101   2.1169058055e+01   7.2082991178e+01    0.3667385    0.1753453 -25.32  0.001573028    2.718    0.632
        10 -11.0498     45.5169     14.4857   1.5108325235e+01   7.0251203323e+01     0.226462    0.1271403 -16.59  0.001040943    2.364    0.577
        11 -12.7510    248.2658      6.0245   3.4366087681e+02   2.6780568808e+01    0.3348897    0.1594618 -31.81   0.00211495    1.868    0.465
        12 -11.6638     44.0858      3.6837   9.0248532755e+00   7.1795026235e+01    0.5824502    0.1326502  47.05  0.001985211    3.693    0.729
        13 -10.5959     54.3332    240.6675   6.3746896869e+01   1.5990202178e+01    0.1341033   0.07392389  51.01 0.0007052225    1.729    0.422
        14 -11.0332     65.0218    249.8344   6.1979159182e+01   1.3149995238e+01    0.2173408   0.09660559  44.69  0.001084763    2.015    0.504
        15 -12.0678    241.8870    238.2655   2.6167047738e+01  -3.0288476487e+00    0.2105923   0.09307238 -18.90  0.001250696    2.150    0.535
        16 -12.1292      6.7048    235.3084   7.4496663498e+01   2.1443901775e+01    0.2828615    0.1327302  51.31    0.0015243    1.719    0.418
        17 -11.2904    231.6102    235.2095   2.7272063065e+01  -1.7938179853e+00    0.1526995   0.07181929 -27.69 0.0009581524    1.712    0.416
        18 -11.8436     98.5642    245.1042   5.4038117244e+01   1.0437435877e+01    0.2845537    0.1505861  50.10  0.001436671    2.279    0.561
        19 -11.5794     31.6214    232.7989   6.8576774905e+01   1.9800090748e+01    0.3295734    0.1694147  65.80  0.001682775    2.061    0.515
        20 -12.5569      5.4376    227.6898   7.4531109041e+01   2.3140816539e+01    0.4043985    0.2155569  67.90  0.002050373    1.742    0.426
        21 -12.1100      2.2765    220.9879   7.5054184750e+01   2.4833749118e+01    0.4284664    0.2082946  87.26  0.001969297    2.064    0.515
        22 -11.7124    236.9964    228.2404   2.5444381302e+01  -1.3891583368e+00    0.2016762   0.09872878 -24.50  0.001288856    1.654    0.395
        23 -12.2204    248.0107    225.9902   2.3505997927e+01  -2.0518585906e+00    0.2542853    0.1088913 -29.66  0.001590468    1.792    0.442
        24 -11.2939     11.8905    226.3985   7.2957558950e+01   2.2893363454e+01    0.2797083    0.1391146  57.29   0.00146683    1.772    0.436
        25 -12.7100     15.0349    218.5022   7.1853386474e+01   2.4352216802e+01    0.5972164    0.2179559  53.62  0.002613691    2.438    0.590
        26 -11.4305    240.2998    220.0142   2.3732525419e+01  -6.3917698552e-01     0.157648    0.1033213 -22.92   0.00117381    1.125    0.111
        27 -12.4540    248.6837    214.1179   2.1636011934e+01  -6.3406152656e-01    0.3286867    0.1499806 -31.60  0.002089979    1.653    0.395
        28 -12.1787      2.8206    212.6478   7.4633548026e+01   2.6646585786e+01    0.4073774     0.247863  75.82  0.001789778    1.537    0.349
        29 -12.0367      2.4988    205.8653   7.4465074157e+01   2.8224363935e+01    0.3850681    0.2637788  88.92  0.002267536    1.412    0.292
        30 -14.0364      5.5073    174.5747   7.2233868061e+01   3.5670602627e+01     1.024367    0.4894544 -89.55  0.004589782    2.023    0.506
        31 -13.0030      4.8061    196.4321   7.3482904726e+01   3.0278591720e+01     0.637656    0.3455037  77.46  0.003008766    1.768    0.434
        32 -12.9079      3.6114    188.2383   7.3444871511e+01   3.2363056044e+01    0.5087742    0.2665391  81.64  0.002470796    1.836    0.455
        33 -11.4292     24.8965    212.0816   6.9041194662e+01   2.4932286375e+01    0.4083263     0.201655  76.15  0.001906802    2.237    0.553
        34 -12.6349     12.9885    204.9240   7.1723589028e+01   2.7617691842e+01    0.5621368     0.273221  51.37  0.002754925    1.787    0.440
        35 -10.8674    250.3986    200.2859   1.9256455423e+01   9.8755554301e-01    0.2073519   0.07475313 -34.38  0.001131604    2.103    0.525
        36 -12.8207     18.9888    194.3594   6.9543072213e+01   2.9634455023e+01    0.6865367    0.2678839  62.09  0.002696996    2.772    0.639
        37 -11.6668     27.1368    187.2656   6.6789952277e+01   3.0654470245e+01    0.2900947    0.1448497  65.11  0.001255342    2.145    0.534
        38 -10.5287    249.4955    184.4962   1.6838871761e+01   3.1770471619e+00    0.1096937   0.07886644 -24.17 0.0004139783    1.024    0.024
        39 -11.6068     16.1916    182.1541   6.9566830921e+01   3.2904375703e+01    0.3901434    0.1755355  82.99  0.001615083    2.402    0.584
        40 -11.5754     30.9042    172.6853   6.4481939938e+01   3.4019062223e+01    0.4606502    0.1717625  87.53  0.001455651    3.902    0.744
        41 -12.1006     19.0393    172.4065   6.8055173997e+01   3.5170474619e+01    0.4481436    0.2464376  74.64  0.002036741    1.880    0.468
        42 -12.0565     26.0903    160.4030   6.4852427706e+01   3.7725328406e+01    0.4352867    0.2060597 -87.27  0.001741029    2.272    0.560
        43 -13.7778     10.2569    154.5938   6.9506130682e+01   4.0603327323e+01    0.9759955    0.4594037  75.16   0.00398652    2.265    0.558
        44 -11.3232     20.6625    141.8210   6.4849420661e+01   4.3279637808e+01    0.5010852    0.2393992  88.81  0.001958138    2.299    0.565
        45 -12.2169     10.1094    137.5364   6.8197091735e+01   4.5285867909e+01    0.6443508    0.2545817 -69.17  0.002532977    2.219    0.549
        46 -11.9243      5.6336    125.6304   6.8804869504e+01   4.8888829572e+01    0.6982303    0.3519297  74.24  0.002903932    2.133    0.531
        47 -11.2196     22.0148    123.4794   6.2226643142e+01   4.8275437166e+01    0.6599849    0.1910619 -73.14  0.002082508    3.234    0.691
        48 -11.4110    249.2339    119.0042   5.3316794511e+00   1.2445004778e+01    0.1621549   0.07193196 -37.76 0.0008875392    1.657    0.396
        49 -11.7633     10.3380    113.6258   6.5707994427e+01   5.1934157630e+01    0.7530411    0.2927296 -87.50   0.00262241    2.889    0.654
        50 -10.7785     14.3939     99.5663   6.2086149213e+01   5.5551871621e+01    0.4184246    0.1303654 -72.76  0.001389513    2.966    0.663
        51 -11.5455      2.7551     95.0336   6.6819451014e+01   5.7537975013e+01    0.6209516    0.2775632  87.42  0.002400525    2.511    0.602
        52 -11.8936     16.4802     85.1677   5.8637548772e+01   5.9309713917e+01    0.7030113    0.1678187 -60.60  0.002284372    3.109    0.678
        53 -11.7276      9.5324     71.1405   5.9497777975e+01   6.3533692611e+01    0.7391883    0.2132087 -47.64  0.002552067    3.040    0.671
        54 -11.4971      4.7479     61.7421   6.0276465039e+01   6.6250563333e+01    0.4081365    0.1252749  42.73  0.001308403    4.312    0.768
        55 -11.5209     15.1701     53.0050   5.1485396830e+01   6.7606413503e+01    0.4269813    0.1820114 -62.62  0.001767463    2.263    0.558
        56 -13.3025     12.7546     39.6894   4.8493077656e+01   7.0894166053e+01    0.7981943    0.3419636 -47.06  0.003505553    2.114    0.527
        57 -11.8830      1.4976     38.2414   5.6269348963e+01   7.2124794217e+01     0.608414    0.1268587 -67.51  0.001830711    4.911    0.796
        58 -11.7558     36.9748     30.6223   2.8600507656e+01   6.9410833105e+01    0.5656472    0.2703104 -24.93  0.002005825    3.741    0.733
        59 -11.8037     20.5431    249.4427   7.1918188323e+01   1.7461395665e+01    0.2660382    0.1551571  48.87  0.001484427    1.390    0.280
        60 -10.8260     34.8167    248.7989   6.8710341893e+01   1.6302974772e+01    0.1788205    0.1103743  48.63  0.001084091    1.370    0.270
        61 -10.7429     90.3303    248.6581   5.6213912848e+01   1.0699890126e+01    0.1258973     0.078313  49.94 0.0007051269    1.747    0.427
        62 -12.7576      3.4848    243.1469   7.5465266926e+01   2.0114353668e+01    0.4697526    0.2591729  68.08  0.002397597    1.673    0.402
        63 -11.0809     44.9876    245.1739   6.6200822190e+01   1.6037811626e+01    0.2229361   0.09288241  45.82  0.001088785    2.039    0.510
        64 -11.2642     28.8390    242.3201   6.9729813301e+01   1.8119942324e+01    0.2756852    0.1398366  55.86  0.001488038    1.817    0.450
        65 -12.8115     16.5729    239.9626   7.2419780030e+01   1.9675350878e+01     0.487029    0.2349541  53.03  0.002602683    1.757    0.431
        66 -12.1737    249.7840    240.9691   2.5404775006e+01  -3.9752098968e+00    0.2092931   0.08984295 -34.10  0.001371723    1.859    0.462
        67 -11.5759    225.1213    241.1210   2.9120037199e+01  -1.9697842680e+00    0.1744503    0.1065633 -11.43  0.001252404    1.291    0.225
        68 -10.7866     72.3319    241.6630   5.9659613763e+01   1.3921998739e+01    0.1318354   0.07761724  50.98 0.0002635622    1.738    0.425
        69 -10.5283     62.3368    241.6663   6.1966648856e+01   1.4973666658e+01    0.1334592   0.07519673  50.83 0.0007052018    1.742    0.426
