#   1 NUMBER                 Running object number                                     
#   2 MAG_AUTO               Kron-like elliptical aperture magnitude                    [mag]
#   3 X_IMAGE                Object position along x                                    [pixel]
#   4 Y_IMAGE                Object position along y                                    [pixel]
#   5 X_WORLD                Barycenter position along world x axis                     [deg]
#   6 Y_WORLD                Barycenter position along world y axis                     [deg]
#   7 A_WORLD                Profile RMS along major axis (world units)                 [deg]
#   8 B_WORLD                Profile RMS along minor axis (world units)                 [deg]
#   9 THETA_WORLD            Position angle (CCW/world-x)                               [deg]
#  10 FWHM_WORLD             FWHM assuming a gaussian core                              [deg]
#  11 ELONGATION             A_IMAGE/B_IMAGE                                           
#  12 ELLIPTICITY            1 - B_IMAGE/A_IMAGE                                       
         1 -14.5500    163.0759     52.9678   7.6932186141e+01   3.7676869869e+01      2.05908     1.514585  21.19  0.006878525    1.841    0.457
         2 -13.9615    175.9170     36.8368   7.0297708556e+01   3.6773348956e+01     1.000507    0.7120916  64.89  0.002706716    1.263    0.208
         3 -13.6710    180.3046     29.4394   6.7697855386e+01   3.6632738952e+01    0.7670394    0.4981423  56.41  0.001829723    1.435    0.303
         4 -13.5519    189.6316     14.7847   6.2790344437e+01   3.6068347038e+01     1.269028    0.6555627 -72.62  0.005691535    2.465    0.594
         5 -13.4309    197.2871      5.1952   5.9664027547e+01   3.5263476010e+01    0.5834465    0.5400681  35.05  0.002968888    1.424    0.298
         6 -13.5177    191.7204      4.4487   6.0088088810e+01   3.6638803847e+01    0.8528298    0.4530278 -46.77  0.003007136    1.935    0.483
         7 -10.8107    176.4583    187.9169   1.0722085079e+02   7.8491553563e+00    0.2693615    0.2196649 -66.25  0.000878705    1.436    0.303
         8 -18.6527     62.6018    240.3252   1.3895788393e+02   1.6661770400e+01     8.390588     6.517989 -83.51   0.05640656    1.236    0.191
         9 -10.6175    163.1980    203.5690   1.1305098658e+02   7.2582711632e+00    0.2388692     0.201438 -47.66 0.0002784743    1.268    0.211
        10 -13.5343    139.6000    200.2850   1.1766155317e+02   1.2427598744e+01    0.5923543    0.5611781 -68.53  0.002611582    1.110    0.099
        11 -11.3977    205.5920    179.7985   9.9475854777e+01   3.7225679234e+00    0.4618525    0.3192115 -71.37  0.002013378    2.351    0.575
        12 -10.3766    209.6059    176.4896   9.7986295842e+01   3.5783699623e+00    0.5303335    0.3066529 -25.58  0.001538799    2.145    0.534
        13 -11.4570    151.0243    181.9530   1.1171365275e+02   1.4189737260e+01    0.2341215    0.2288078  79.13 0.0008407642    1.027    0.026
        14 -12.1652    195.7785    169.8252   9.9390969037e+01   7.6351904628e+00    0.5691413      0.44003 -49.26  0.001909217    1.329    0.248
        15 -11.1578    193.6945    164.6828   9.8720580078e+01   9.1053328733e+00    0.4083329    0.3757859  69.27  0.001609706    1.196    0.164
        16 -12.7509    229.9891    168.5074   9.2408690656e+01   1.1946621701e+00     0.792676     0.300086 -39.90  0.003008822    2.480    0.597
        17  -9.9019    203.0097    171.7055   9.8306351898e+01   5.8037991450e+00    0.2056709    0.1914504  31.75 0.0005929719    1.083    0.076
        18 -10.1027    164.3419    170.8227   1.0643218678e+02   1.3914839631e+01    0.3266794    0.2277991 -87.81  0.001333891    2.263    0.558
        19 -11.0726    120.7477    164.0503   1.1539821401e+02   2.4241750581e+01    0.3255998    0.2466637  87.53 0.0007050866    1.574    0.365
        20 -10.8801    156.6246    202.0114   1.1420147056e+02   8.8301290570e+00    0.2985265    0.2228514 -79.41  0.001054609    1.761    0.432
        21 -10.0786    200.4757    162.1847   9.6778369137e+01   8.2118035488e+00    0.3373969     0.232915  15.40 0.0008565972    2.013    0.503
        22  -9.8658    222.6083    161.8609   9.2371410368e+01   3.8369224536e+00     0.215381    0.1265075 -51.06 0.0009440104    1.847    0.458
        23 -11.4174    113.7689    160.7384   1.1648159418e+02   2.6344644163e+01    0.3924873    0.2799731  87.84  0.001468165    1.782    0.439
        24 -12.8748    134.0291    146.2024   1.0831329681e+02   2.5809753835e+01     1.522117    0.3628825 -54.57  0.003328795    6.268    0.840
        25 -10.5237    120.7363    156.2144   1.1381421626e+02   2.6102798863e+01    0.2561953    0.1997875  54.48 0.0006951275    1.302    0.232
        26 -11.4700    207.7664    196.1725   1.0233431592e+02   2.4672377467e-01    0.2649229    0.2384785  50.86   0.00111382    1.246    0.198
        27 -11.2234    174.2455    148.5099   9.9314852943e+01   1.6661460792e+01    0.4029464    0.2893797 -65.16  0.001372401    1.659    0.397
        28 -12.3553    144.2137    145.7674   1.0569834531e+02   2.3780448639e+01    0.5774746    0.3834611 -77.76  0.002267195    2.235    0.553
        29 -12.1614     94.0049    138.7385   1.1714445824e+02   3.5173239455e+01    0.3344565    0.2968518 -32.31 0.0009072675    1.240    0.194
        30 -12.5187    102.4123    138.5894   1.1484118793e+02   3.3741062464e+01    0.2963743    0.2864995 -24.06  0.001641639    1.130    0.115
        31 -12.5644    135.7254    127.2144   1.0342635600e+02   2.9830534088e+01     1.193564    0.2640185 -51.08  0.002721505    5.594    0.821
        32  -9.7470    167.3659    133.8247   9.7420578640e+01   2.1377457457e+01    0.2155154    0.1943643  76.04 0.0004673759    1.170    0.145
        33 -12.1710    106.0492    130.9073   1.1213924894e+02   3.4907805736e+01    0.4471081    0.3539601 -64.71  0.001158018    1.283    0.220
        34 -11.4238    106.7187    125.4615   1.1068394305e+02   3.6062803715e+01    0.3060155    0.2540895 -32.24 0.0006486836    1.296    0.228
        35 -11.7649    118.2764    129.7100   1.0856922270e+02   3.2849290790e+01    0.3791375    0.2962473 -40.73 0.0007325506    1.307    0.235
        36 -11.5680    160.1554    127.6320   9.7575241157e+01   2.4351497423e+01    0.5076985    0.3131206 -57.43  0.001720095    1.822    0.451
        37 -11.7861    122.0240    123.4920   1.0606935091e+02   3.3534325044e+01    0.4814377    0.3225885 -20.06  0.001930702    2.244    0.554
        38 -11.9693    154.0534    195.8684   1.1365693239e+02   1.0601262055e+01    0.3910536    0.2814763  73.22  0.001823265    1.807    0.446
        39 -10.7078    113.0065    118.7885   1.0733460818e+02   3.6403952214e+01    0.2864817    0.2383715  35.11 0.0005765767    1.267    0.210
        40 -11.0146    168.2245    113.1210   9.2097870116e+01   2.5589093435e+01    0.4307018    0.3120922 -81.65   0.00128734    1.877    0.467
        41 -11.4071    134.6043    105.5421   9.8150196558e+01   3.4841703511e+01    0.6937101    0.1561407 -42.58  0.001766466    4.559    0.781
        42 -11.0159    205.0877    110.6307   8.3992502952e+01   1.7516922599e+01    0.3662441    0.3194982  16.10  0.001095409    1.413    0.292
        43  -9.4601    149.9577    110.0502   9.5531626445e+01   3.0451206667e+01    0.1872938    0.1777613 -54.22 0.0004422294    1.046    0.044
        44  -9.7767    130.4753    109.4973   1.0026852885e+02   3.4889528210e+01    0.1530633    0.1511636 -37.35 1.049534e-05    1.019    0.019
        45 -10.2656     76.6488    100.1694   1.1319600959e+02   4.6934100543e+01    0.2657355    0.1694746 -42.61 0.0009566949    1.466    0.318
        46  -9.1860    124.6639     92.2862   9.7098937764e+01   3.9736276306e+01    0.1507313    0.1209251  87.82 0.0003731303    1.628    0.386
        47 -12.0287     11.7713    205.2880   1.4558971268e+02   3.0079050105e+01    0.3596239    0.2674029 -73.34  0.002513454    1.302    0.232
        48 -10.2768    149.1142     80.0815   8.7550079811e+01   3.6564647468e+01    0.2292133    0.2054762  14.07 0.0005102944    1.255    0.203
        49 -10.5239     86.0539     77.3361   1.0389269429e+02   5.0148751418e+01    0.1894909    0.1745875  19.11 0.0004827164    1.098    0.089
        50 -19.1636     43.0033    101.6378   1.2410577075e+02   5.0921142655e+01     16.77203    0.8986585 -58.66    0.0266503   16.033    0.938
        51 -12.4130    165.5288    188.4621   1.0971724440e+02   9.9046136469e+00    0.6083209    0.3622819  41.57   0.00220578    1.617    0.382
        52 -10.8475    168.9698    234.6253   1.1708049659e+02   3.6654682496e-01    0.2171342    0.1974475 -46.22 0.0002007394    1.260    0.206
        53 -10.2648     13.4491     59.8715   1.2441401640e+02   6.2112060480e+01    0.1602997    0.1453138 -27.46 0.0004191194    1.207    0.172
        54  -9.0482    115.4906     31.4610   8.0558519218e+01   5.1577327994e+01    0.1320644    0.1184535  41.02 0.0001334214    1.034    0.033
        55 -10.1339    120.4242     24.7725   7.7196545306e+01   5.1264346623e+01    0.2203916    0.1579302  63.40 0.0006070753    1.385    0.278
        56 -10.5903    198.9922    222.3861   1.0897857723e+02  -2.7929009397e+00    0.2201177    0.1927378 -39.17 0.0005604393    1.271    0.214
        57 -10.9875     30.5774    213.5261   1.4266051679e+02   2.6314162524e+01    0.1610563    0.1104007 -81.16 0.0007349118    1.231    0.188
