#   1 NUMBER                 Running object number                                     
#   2 MAG_AUTO               Kron-like elliptical aperture magnitude                    [mag]
#   3 X_IMAGE                Object position along x                                    [pixel]
#   4 Y_IMAGE                Object position along y                                    [pixel]
#   5 X_WORLD                Barycenter position along world x axis                     [deg]
#   6 Y_WORLD                Barycenter position along world y axis                     [deg]
#   7 A_WORLD                Profile RMS along major axis (world units)                 [deg]
#   8 B_WORLD                Profile RMS along minor axis (world units)                 [deg]
#   9 THETA_WORLD            Position angle (CCW/world-x)                               [deg]
#  10 FWHM_WORLD             FWHM assuming a gaussian core                              [deg]
#  11 ELONGATION             A_IMAGE/B_IMAGE                                           
#  12 ELLIPTICITY            1 - B_IMAGE/A_IMAGE                                       
         1 -12.9063     54.7289    118.4614   7.5717933538e+01   4.5269598416e+01     2.995585     1.076993 -78.62  0.007796457    5.797    0.827
         2 -13.2482    208.6628     50.0705   1.8965309048e+01   2.6438133277e+01     1.232714     1.111139  42.18  0.006301112    1.253    0.202
         3 -13.3220    220.7157     40.9701   1.5064960569e+01   2.4812587923e+01    0.9261885    0.7687998  26.89  0.002158445    1.483    0.326
         4 -12.3830    247.4045     17.9603   6.9138812176e+00   2.1603779800e+01    0.9005493    0.4994331 -31.80  0.004841285    1.518    0.341
         5 -10.4500      2.6823     10.6984   6.9729834379e+01   7.5501004089e+01    0.2830109    0.1267915 -50.93  0.001509463    1.692    0.409
         6  -9.7612    158.0699      8.9474   1.2442514862e+01   4.4235445585e+01    0.2182086    0.2079456 -88.62 0.0006577079    1.006    0.006
         7 -13.2114      1.8460    249.1437   9.7764386385e+01   2.2974127002e+01    0.3217697    0.1899439 -83.03 0.0006625577    1.727    0.421
         8 -11.7004     72.5973    243.4851   8.5241557033e+01   1.6382745916e+01     0.604023    0.3164909  74.35  0.003138156    2.272    0.560
         9 -15.6496      9.3397    144.6804   9.1800824447e+01   4.3279763131e+01     13.84334     3.360067 -88.62   0.04168885    5.366    0.814
        10 -16.2724      9.3620    228.0528   9.5866931404e+01   2.5885792895e+01     4.431992      1.63019  22.69   0.01848093    4.810    0.792
        11  -8.1935     51.2809    250.3782   8.9474745243e+01   1.7770518715e+01   0.08551064   0.08022309 -28.61 0.0007009823    1.714    0.416
        12 -12.6554    131.5619    229.7579   7.2869992242e+01   1.0656896898e+01     1.307891    0.3235423  38.29  0.005154241    3.184    0.686
        13  -9.2680     76.7305    230.8542   8.3518015678e+01   1.7971184411e+01    0.1868788     0.136611  35.79  0.001283001    1.324    0.245
        14  -9.1228     68.6392    229.6819   8.4973106995e+01   1.9184955442e+01    0.1688513    0.1365713 -25.64  0.001141916    2.048    0.512
        15 -10.6741     71.1086    226.6746   8.4267404288e+01   1.9404466696e+01    0.3503522    0.2305942  65.50  0.002312074    1.375    0.273
        16  -9.1857     94.8980    219.8313   7.8972667558e+01   1.7485027422e+01    0.1681899    0.1494497  30.87 0.0005667413    1.261    0.207
        17  -8.9466    142.5271    216.9808   6.9159003625e+01   1.1027536463e+01    0.1559955    0.1226816 -51.88 0.0005490136    1.540    0.351
        18  -8.4103    128.5234    215.5440   7.1748518614e+01   1.3371579213e+01    0.1229594    0.1019547  42.41 0.0001792721    1.022    0.022
        19  -8.8420    132.3194    213.0514   7.0669933848e+01   1.3213012945e+01    0.1568675    0.1482221  57.11 0.0004740086    1.152    0.132
        20  -9.8903    131.1154    207.5591   7.0189546656e+01   1.4323594992e+01    0.2841356    0.2109123 -73.54 0.0009908563    1.759    0.431
        21 -10.8886    129.5231    202.0754   6.9772545045e+01   1.5523759332e+01    0.2699789    0.2480166 -89.02  0.001055186    1.244    0.196
        22 -10.6339    128.2099    198.1994   6.9507448447e+01   1.6421092155e+01     0.223715    0.2207457 -66.91 0.0003748807    1.156    0.135
        23  -8.2851    167.7442    205.3041   6.2546155738e+01   8.9390873257e+00    0.1104047   0.09507467  64.20 0.0002182396    1.511    0.338
        24 -10.6489     75.1602    199.4078   8.1025387470e+01   2.3985704960e+01    0.2525804    0.1837963  86.39 0.0001122369    1.385    0.278
        25 -10.8060    135.0602    198.8943   6.8170470287e+01   1.5209807716e+01    0.3188858    0.2010814  34.24  0.001675363    1.438    0.305
        26 -10.5418     82.7346    195.8480   7.9012258902e+01   2.3667440564e+01    0.3563939    0.2863933 -55.94  0.002270838    1.457    0.313
        27  -9.0983     59.0442    198.1817   8.4373877178e+01   2.6292474690e+01    0.2700395    0.1264343  61.33  0.001322792    2.161    0.537
        28 -10.0780    192.1622    193.3728   5.5916335466e+01   6.8316392487e+00    0.6207769    0.3287784 -60.24  0.001962053    6.913    0.855
        29 -10.6547    163.4615    192.7039   6.1379836774e+01   1.1636257704e+01    0.4499846    0.2369138 -58.22  0.001981602    3.006    0.667
        30 -14.2994      2.5435    209.7540   9.6488725040e+01   2.9878844436e+01    0.8661687    0.2927323  85.31   0.00338885    2.716    0.632
        31 -10.3670     76.7087    183.5415   7.8986160626e+01   2.7029456568e+01    0.4424835    0.2646937  65.50  0.001741346    1.757    0.431
        32 -10.0787     80.1115    181.9048   7.8012425897e+01   2.6903938414e+01    0.2782449    0.1750021  77.94 0.0007842449    1.820    0.451
        33  -8.4972     94.0545    183.9949   7.5074451101e+01   2.4450671982e+01    0.1531148    0.1348495  60.90 0.0003620845    1.005    0.005
        34 -10.5051     99.0190    180.9405   7.3531860438e+01   2.4332989032e+01    0.2789502    0.2502204  57.81 0.0006819641    1.017    0.017
        35  -9.9944    126.9471    177.8171   6.6710035331e+01   2.0467849876e+01     0.349186     0.211081  80.47  0.001342539    3.490    0.713
        36 -10.6359    180.4319    174.8589   5.4823148072e+01   1.1695872797e+01    0.3411814    0.2394965  -3.93  0.001776806    1.704    0.413
        37  -9.8787    113.7576    173.0117   6.8955771601e+01   2.3634414759e+01    0.2656236     0.159388  50.91  0.001288287    1.640    0.390
        38 -10.1535    103.3622    171.3150   7.1133090925e+01   2.5675359436e+01    0.2745567    0.2299181  67.63  0.001384243    1.171    0.146
        39  -9.5411    198.0203    169.2716   5.0343411762e+01   9.5241117723e+00    0.2598161    0.1667907 -58.35  0.001189173    2.660    0.624
        40  -9.1470    139.3295    249.6694   7.3645797218e+01   6.7002546337e+00    0.1109629    0.0723711  56.20 0.0007051697    1.715    0.417
        41 -11.4689     61.3631    165.2702   8.0525444141e+01   3.3094467503e+01    0.3994075    0.2999574 -13.37  0.002131838    2.179    0.541
        42 -11.7428     66.1683    160.9729   7.8802169616e+01   3.3454028307e+01    0.5353166    0.3567718  33.89 0.0007832714    1.577    0.366
        43 -12.7094     63.0769    148.5092   7.7955006099e+01   3.6791959526e+01    0.6194342     0.522454  50.66  0.001501382    1.182    0.154
        44 -12.9255     69.2144    144.5031   7.5723390062e+01   3.6924441438e+01     1.165243    0.5976889  63.41  0.003252019    2.513    0.602
        45  -8.9090    110.6688    167.5014   6.8802042846e+01   2.5298870261e+01    0.2191133    0.1601169 -89.69 0.0007042474    1.683    0.406
        46 -10.2425    230.1642    166.1815   4.4031700773e+01   4.5721574515e+00    0.1634167    0.1504729 -24.97 0.0009251105    1.347    0.258
        47 -10.2119    247.3832    164.1889   4.0870144201e+01   2.1343605243e+00    0.2561775    0.1729489 -32.51 0.0007326714    1.451    0.311
        48 -10.3376    245.7580    159.0727   4.0091719649e+01   3.0589675599e+00    0.3560662    0.1921407 -34.79  0.001165335    1.739    0.425
        49 -10.1138     53.9873    159.4950   8.1703737655e+01   3.5347200427e+01    0.4314166     0.226268  76.79  0.001457489    2.273    0.560
        50  -9.6709     50.3398    157.7038   8.2427967813e+01   3.6202778587e+01     0.269973     0.213822  74.04  0.001102888    1.112    0.100
        51 -10.4733    133.5888    144.9947   5.9129187696e+01   2.6020817213e+01     1.122192    0.2598784 -53.85  0.002561266    6.860    0.854
        52 -11.2798     84.6648    144.5530   7.1563101637e+01   3.4650758789e+01    0.6817247    0.4075831  89.89  0.002892417    2.317    0.568
        53 -10.3189     23.3310    147.2592   8.8367113763e+01   4.1499772570e+01    0.3084851    0.2210831  67.35 0.0009875409    1.232    0.189
        54  -8.9454     40.6875    145.9854   8.3640669331e+01   4.0082473256e+01    0.1961176    0.1512003 -89.74  0.001168121    1.120    0.107
        55  -9.7421     29.5680    142.7275   8.6288507380e+01   4.2004467411e+01    0.2884772    0.1667225  44.64 0.0009368519    1.684    0.406
        56 -10.1291     99.1625    135.3685   6.5968271828e+01   3.4459372034e+01    0.4765854    0.3272916 -12.05  0.001983391    2.581    0.613
        57 -11.5916     85.7765    134.2486   6.9430058900e+01   3.6937656235e+01    0.2932067    0.2628789 -59.70 0.0004435847    1.120    0.107
        58 -10.0477     18.5884    134.3870   8.8495920053e+01   4.5011466225e+01     0.234944    0.1888511 -75.90 0.0007123532    1.144    0.126
        59  -9.3649    109.0692    127.5235   6.1643619003e+01   3.4530620756e+01    0.2855602    0.2459873  12.16 0.0007140622    1.387    0.279
        60 -10.7861     81.8534    149.0103   7.3041775950e+01   3.4027127239e+01    0.3372166    0.2971562  71.49 0.0004599601    1.061    0.057
        61  -9.1653     48.6047    129.6782   7.9339679709e+01   4.3196034219e+01    0.1864561    0.1175998 -81.88  0.000536856    1.511    0.338
        62  -9.9103     44.1434    129.2124   8.0581878237e+01   4.3819691161e+01    0.2775737      0.16091 -59.91  0.001292684    1.582    0.368
        63  -9.6576    105.3739    130.2947   6.3243782042e+01   3.4557847688e+01    0.3545722    0.2819442  58.51  0.001490173    1.310    0.236
        64 -10.6919     68.1320    128.4231   7.3414775449e+01   4.1002220893e+01    0.4081298    0.2330584  69.72  0.001698363    2.367    0.577
        65 -10.9027     96.0327    123.1183   6.4294910965e+01   3.7908714210e+01    0.3138855    0.2819887  -7.94 0.0005982075    1.340    0.254
        66  -8.5427    135.0000    120.0111   5.3103945449e+01   3.1122700350e+01    0.2542915   0.08605351 -45.74 0.0007978654    2.911    0.656
        67  -9.9151     32.5003    118.4332   8.2618369088e+01   4.7727907305e+01    0.2499376    0.1914336  73.50 0.0005628799    1.259    0.206
        68  -8.8212    106.2381    116.9920   6.0014053091e+01   3.7517134955e+01    0.1997716    0.1858908 -57.88 0.0002489118    1.041    0.039
        69 -12.9792      5.2356    178.4304   9.4697564366e+01   3.5999272990e+01    0.6696916    0.3910634  89.73  0.004231974    1.405    0.288
        70  -9.8069    205.2656    110.4309   3.5761139268e+01   1.7832314464e+01    0.3161362     0.253867  24.17  0.001013702    1.346    0.257
        71 -10.0252     38.6272    109.7920   7.9395483070e+01   4.9301979813e+01    0.3655707    0.2020296 -82.63  0.001676213    1.834    0.455
        72  -9.4691     33.8395    110.1556   8.1012675526e+01   4.9689338818e+01    0.2129187     0.161463  77.37 0.0007449482    1.302    0.232
        73  -9.7396     24.4400    104.4198   8.3275613077e+01   5.1990605903e+01    0.3702447    0.1707537 -56.47  0.001715709    1.887    0.470
        74  -8.5044     65.6550    104.2900   6.9453327673e+01   4.7379138850e+01    0.1484886    0.1069148  72.78 0.0003753454    1.656    0.396
        75 -10.0490    129.7754    101.1711   4.9485113096e+01   3.6325098662e+01    0.3095405    0.2592107  23.71 0.0009418065    1.346    0.257
        76  -8.4956     75.2648     97.6433   6.4725873663e+01   4.7583522270e+01    0.1499462    0.1120306  89.47 0.0003410765    1.630    0.386
        77 -10.3262     65.4302    167.9543   7.9840992498e+01   3.1957849351e+01    0.6741952    0.2267869  33.59 0.0001504062    2.932    0.659
        78 -10.3677     46.4986     91.4764   7.3250356416e+01   5.3081290157e+01    0.2792661    0.2141951  74.77 0.0008321339    1.473    0.321
        79  -9.0656     79.2251     91.2196   6.1736433128e+01   4.8502827643e+01    0.2015251    0.1693143 -88.83 0.0004919312    1.340    0.254
        80 -15.4810     31.8172    185.6757   8.9311481028e+01   3.1982458213e+01     7.281889     2.138576  63.04   0.01874211    4.664    0.786
        81  -8.7852    151.5088     72.0002   3.5361795332e+01   3.7103241988e+01    0.2429668     0.120041 -54.09 0.0008103505    2.694    0.629
        82 -15.2757     12.4979    245.3154   9.5898716816e+01   2.2620064677e+01     1.017545    0.6853758  56.38  0.005072744    1.061    0.057
        83 -12.4892    198.1116     57.1634   2.2410146643e+01   2.7970845669e+01    0.7998607    0.7113781  -6.52  0.001468515    1.216    0.177
        84 -13.3493     44.7909    177.8469   8.5773141984e+01   3.2271748740e+01     1.300428    0.8641143  83.48   0.00669043    1.369    0.270
        85  -9.5453    111.8934    242.1994   7.7894169171e+01   1.1507198137e+01     0.166073    0.1450688  60.45 0.0003196032    1.186    0.157
        86  -8.5532     83.0109     61.5144   5.0999380145e+01   5.4609013044e+01    0.2009211    0.1492508  43.38 0.0003280847    1.447    0.309
        87  -8.9222     65.9954     59.9743   5.6797410178e+01   5.7937946277e+01    0.2183641    0.1776003  89.28 0.0005678579    1.665    0.399
        88  -8.6914     84.4850     49.8874   4.5989635206e+01   5.6672349514e+01    0.2136044    0.1386144 -40.18 0.0003768386    1.453    0.312
        89 -14.3621      4.1735    237.6749   9.7069559437e+01   2.4678617426e+01    0.4742823    0.3084559 -66.24  0.002540611    1.988    0.497
        90 -13.0429     75.5969    154.3132   7.5485242855e+01   3.3700934953e+01     1.960038     1.197238  72.95  0.009203265    1.958    0.489
        91 -14.5861     10.1182    206.4148   9.4917750111e+01   2.9852586222e+01    0.7617401    0.5261101  52.09  0.002410547    1.204    0.169
        92  -9.7126      2.0000     23.9976   7.5789322369e+01   7.2790761866e+01    0.2048661   0.05604225 -63.30 0.0008044482    2.956    0.662
        93  -9.2594     60.3258     21.0146   4.1881808408e+01   6.6337673479e+01    0.2173062    0.1857275  25.32 0.0004342756    1.171    0.146
        94  -9.4247    189.4955     14.9696   1.0873244572e+01   3.5465618936e+01    0.2090286    0.1318818 -27.04 0.0005110169    1.549    0.354
        95  -9.1745    118.9922    239.5559   7.6312466702e+01   1.0937705073e+01    0.1825554    0.1430114  75.54 0.0006622477    1.522    0.343
