#   1 NUMBER                 Running object number                                     
#   2 MAG_AUTO               Kron-like elliptical aperture magnitude                    [mag]
#   3 X_IMAGE                Object position along x                                    [pixel]
#   4 Y_IMAGE                Object position along y                                    [pixel]
#   5 X_WORLD                Barycenter position along world x axis                     [deg]
#   6 Y_WORLD                Barycenter position along world y axis                     [deg]
#   7 A_WORLD                Profile RMS along major axis (world units)                 [deg]
#   8 B_WORLD                Profile RMS along minor axis (world units)                 [deg]
#   9 THETA_WORLD            Position angle (CCW/world-x)                               [deg]
#  10 FWHM_WORLD             FWHM assuming a gaussian core                              [deg]
#  11 ELONGATION             A_IMAGE/B_IMAGE                                           
#  12 ELLIPTICITY            1 - B_IMAGE/A_IMAGE                                       
         1  99.0000     30.6176     20.9867   4.5831922539e+01   7.1947580002e+01    0.9289141    0.5085834 -41.87  0.004773383    1.699    0.411
         2 -11.5884     41.9390     20.6206   3.9115391838e+01   7.0320563332e+01    0.5076666    0.3965278  17.58   0.00176225    1.230    0.187
         3 -13.9561     56.8738     66.9283   5.2816583645e+01   5.8772868754e+01     2.670422    0.7822596 -51.22  0.008646428    3.028    0.670
         4 -14.2130     11.1967     69.9051   7.4920518657e+01   6.2794332995e+01     1.615676      1.25256 -17.31  0.009549224    1.444    0.307
         5 -13.2835     62.9530     34.8899   3.6720472682e+01   6.4301772840e+01     2.931793     1.190516 -37.62   0.01163566    2.365    0.577
         6 -12.4906     47.2441     30.9139   4.2018096011e+01   6.7737576780e+01     1.508874     1.337131  11.16  0.009248456    1.113    0.101
         7 -12.7338     53.6732     21.6753   3.3879324858e+01   6.8129450915e+01     1.028389    0.8677117 -88.57  0.005106829    1.889    0.471
         8 -13.6726     34.3536     57.0745   5.9915235543e+01   6.4031831298e+01     1.711146      1.11197  12.55  0.008639313    1.796    0.443
         9 -12.6977     80.1462     22.2579   2.3874388419e+01   6.2641916206e+01    0.9366995    0.7955258 -54.09   0.00532553    1.400    0.286
        10 -12.6037     72.3822     25.2411   2.8086390970e+01   6.3921953365e+01    0.7481977    0.6274913 -18.04  0.002242192    1.157    0.136
        11 -13.6379     13.1491     40.1503   6.5773356379e+01   6.9878871239e+01     1.634681    0.8339944 -55.06  0.008263309    1.591    0.371
        12 -13.6004    183.8176     58.2490   1.5084070536e+01   3.2273843189e+01     2.266566     1.462995 -23.71   0.01060344    1.677    0.404
        13 -10.7487    192.3203     19.4177   2.9336688344e+00   3.5406492830e+01    0.9495461    0.4503333  44.04  0.001886211    3.083    0.676
        14 -12.9351    221.0145     39.5345   5.6153725276e+00   2.6512567926e+01     1.081079     0.696521  71.40  0.002101603    1.715    0.417
        15 -12.8760    175.0739     41.8437   1.1463150417e+01   3.6771039184e+01     2.295745      1.09699  35.16  0.007639498    4.063    0.754
        16 -13.0595    202.2486     33.5363   5.8594141962e+00   3.1427646969e+01     1.392814    0.5236526  65.20 -3.518135e-05    2.711    0.631
        17 -12.2816    217.6205     28.4839   3.1321575241e+00   2.8625055412e+01    0.8160859    0.4596091 -82.45  0.003065444    1.978    0.495
        18 -12.6587    226.2371     22.7726   1.0508794279e+00   2.7457543090e+01    0.4550085     0.360784 -82.93  0.001631021    1.253    0.202
        19 -11.7251    211.5089     21.1750   1.7689501065e+00   3.0823677644e+01    0.4596505    0.4281948   3.60  0.003034098    1.386    0.279
        20 -13.7689    218.8226     56.4056   1.0100654956e+01   2.4681471073e+01     2.731543     1.260186 -57.43  0.008541796    2.488    0.598
        21 -13.2175    232.9117     48.6354   6.7513326129e+00   2.2837747426e+01     1.154335    0.8889738 -49.15  0.003457562    1.051    0.049
        22 -11.3476    147.5397     25.2876   1.0065180983e+01   4.5767774122e+01    0.5038521    0.3059742  62.71  0.001795723    1.591    0.371
        23 -11.4597    202.1538     20.9103   2.4716819891e+00   3.2959778885e+01     0.382329    0.2087732 -48.06  0.001171576    1.566    0.361
        24 -12.1699    204.5192     17.5703   1.3885724691e+00   3.2795147713e+01    0.4794758    0.2345014 -68.82  0.001351415    2.200    0.546
        25 -11.5154    130.1173     19.1645   1.0620646146e+01   5.0883507795e+01    0.2986465    0.2472765 -88.90 0.0004652056    1.229    0.186
        26 -10.3233    122.0603     17.8058   1.1508681684e+01   5.3068313949e+01    0.4141103    0.1942976 -48.58  0.001670965    2.451    0.592
        27 -13.0672      4.4170     32.6652   6.8706044946e+01   7.2116490389e+01     1.145034    0.4613529 -68.93  0.004919149    2.649    0.622
        28 -10.9655    228.8568     10.0647   3.5784593099e+02   2.8314557539e+01    0.6705322     0.328166 -57.24  0.002237293    1.739    0.425
        29 -12.7734    221.2703      8.0489   3.5781536630e+02   3.0123352748e+01    0.5106033    0.1818318 -50.94  0.001072148    2.282    0.562
        30 -14.0651    244.5904      8.0787   3.5653929996e+02   2.5351087239e+01    0.9625763    0.3845708 -69.94  0.003127058    2.657    0.624
        31 -11.5463    232.6139      3.9162   3.5621232244e+02   2.8175564428e+01    0.6733185    0.1876328 -40.43  0.002812138    2.391    0.582
        32 -10.6159    150.1021     13.0019   5.4601585096e+00   4.6442467339e+01    0.2269998     0.179354 -37.96  0.001174881    1.257    0.205
        33  -9.6298    133.7055     13.4163   7.8631295090e+00   5.0562226110e+01    0.3140844   0.08404738 -32.76  0.001088703    3.218    0.689
        34 -10.6978    125.0574     10.6638   8.1475704277e+00   5.3018939025e+01    0.4872614    0.2938824  -8.29  0.001847227    1.990    0.498
        35 -12.4167     24.9682     41.3093   5.9145404262e+01   6.8597436826e+01     1.530178    0.6949049 -42.65  0.006975195    1.895    0.472
        36  -9.8817    167.1907     12.5955   3.3718755528e+00   4.2204585113e+01    0.2637643   0.09177955 -28.19  0.001029295    2.672    0.626
        37 -10.7957    114.8599     12.8435   1.0804172103e+01   5.5382130387e+01    0.2310107     0.217642  87.92            0    1.068    0.064
        38 -10.9816    116.3311      9.2410   9.0302415702e+00   5.5350209535e+01    0.3951859    0.1853448 -30.71  0.001463025    2.123    0.529
        39 -10.5375     88.5871     11.5919   1.6043411843e+01   6.1917006390e+01    0.2819829    0.2212034  -8.55  0.001587489    1.328    0.247
        40  -9.4410    212.6878     11.7410   3.5927869587e+02   3.1598939715e+01    0.2177274   0.09796201 -58.04  0.001021087    2.046    0.511
        41  -9.8415    142.1565     11.9866   6.1352583799e+00   4.8554147597e+01    0.2075911    0.1492517  35.74 0.0008857805    1.605    0.377
        42 -12.0602     85.2529      1.4530   1.1736139786e+01   6.3603642542e+01    0.4226682    0.1334765  63.29  0.000961692    2.770    0.639
        43 -11.1173     76.8477      4.9148   1.5761333274e+01   6.5266712795e+01    0.2171422    0.1965236  20.97 0.0003509662    1.046    0.044
        44 -12.3120     78.8925      9.8389   1.7824089526e+01   6.4337586551e+01     0.376741    0.2248012  47.03  0.001299423    1.527    0.345
        45 -12.3127     67.7069      5.8191   1.9080034516e+01   6.7221295720e+01    0.8754889    0.6065968  57.10  0.004877125    1.424    0.298
        46  -9.7581    108.5677      9.1595   1.0419132119e+01   5.7297273405e+01    0.2389617    0.1290447 -24.79 0.0007284859    1.912    0.477
        47 -10.4242     27.0939      9.3205   4.0716349480e+01   7.4320498255e+01    0.2615967    0.1712831  13.40  0.001483841    1.570    0.363
        48 -11.4767    193.9278      7.6845   3.5956026326e+02   3.6264573125e+01    0.3058269    0.2376233  61.69  0.001394925    1.432    0.302
        49 -12.7916    173.2239      5.8788   7.2984538716e-01   4.1372878673e+01    0.5046722    0.3046497 -10.92  0.002515151    2.071    0.517
        50 -10.1574    130.9919      8.5731   6.4322041076e+00   5.1705761490e+01    0.2135044    0.1843685  28.33 0.0005989749    1.275    0.216
        51 -11.1165    100.9597      7.2397   1.1076462244e+01   5.9345026921e+01    0.3448888    0.2157621 -23.11  0.001120774    1.671    0.401
        52 -10.6898    104.5084      6.0972   9.8448731873e+00   5.8570644871e+01    0.2335669    0.1643129  50.85 0.0004572446    1.314    0.239
        53 -12.0394     57.7381      4.4153   2.1793390323e+01   6.9472345188e+01    0.4741307    0.3881025  61.39  0.001830384    1.392    0.282
        54 -10.9405     47.6289      1.5936   2.4122361202e+01   7.1777652750e+01    0.3424743     0.133373  46.03  0.001367075    2.276    0.561
        55 -10.2560     47.4878      8.5011   2.8787111348e+01   7.1042500441e+01    0.2516999    0.1733116  11.34 0.0008660392    1.483    0.326
        56  -9.5212     47.2639      5.6299   2.7005962825e+01   7.1418092300e+01    0.1969604    0.1636489 -33.56  0.001226414    1.380    0.276
        57  -9.2945    157.0182      7.2967   2.7470884445e+00   4.5245955433e+01     0.146045    0.1125018  79.23 0.0003375872    1.220    0.181
        58  -9.5660    146.2888      6.0522   3.5232809469e+00   4.8054746787e+01    0.2379645    0.1246984  -8.86  0.001040527    2.452    0.592
        59 -11.0599      2.8211      6.0921   5.7146053442e+01   7.7600767346e+01     0.248157    0.2069796  -5.14  0.001128971    1.186    0.157
        60  -9.2644     93.1940      4.0686   1.1232909392e+01   6.1500431000e+01    0.1483129    0.1378203  17.69            0    1.085    0.079
        61 -10.5402    111.3023      4.8531   8.0492440469e+00   5.6987621344e+01    0.3223797    0.1607106  59.23 0.0006082026    1.769    0.435
        62  -9.8220    183.8768      3.5611   3.5917539154e+02   3.9024202889e+01     0.233256    0.1875144  73.77 0.0006179534    1.262    0.208
        63 -10.8191    187.3199      1.2945   3.5828354421e+02   3.8418563759e+01    0.2204727    0.1114828  72.20 0.0005839549    1.899    0.473
        64  -9.4556    217.9688      1.8358   3.5650097013e+02   3.1455022333e+01    0.3242688    0.1900298  79.33   0.00162474    1.715    0.417
        65 -10.0909    213.3806      1.8677   3.5676732984e+02   3.2446353418e+01    0.1751293    0.1644267  53.90 0.0004620576    1.375    0.273
        66 -10.4010    206.9668      3.2404   3.5749538308e+02   3.3729125613e+01    0.1714368    0.1508891 -58.03  0.001150914    1.107    0.096
        67  -8.8959     91.2647      6.6456   1.2932772845e+01   6.1744679594e+01    0.2044244     0.132495   7.96  0.000289397    1.789    0.441
        68  -9.8306    250.4029      1.4995   3.5484421012e+02   2.4907052780e+01    0.1171831     0.085069 -52.11 8.082673e-05    1.020    0.019
        69 -10.7045     88.4837    238.9689   7.3963083326e+01   1.2970148697e+01     0.155342    0.1168698 -70.61 -1.48245e-06    1.540    0.351
        70  -9.7916     15.9916    238.4960   8.8479495734e+01   2.1120451472e+01    0.1225808   0.09386399  -9.83 0.0004131004    2.248    0.555
        71  -9.9777    157.5455    222.5377   5.7702086849e+01   6.4856506174e+00    0.1239826    0.1065146  18.71 5.508262e-05    1.032    0.031
        72  -9.7904    236.7072    146.0058   2.8758276798e+01   7.1807799863e+00    0.1856518    0.1375794 -27.13 0.0003680509    1.083    0.076
        73 -12.6818     47.5320     56.0377   5.3083104418e+01   6.2621606699e+01     1.561817    0.4031856 -46.32  0.002177967    3.353    0.702
        74  -9.8790    228.7299    137.9775   2.8272406089e+01   9.7512581810e+00    0.2582608    0.1845278 -57.51  0.001367985    1.881    0.468
        75  -9.6471    184.5253    134.9943   3.5421061174e+01   1.8219202764e+01    0.2256048    0.1337826 -38.63 0.0004856342    1.529    0.346
        76 -13.1415      4.6042     56.7226   7.5415341524e+01   6.6451465252e+01     1.071375    0.6405882 -60.06  0.005843517    1.310    0.237
        77 -10.1824    160.3351    124.3222   3.7932048309e+01   2.5210321309e+01    0.1592442    0.1202295  -3.90 0.0005249274    1.708    0.415
        78 -12.3942     76.4652     51.0523   3.8613142696e+01   5.8766639781e+01    0.6139237    0.3598032 -28.57  0.000592556    1.870    0.465
        79 -12.3497     82.4665     48.4611   3.5291846622e+01   5.8041735778e+01    0.5633008    0.4193794  18.60 0.0005172871    1.567    0.362
        80 -12.0587     75.2853     41.8137   3.5021317529e+01   6.0703266029e+01    0.3995335    0.3156348 -37.25  0.002117585    1.239    0.193
        81 -12.6271     81.3334     40.3719   3.2143801473e+01   5.9699907293e+01    0.5718393    0.3856145  40.41  0.001581207    1.499    0.333
        82 -11.5772     49.4112     95.1312   6.4062865970e+01   5.2701562680e+01    0.2787372    0.2174768  39.93 0.0006698333    1.422    0.297
        83  -9.4670    232.7034     94.1918   1.7696156925e+01   1.6166172425e+01    0.1824513    0.1044911 -30.16            0    1.533    0.348
        84 -12.0347    115.5549     93.4744   4.0788313931e+01   4.1605044897e+01    0.5260978    0.3495495   8.42  0.001927926    2.683    0.627
        85 -11.9197    185.0686     92.1427   2.4428264342e+01   2.6256988021e+01    0.3992025    0.3348193 -38.99  0.001428574    1.065    0.061
        86 -11.7968     96.0341     90.5219   4.5877875891e+01   4.6312475779e+01    0.5532309    0.4881247  59.90  0.002088053    1.247    0.198
        87 -11.3671     81.7861     98.5912   5.3026428645e+01   4.6971241067e+01    0.3587369       0.3147  25.52  0.001581425    1.257    0.204
        88 -11.8744     45.2527     91.6658   6.4881569659e+01   5.4117241470e+01    0.3550472    0.2539362 -59.41  0.001781413    1.221    0.181
        89  -9.5467     78.5111     91.9757   5.2298675242e+01   4.9198137310e+01    0.2313323    0.1190898 -34.51 0.0008098897    2.503    0.600
        90 -11.1694    216.1058     90.7204   1.9110707744e+01   1.9943830885e+01    0.2967762    0.1633405 -46.31  0.001373247    1.641    0.391
        91 -11.1873    212.3150     88.9757   1.9217509462e+01   2.1001128540e+01     0.231996    0.1988759 -80.83 0.0006449549    1.355    0.262
        92 -10.5713    168.0370     89.9270   2.7017855705e+01   3.0493374774e+01    0.5929521    0.2616638  54.93  0.002182855    2.519    0.603
        93 -10.9906    182.0453     83.5056   2.2582883344e+01   2.8484904499e+01    0.4825414    0.2757955  48.93  0.001933253    1.947    0.486
        94 -10.5166    172.5240     87.4831   2.5446387501e+01   2.9928474845e+01    0.2773043    0.2211427 -33.65 0.0007824067    1.182    0.154
        95 -10.9892    175.6844     85.7107   2.4348994805e+01   2.9533717187e+01    0.3351783    0.2553984  44.39 0.0008973367    1.471    0.320
        96 -12.2870    223.8452     87.6657   1.7292480896e+01   1.8899254790e+01    0.4614927    0.3493709  17.15  0.002468177    1.823    0.451
        97 -12.5518    177.0447     71.4725   2.0012550214e+01   3.1728858908e+01     1.440329    0.5744812 -53.11   0.00402098    3.375    0.704
        98 -14.1180    194.4884     85.8985   2.1144751096e+01   2.5296668596e+01     1.756125     1.496414  17.93   0.00948947    1.433    0.302
        99  -9.6404    152.7434    124.0358   3.9598406326e+01   2.6838805261e+01    0.2136581    0.1859745 -41.38 0.0001903025    1.079    0.073
       100 -10.3936    115.7206    121.0006   4.8368562030e+01   3.5060105375e+01    0.2269601    0.2021398 -50.50 0.0004302508    1.068    0.064
       101  -9.8750     72.9812    119.0184   6.1047741068e+01   4.3084609838e+01    0.2238229    0.2068913 -75.35            0    1.032    0.031
       102 -11.5402    234.2903     36.5930   3.7504233741e+00   2.4123023698e+01    0.7512421    0.3496801 -81.87  0.003207551    3.026    0.670
       103 -13.8666    193.4923     67.4435   1.6266007283e+01   2.8590533400e+01      1.93541     1.219513  83.90  0.006232376    2.093    0.522
       104 -10.9065    182.2046    117.2002   3.1540950049e+01   2.2138852335e+01    0.3756941    0.3575903 -45.26  0.002110717    1.097    0.089
       105 -10.1296    203.9156    116.0461   2.7281464950e+01   1.7997852632e+01    0.4561852    0.2232494  65.45  0.001566309    4.060    0.754
       106 -10.3862    127.1114    114.8502   4.3639796986e+01   3.4230992385e+01    0.2302792    0.2120373 -84.85 0.0003009116    1.181    0.153
       107 -11.2189    137.9695    112.5143   4.0183568690e+01   3.2485935334e+01     0.516165    0.2714923  36.52  0.001676686    2.215    0.549
       108 -10.4703     95.4964    112.0268   5.2101088314e+01   4.1125860654e+01    0.4000247    0.2601057 -79.98  0.001546788    2.243    0.554
       109 -12.8218    197.4399     49.9972   1.0900903438e+01   3.0322458133e+01      1.20024    0.4590744 -41.54  0.003705559    2.189    0.543
       110 -12.7791    209.6709     46.7688   8.6125602576e+00   2.8015650888e+01     1.874582    0.8202277 -88.28  0.006224874    4.514    0.778
       111 -13.4771    210.0048     59.2548   1.1856052485e+01   2.6165093072e+01     1.070739    0.7612795 -71.64  0.002266946    1.537    0.349
       112  -9.5980    211.6148    112.1081   2.5049482302e+01   1.7201307577e+01    0.2062227    0.1581379  41.97 0.0005646941    1.514    0.340
       113 -13.3831    241.8599     60.3819   8.6886017274e+00   1.9465679537e+01     1.725501    0.5383101 -44.57  0.001956645    2.529    0.605
       114 -12.2257     48.2200     85.4490   6.2118715612e+01   5.5381561727e+01    0.4586426    0.3542008 -84.78  0.001799353    1.470    0.320
       115 -12.2955      5.4971     87.0085   8.0383886506e+01   5.8650118971e+01    0.3901844    0.2719071  82.21  0.002152227    1.440    0.306
       116 -11.5379    237.9380     86.4594   1.5224509954e+01   1.6391721140e+01    0.3325738    0.2539756  73.59  0.001114587    1.672    0.402
       117 -11.5899    231.6036     84.2033   1.5461321986e+01   1.7935164353e+01    0.3494306    0.2573983 -61.86   0.00114456    1.469    0.319
       118 -11.7286    112.5676     86.6965   3.9552791582e+01   4.3771680283e+01    0.5432038    0.2970574  51.86  0.002112133    2.033    0.508
       119 -12.1687    115.1512     80.3655   3.6751603297e+01   4.4584744578e+01    0.6489507    0.5506105 -16.25  0.002629098    1.309    0.236
       120 -11.4967    248.8070     83.1752   1.3222295464e+01   1.4904645066e+01    0.4439801    0.3484455 -29.51   0.00274039    1.153    0.133
       121 -11.5456    161.6266     84.0825   2.6613386664e+01   3.3080831007e+01    0.7379043    0.4310197  47.14  0.003120472    1.865    0.464
       122 -12.2712    168.7950     79.5118   2.3853412971e+01   3.2252533785e+01    0.6270026    0.4452297 -41.47   0.00167178    1.286    0.222
       123 -10.2117     30.9541     85.4762   6.9355994054e+01   5.7253296126e+01    0.3088847    0.1890942 -65.04 0.0008707105    1.407    0.289
       124 -12.0550     11.8989     24.8906   6.0333784806e+01   7.3259557115e+01    0.3690293    0.3296806 -14.70  0.001007276    1.163    0.140
       125 -11.4496    214.9018     83.3392   1.7428128888e+01   2.1392338749e+01    0.2794896    0.1878861 -30.66 0.0007643392    1.349    0.259
       126  -9.9018    103.9915     75.7108   3.8515625095e+01   4.8025389530e+01    0.2401996    0.2126632  -9.38 0.0005227125    1.233    0.189
       127 -12.4134     98.3523     78.0917   4.1114710389e+01   4.8699013110e+01    0.9724309    0.5900516 -67.20  0.003465654    2.531    0.605
       128 -11.6264     96.9099     68.9694   3.8393580623e+01   5.0968486885e+01    0.4318373    0.2923414 -40.71  0.001951863    1.410    0.291
       129  -9.6574    238.1065     81.0520   1.3936164585e+01   1.7180346746e+01    0.1816719    0.1513666 -25.76            0    1.190    0.160
       130 -11.8281    221.1551     79.2306   1.5565183773e+01   2.0770094559e+01    0.3400326      0.26786 -28.43 0.0009356044    1.201    0.167
       131 -13.0569    217.9985     74.9263   1.4892211983e+01   2.2087693374e+01    0.6527509    0.4013813 -20.87  0.003101023    1.851    0.460
       132 -12.6934    220.7132     69.7412   1.3249464795e+01   2.2322312351e+01    0.5331443    0.3762182 -28.11  0.002884348    1.352    0.260
       133 -11.4305     82.6187     78.2751   4.6549776314e+01   5.1765606010e+01     0.451128    0.3445151 -61.75  0.001650059    1.405    0.288
       134 -10.7589     82.8547     72.8607   4.4614828385e+01   5.2958029108e+01    0.3240796    0.2367653  31.40  0.001219298    1.501    0.334
       135 -10.1662    155.9767     76.9227   2.5618613305e+01   3.5751533353e+01    0.3136355    0.2264093  75.08  0.001420892    1.681    0.405
       136 -10.6536     86.8277     74.2818   4.3694693079e+01   5.1872227758e+01    0.5430294    0.2030695 -43.53  0.001823614    2.544    0.607
       137 -12.4668     72.7668     74.0449   4.8789557693e+01   5.4528076118e+01    0.7018165    0.6081529  46.25  0.003219235    1.272    0.214
       138 -11.1907    225.9567     74.2961   1.3747404900e+01   2.0563963076e+01    0.2706985    0.1787541 -28.23  0.001061937    1.420    0.296
       139 -11.7498    248.3566     60.9967   8.2150791018e+00   1.8152317819e+01    0.4422216    0.2884122 -46.49 0.0007720776    1.221    0.181
       140 -11.1258    103.8489     66.1949   3.5189433912e+01   5.0033386713e+01    0.3562423    0.2728458   1.76  0.001620358    1.702    0.412
       141 -10.6720    162.6168     57.2829   1.8213096927e+01   3.7533666650e+01    0.5325306     0.509142  77.15   0.00245047    1.095    0.087
       142 -10.8958    167.5707     51.6426   1.5608938378e+01   3.7194687324e+01     0.309411    0.2677152 -23.18 0.0008191444    1.225    0.183
       143 -11.3479    135.2793     72.2447   2.8748314074e+01   4.1571275756e+01    0.5503858    0.3486154  54.04  0.001434963    1.657    0.396
       144 -11.4460    126.6297     69.5465   2.9985774651e+01   4.4141179698e+01      1.04851    0.4011649  49.29  0.003556895    2.685    0.628
       145 -13.6621    116.2212     62.2217   3.0152831051e+01   4.7980355659e+01     1.072943    0.8111904  34.27  0.002161081    1.470    0.319
       146 -11.9622    145.4147     66.8766   2.4667397996e+01   4.0121602737e+01     1.014602    0.7737767  16.46  0.004173116    1.747    0.428
       147  99.0000    140.7423     61.4255   2.3868550069e+01   4.2221131564e+01     1.819219    0.5875053  43.80  0.005163992    4.158    0.760
       148 -11.0374    151.9894     59.1841   2.0795312363e+01   3.9836706539e+01    0.4161816    0.3012345 -11.20    0.0018977    1.744    0.427
       149 -11.0020    155.1131     64.8067   2.1998323320e+01   3.8123033699e+01    0.9298448    0.2791847 -37.54   0.00293136    2.977    0.664
       150 -10.5641    106.0050     71.4268   3.6406930798e+01   4.8490449525e+01    0.2512219    0.1977299 -41.70 0.0005382756    1.214    0.176
       151 -11.7464    167.1870     64.9459   1.9782829958e+01   3.5171869838e+01    0.5485307    0.4893458  72.16  0.002054543    1.184    0.156
       152 -10.1291    161.2874     66.9665   2.1487335835e+01   3.6253858471e+01    0.2139259     0.179029 -38.81 0.0002635202    1.123    0.110
       153 -11.1570     91.0082     66.3072   3.9387083008e+01   5.2760827200e+01    0.3922541    0.3292113   5.75  0.001921248    1.363    0.266
       154 -11.6562     86.2065     63.6309   4.0053116951e+01   5.4299937642e+01     0.415393    0.3387563 -24.90  0.002090458    1.251    0.200
       155  -9.9387     78.8300     66.8316   4.3932416158e+01   5.5057964334e+01    0.2321257    0.1959991 -17.90 0.0003708038    1.244    0.196
       156 -10.6486    127.8266     58.6096   2.5862933770e+01   4.5863399671e+01    0.5445853    0.2891688  38.41  0.002070794    2.336    0.572
       157  99.0000    109.1774     54.4688   2.9209377326e+01   5.1041819358e+01     1.260805    0.6426749  30.44  0.004241925    3.209    0.688
       158 -10.4869     99.0978     47.5512   2.9409725670e+01   5.4573660184e+01    0.3189773    0.2384965 -21.33  0.001065862    1.417    0.294
       159 -11.2108     98.4899     55.0364   3.2615119420e+01   5.3378188856e+01    0.6504295    0.3098505 -44.10  0.002511158    2.099    0.524
       160  -9.4503    102.5581     53.3396   3.0697425648e+01   5.2770503535e+01    0.4451725    0.3860078   1.76  0.001235418    1.258    0.205
       161 -12.0525    173.6219     56.7065   1.6192583061e+01   3.4946441936e+01    0.3678515    0.3063744  73.92 0.0005675588    1.266    0.210
       162 -10.8514    248.6934     55.5417   6.9408899047e+00   1.8832958055e+01    0.3420239    0.2199969  48.26  0.001437897    2.108    0.526
       163  -9.7984    143.0000     54.9897   2.1199369195e+01   4.2747991258e+01    0.3512641    0.1716758 -23.64  0.001264668    2.553    0.608
       164 -11.0159    146.1422     52.1567   1.9600270312e+01   4.2422440469e+01    0.3501973    0.2579775  24.06 0.0004913666    1.771    0.435
       165 -10.2782    135.8005     52.8322   2.1976447768e+01   4.4883225532e+01    0.4935162    0.2015574  59.15  0.001764644    2.537    0.606
       166 -10.9678     90.5121     51.1774   3.3641769086e+01   5.5839969464e+01    0.2383101    0.2280232  19.28 0.0002540717    1.052    0.049
       167 -10.1886    245.2756     50.2186   6.0204463149e+00   2.0192517458e+01    0.2061047    0.1211923 -35.59 0.0002118775    1.371    0.271
       168 -10.1411    160.4372     50.7279   1.6504499682e+01   3.9090809201e+01     0.247593    0.2093351  -3.58 0.0007092853    1.406    0.289
       169 -10.1281    161.6833     47.4313   1.5236498280e+01   3.9274530913e+01    0.3365051    0.2316532  77.34  0.001607547    1.584    0.369
       170  -9.7197    250.4771     48.9704   5.2994907321e+00   1.9371678428e+01    0.2006544    0.1011629 -33.24  0.001038113    1.618    0.382
       171  -9.8206    173.3894    112.4175   3.2076780317e+01   2.4920035845e+01    0.2878263    0.1305222  34.81 0.0009564277    3.212    0.689
       172 -10.2689    131.7443     33.6948   1.5839708133e+01   4.8727604506e+01    0.3103616    0.2110703 -47.10 0.0009475696    1.498    0.333
       173 -10.1921    133.9458     41.0159   1.8113913668e+01   4.7160475549e+01    0.8121921    0.5785273  86.73  0.003836031    1.662    0.398
       174 -12.0414    148.8248     40.7894   1.5218648086e+01   4.3446491371e+01    0.7512076    0.3761975 -49.56  0.002776591    2.117    0.528
       175 -11.2287    142.2789     46.6965   1.8478887959e+01   4.4230973650e+01    0.2536877    0.2290292 -73.07 0.0001842276    1.118    0.105
       176 -11.9396    144.9813     44.0317   1.7033238228e+01   4.3948864994e+01    0.3116122    0.2548054 -16.40 0.0003599116    1.347    0.258
       177 -10.4209    123.0368     43.8071   2.1535839155e+01   4.9465050207e+01    0.4607037    0.3145392  34.03  0.002055399    1.710    0.415
       178 -11.3200    247.9150     42.4517   4.0295993911e+00   2.0698403318e+01    0.4854384    0.2223504 -62.49  0.002278093    2.458    0.593
       179 -10.3499    105.2113     43.7298   2.6056861437e+01   5.3787828048e+01    0.2424266    0.2367147 -24.38 0.0008402654    1.024    0.024
       180 -10.0403    169.4170     32.3733   9.3074916810e+00   3.9411252622e+01    0.3750597    0.1843423  89.38   0.00141088    2.788    0.641
       181 -10.0756    164.0724     31.0564   9.6108061303e+00   4.0904731873e+01    0.5362878    0.2045024 -54.48  0.001796503    3.375    0.704
       182 -11.0113    156.1889     41.4400   1.4187007140e+01   4.1504924833e+01    0.3815742    0.2532266  51.46  0.001823124    1.589    0.371
       183 -11.1609    161.5314     40.0220   1.2871907347e+01   4.0365350883e+01    0.3451484    0.2830367  43.99 0.0004198962    1.368    0.269
       184 -11.7198    160.0452     36.0794   1.1816704230e+01   4.1267279896e+01    0.6529356    0.2940296  62.72  0.002671261    2.178    0.541
       185 -10.4710     99.7665     41.5573   2.6710455587e+01   5.5407357577e+01    0.2920791    0.2394903 -33.51  0.001056024    1.206    0.171
       186 -10.1366     94.0758     41.4126   2.8366205862e+01   5.6734956708e+01    0.2684139    0.2018035 -11.24 0.0008220511    1.494    0.330
       187  -9.0997    114.3715     38.7048   2.1608138304e+01   5.2356701524e+01    0.1531993    0.1126166 -72.03 0.0007027255    1.732    0.423
       188  -8.9544    168.2705     37.3470   1.1024131135e+01   3.9051160440e+01    0.1384073    0.1103736  20.07 0.0004895352    1.620    0.383
       189 -10.4840    122.3975     33.2481   1.7587211555e+01   5.1135567440e+01    0.4110329    0.2262219 -51.32  0.000578345    2.105    0.525
       190 -10.2539    123.9975     29.0692   1.5610286439e+01   5.1276706878e+01    0.2145318    0.2052137  89.09  0.000698972    1.041    0.040
       191  -8.9954     96.4113     36.5371   2.5536265644e+01   5.6960399929e+01    0.1417426    0.1374624 -40.81 0.0002567273    1.085    0.078
       192  -9.3517    249.1924     35.3477   2.3312576215e+00   2.1344669331e+01    0.1104461    0.0826676 -20.71 0.0001962821    1.522    0.343
       193 -11.2192     91.8680     33.8884   2.5722396722e+01   5.8398896198e+01    0.4840625     0.301309  35.85  0.002223672    1.731    0.422
       194  -9.2186    104.6207     27.9748   1.9545094972e+01   5.6208281266e+01    0.2460807    0.1774355 -30.50  0.001245423    1.399    0.285
       195 -10.6986    112.5033     32.8110   1.9659181078e+01   5.3646169068e+01    0.4075803    0.2496115  61.77  0.000470129    1.642    0.391
       196  -9.1608    106.0319     31.0000   2.0494064137e+01   5.5468142808e+01    0.2798699    0.1497661  65.27  0.001171465    2.037    0.509
       197 -10.5962     74.5038     33.7722   3.1550207223e+01   6.2204872323e+01     0.384051    0.2317153  38.63  0.001803436    1.684    0.406
       198  -9.2154    152.2867     33.6726   1.2213464761e+01   4.3532918450e+01     0.151771    0.1006989 -60.08 0.0007010233    1.611    0.379
       199 -10.2176    242.0040     30.2808   1.6924908817e+00   2.3355925234e+01    0.2015872    0.1337114 -54.46 0.0005780019    1.229    0.186
       200  -9.7865    237.5330     30.6854   2.1084902003e+00   2.4196869664e+01     0.307369    0.1688622  88.30  0.001278486    2.081    0.519
       201  -9.6498    152.7013     29.8112   1.0839061001e+01   4.3916433647e+01    0.2014323    0.1544567 -71.10 0.0004100853    1.347    0.257
       202  -9.4892     80.5418     30.4435   2.7779852550e+01   6.1430759697e+01    0.1889891     0.132775 -17.48 0.0003552441    1.498    0.332
       203 -11.4284     85.9630     28.6355   2.5126035771e+01   6.0489388544e+01    0.4076943    0.2575397  52.70 0.0008859711    1.564    0.361
       204  -9.4428    114.3852     28.2613   1.7342018156e+01   5.3778786743e+01    0.1524155     0.100829  35.25 0.0005957381    1.685    0.407
       205 -11.2100    197.6247     25.9969   4.2591916588e+00   3.3412597471e+01    0.3252211    0.2314499  87.71  0.001328117    1.418    0.295
       206  -9.8195    168.8388     26.8148   7.6407195643e+00   4.0235924351e+01    0.1967706    0.1442285 -57.38 0.0005007288    1.300    0.231
       207 -12.9343    176.1917     23.5354   5.7620426562e+00   3.8809517256e+01    0.3223002    0.2935714 -47.28 0.0004735975    1.092    0.085
       208 -10.9441    120.9528    110.6824   4.4202851592e+01   3.6479030723e+01    0.2190637    0.2083828  55.05 0.0003468237    1.112    0.101
       209  -9.2918     19.9681     20.1388   5.2260673357e+01   7.3409468996e+01    0.3410802    0.1647335 -50.74  0.001246799    2.055    0.513
       210 -10.8840    234.2053     24.0762   7.9819758307e-01   2.5655672402e+01    0.2471465    0.1816295 -34.14  0.001138263    1.266    0.210
       211 -10.2471    113.2488     23.2954   1.5524584123e+01   5.4665798251e+01    0.3065256    0.2286513  72.81  0.001384557    1.386    0.278
       212  -9.5445    135.4853     25.4750   1.2082083622e+01   4.8808264940e+01    0.1399984    0.1346161 -89.98 0.0002211303    1.005    0.005
       213 -11.4394    126.7080     24.6875   1.3365676408e+01   5.1126151958e+01    0.3144088    0.2322096  89.62 0.0005320371    1.499    0.333
       214  -9.7511    102.6375     23.2284   1.7950320890e+01   5.7279268446e+01    0.1902683    0.1712435 -15.21 0.0005403948    1.136    0.120
       215  -9.5865     98.1383     21.7080   1.8395988178e+01   5.8544519092e+01    0.3122306    0.2864695  40.28  0.001737773    1.038    0.037
       216 -10.0959    244.4728     18.9673   3.5896533371e+02   2.4188923651e+01    0.3029262    0.1627347 -47.50  0.001101629    1.411    0.291
       217 -11.0251    246.9774     22.7678   3.5966290466e+02   2.3268721140e+01     0.220363    0.1913204  85.22 0.0008950059    1.345    0.257
       218 -11.9482    242.5532     22.5564   3.5989305196e+02   2.4157435003e+01    0.3601084    0.2146828  85.47    0.0013012    1.821    0.451
       219 -10.1747     38.3154    110.6690   7.1439208916e+01   4.9774942495e+01    0.1514402    0.1027316  70.87 0.0004072525    1.682    0.405
       220  -9.7538    234.0233    108.9505   2.0959914228e+01   1.3573088617e+01    0.1964152    0.1511488   2.53  0.001100357    1.590    0.371
       221  -9.4479    138.4569     22.4611   1.0475337542e+01   4.8400547940e+01    0.1389882    0.1317035  53.79 0.0008061748    1.092    0.084
       222  -9.7773    119.6281     22.0853   1.3700923162e+01   5.3211537231e+01    0.2199793    0.1635355 -45.71 0.0006020378    1.398    0.285
       223 -10.5286     21.3875     25.2333   5.4041834481e+01   7.2290129038e+01    0.3939472    0.2670419  28.11  0.002141214    1.617    0.381
       224 -10.8903    196.7205    108.3894   2.6626432086e+01   2.0818878802e+01    0.5009298    0.3169906 -64.38  0.002126656    2.293    0.564
       225 -10.3204    191.6827    103.2555   2.6199783422e+01   2.2801355435e+01     0.518218    0.1680135 -44.89  0.001682727    2.957    0.662
       226 -11.7256    161.9257    106.8274   3.3006092846e+01   2.8518060160e+01    0.3651843    0.2114143 -43.45  0.001523514    1.599    0.374
       227  -9.9598    139.0098     17.7472   8.6661907624e+00   4.8773640516e+01    0.2325796    0.1285005 -25.09 0.0007480531    1.872    0.466
       228  -9.7927    209.3524    105.1896   2.3721315452e+01   1.8845449567e+01    0.3583736    0.1778245 -55.30  0.001361647    2.740    0.635
       229 -12.3051    156.0817    104.6620   3.3704621926e+01   3.0247712107e+01    0.5495248    0.3525625 -52.59   0.00235615    1.612    0.380
       230 -11.5387    152.3762     96.1381   3.2134466714e+01   3.2834037654e+01    0.6744441    0.5234761 -61.97  0.001929139    1.417    0.294
       231 -10.8680    159.1725     99.1618   3.1486653587e+01   3.0687538548e+01     0.352077    0.2483283 -55.91 0.0003642556    1.508    0.337
       232  -9.9828    153.3248     17.1514   6.4627405653e+00   4.5205570452e+01    0.1873464    0.1583517 -38.00 0.0005055667    1.181    0.154
       233 -11.2442     94.2895     15.9277   1.6682549431e+01   6.0116483720e+01    0.2833233    0.1939003  53.55  0.001109313    1.363    0.266
       234  -9.4057    223.4621     15.5537   3.5949432122e+02   2.8857456439e+01    0.1299216   0.09739419 -56.15 0.0003088585    1.076    0.071
       235  -9.6318    160.1658     13.8280   4.5324367634e+00   4.3828472641e+01    0.1684241    0.1529638  38.40 0.0004106853    1.263    0.208
       236 -10.1750    157.6643     95.7404   3.0844726922e+01   3.1716991451e+01    0.2287887    0.1936484  32.09 0.0003107313    1.327    0.246
       237 -10.1702    183.3462    104.2771   2.7988378733e+01   2.4378481937e+01      0.51937    0.2581765 -58.88  0.001721848    3.309    0.698
       238 -12.0742    145.3318    103.1385   3.5777273139e+01   3.2944782219e+01    0.6233042     0.485014  59.13   0.00236438    1.441    0.306
       239 -10.8263    109.4916    104.4927   4.5788820244e+01   4.0289615246e+01    0.2846525    0.1423085 -39.01 0.0007339296    2.139    0.532
       240 -10.1614    187.2744     13.1539   1.6213872201e+00   3.7272844446e+01     0.239254    0.1308467 -64.77 0.0005347099    1.825    0.452
       241 -11.2552    140.9128     96.0480   3.4808143482e+01   3.5443118412e+01    0.4410168    0.3656547 -86.01  0.001048153    1.465    0.317
       242 -12.0727    147.7391     83.1568   2.9320504311e+01   3.6508834799e+01    0.8245842    0.4348789 -44.42  0.003257632    1.794    0.443
       243 -11.2063    134.0461     87.2312   3.3857280344e+01   3.8859908567e+01    0.9396451    0.3179639  49.85  0.002927443    3.140    0.682
       244 -12.0753    136.0032     81.3471   3.1523171454e+01   3.9614806131e+01    0.9274432    0.6764497  82.28  0.002837444    1.864    0.463
       245 -13.1284    123.1349     98.4590   4.0140985712e+01   3.8844481498e+01     0.834824    0.5705085 -20.11  0.003399391    1.972    0.493
       246 -12.9859    131.0664     95.2502   3.7062099498e+01   3.7818984120e+01    0.8421478    0.8003095  23.44  0.004381265    1.129    0.114
       247 -11.7962    127.3129     89.8510   3.6414958358e+01   3.9829007645e+01    0.5945457    0.3305604  44.84 0.0007571224    1.909    0.476
       248 -11.9220    121.2657     87.4231   3.7300912549e+01   4.1704628894e+01    0.5814885    0.3840044 -49.31  0.001454429    1.478    0.324
       249 -12.2162    125.2648     83.8541   3.5080005792e+01   4.1570851393e+01    0.5854046    0.4426089 -30.71  0.001490806    1.364    0.267
       250 -12.5026     73.2987     97.4695   5.5703501903e+01   4.8678072807e+01    0.5770813    0.4255886 -78.82  0.002650946    1.594    0.373
       251 -10.3224    165.1866    102.0910   3.1013748485e+01   2.8759249121e+01    0.2391009    0.2072474 -16.10 0.0007097066    1.231    0.188
       252 -10.6840     96.1293    101.0836   4.8954191776e+01   4.3739015268e+01    0.2557193    0.2172588 -25.28   0.00106354    1.285    0.222
       253 -12.4457     87.5978     98.3325   5.0976360230e+01   4.6005723957e+01    0.6355031    0.4654878  13.80  0.002213239    1.787    0.440
       254 -11.7322    226.2386     97.9828   1.9462385914e+01   1.6776449708e+01    0.4176734    0.3394279 -20.30  0.002434857    1.228    0.186
       255 -11.7158    107.1995     92.1842   4.2871059611e+01   4.3663417625e+01    0.5382531     0.220568  42.13  0.001782692    2.604    0.616
       256 -11.8195    102.3221     96.3469   4.5627089660e+01   4.3678975170e+01    0.5233906    0.3456836 -64.42  0.001224919    1.778    0.437
       257 -11.6600    106.9297     95.9865   4.4100763461e+01   4.2831638342e+01     0.363453    0.2890155 -45.80 0.0004637456    1.187    0.158
       258 -11.8838     57.4774     99.7996   6.2099112148e+01   5.0421736573e+01      0.32554    0.2303756  21.59  0.001550996    1.655    0.396
       259  -9.6710    244.5536     98.4227   1.7178124795e+01   1.3364916595e+01    0.2445466    0.1100478 -25.81   0.00102634    2.357    0.576
       260 -10.6631    170.4135     98.0008   2.8809651108e+01   2.8405264382e+01    0.4073916    0.2556373 -48.74  0.001782673    1.551    0.355
       261 -12.1284     11.9897     97.3559   7.9227289507e+01   5.5540608434e+01    0.3589862    0.2743023 -58.32  0.001193518    1.163    0.140
       262 -11.0440    199.9079     96.3477   2.3011789514e+01   2.2315117798e+01    0.3885627    0.2480195 -56.01  0.001168039    1.736    0.424
       263 -11.0455     36.3895    248.8855   8.5039502560e+01   1.7167892761e+01    0.1961238    0.1268191 -63.56  0.001313848    1.888    0.470
       264 -11.3616    113.6186    246.4183   6.9587265881e+01   8.4779475885e+00    0.2824721    0.2003142 -36.73  0.001254933    1.788    0.441
       265 -10.5853    180.8896    243.7660   5.6186774138e+01   1.8425840608e-01    0.1817118    0.1602137  85.73  0.001245728    2.076    0.518
       266  -9.6446    218.5193    239.5332   4.8855604477e+01  -3.8201813313e+00    0.1125963   0.08456835   3.62 0.0001431555    1.029    0.028
       267 -13.3559     79.1933     59.3698   4.0962528067e+01   5.6573193846e+01     1.523283    0.6560393  41.86  0.005725692    2.446    0.591
       268 -12.2018     64.3850     47.6927   4.2040413132e+01   6.1690359875e+01     1.392798    0.9551503  75.94  0.005704632    2.963    0.663
       269 -13.3042     60.2613     89.6251   5.8431630940e+01   5.2686517937e+01    0.7320303    0.6355982  55.66  0.001453721    1.295    0.228
       270 -12.7610     66.6952     83.1171   5.4057531129e+01   5.3355125056e+01    0.9239046      0.70972  72.50  0.000561885    1.717    0.418
       271 -12.9499     37.9576     81.8557   6.5507621385e+01   5.7499180709e+01    0.9014928    0.4833819 -52.20  0.002096237    1.588    0.370
       272 -14.1539     39.9144     70.4807   6.1525305000e+01   6.0167951463e+01      2.12927     1.018137  43.24  0.008766433    2.563    0.610
