#   1 NUMBER                 Running object number                                     
#   2 MAG_AUTO               Kron-like elliptical aperture magnitude                    [mag]
#   3 X_IMAGE                Object position along x                                    [pixel]
#   4 Y_IMAGE                Object position along y                                    [pixel]
#   5 X_WORLD                Barycenter position along world x axis                     [deg]
#   6 Y_WORLD                Barycenter position along world y axis                     [deg]
#   7 A_WORLD                Profile RMS along major axis (world units)                 [deg]
#   8 B_WORLD                Profile RMS along minor axis (world units)                 [deg]
#   9 THETA_WORLD            Position angle (CCW/world-x)                               [deg]
#  10 FWHM_WORLD             FWHM assuming a gaussian core                              [deg]
#  11 ELONGATION             A_IMAGE/B_IMAGE                                           
#  12 ELLIPTICITY            1 - B_IMAGE/A_IMAGE                                       
         1  99.0000    200.8479     19.5157   5.4324158467e+01   3.2245239603e+01     3.175534     1.772633 -12.46   0.01332374    1.990    0.497
         2 -13.4554    241.4713     45.6655   5.7307430344e+01   1.8896503764e+01     2.710102    0.8055674 -39.59  0.006480793    2.898    0.655
         3 -12.5746    232.0373     14.0367   4.9439943803e+01   2.4832620792e+01    0.9921063    0.5272745 -11.99  0.003253631    2.126    0.530
         4 -11.8620    233.1284      4.4698   4.6669044829e+01   2.5526068896e+01     1.124196      0.55574  55.82  0.003992203    2.144    0.534
         5 -15.2021    242.6277     26.7891   5.2000879662e+01   2.0867678393e+01     8.287273     2.253571  57.70   0.01959615    3.523    0.716
         6 -12.8054    249.1124      4.3914   4.5449117777e+01   2.1691593860e+01    0.9917302    0.6661344   7.23  0.005052028    1.920    0.479
         7 -10.0939    179.9855     23.6208   5.8443580154e+01   3.7331107911e+01    0.6130439    0.2302406 -31.21  0.001508761    2.392    0.582
         8 -10.4078    143.3600      8.5990   5.8675645996e+01   4.8688150841e+01    0.7567862    0.3669842 -10.59  0.002951445    2.329    0.571
         9  -8.7084    144.7451      3.5918   5.6426290263e+01   4.8809987002e+01    0.3030526    0.2702259 -65.61  0.001162643    1.241    0.194
        10 -11.7920    119.8336     10.6806   6.4153925999e+01   5.4379909504e+01     0.818387    0.6696494  67.94   0.00335677    1.358    0.264
        11  -8.8875    179.0273     13.0558   5.4934630632e+01   3.8759802773e+01    0.2427614    0.2018524 -18.88 0.0004997745    1.203    0.169
        12  -9.5167    208.8230      6.5982   4.9428149797e+01   3.1491313784e+01    0.3421753    0.2373447   0.02 0.0009348372    1.666    0.400
        13 -14.9080    210.4048     67.4126   6.7668772357e+01   2.3483382989e+01     12.81861     5.294896 -49.41   0.04146783    3.215    0.689
        14  -8.6147    181.2464      6.5267   5.2404253546e+01   3.8815776076e+01    0.4565256    0.1396419  70.17    0.0014789    3.214    0.689
        15  -9.2312    135.2558      5.4419   5.8808480431e+01   5.1084990920e+01     0.269597     0.195426 -13.65 0.0007660616    1.371    0.270
        16  -8.0973     79.9528      1.7045   7.0122025085e+01   6.4209449898e+01    0.1812059    0.1585654   3.54 0.0005828853    1.046    0.044
        17 -10.1899    209.5229    159.4874   9.0671921460e+01   9.5915156224e+00    0.2324535    0.2119888  25.21 0.0006483769    1.088    0.081
        18 -11.9756    234.6405    248.5889   1.0121031191e+02  -4.4366860926e+00    0.2100409    0.1571662  31.50  0.000737483    1.168    0.144
        19  -8.1300     95.4528    150.5167   1.1198832881e+02   3.2114014373e+01    0.1286196    0.1132868  83.20 7.985442e-05    1.020    0.020
        20 -10.5660     68.3175    145.3788   1.1731782834e+02   3.7089888961e+01    0.6356382    0.3891799  74.86  0.002668318    1.723    0.420
        21 -10.0354    215.4159    140.4473   8.5624807179e+01   1.1195799332e+01    0.3808119    0.2919939  58.10  0.001527274    1.543    0.352
        22  -8.6546    188.6723    139.3321   9.0258473989e+01   1.6822207542e+01    0.2823692    0.1903912  13.88  0.001091395    1.983    0.496
        23  -8.1749    157.4437    140.5253   9.6739262204e+01   2.2977627225e+01    0.1375092    0.1324313  59.16 0.0001144093    1.025    0.024
        24 -10.2610      2.6770    228.4174   1.3539568590e+02   2.8609960097e+01    0.2125873    0.1919241 -82.99  0.002082706    1.756    0.431
        25  -7.8603    161.5196    135.9829   9.4928850399e+01   2.2992399476e+01    0.1845175    0.1248193 -13.43 -7.920725e-05    2.242    0.554
        26 -10.5286    198.8493    133.8227   8.7115315537e+01   1.5605959185e+01    0.5401493    0.3352863  75.61  0.002057769    3.327    0.699
        27  -8.7459    160.9945    128.5148   9.3384116944e+01   2.4485493747e+01    0.2864203    0.2053761 -60.92  0.001384421    1.658    0.397
        28 -10.3749    203.8521    126.9058   8.4597216570e+01   1.5654389889e+01    0.3312007     0.273582   9.31  0.001284922    1.240    0.194
        29  -9.4016    218.1986    125.8876   8.1819443454e+01   1.2784853972e+01    0.3044063    0.2104384  68.83  0.001319526    2.075    0.518
        30  -9.1976    134.8832    123.3700   9.7948299172e+01   3.0808732104e+01    0.5264693     0.147315 -52.96  0.001471812    4.594    0.782
        31 -10.1583    146.7466    225.2057   1.1205719288e+02   1.1160633356e+01    0.1918896    0.1556927  51.03 0.0002647461    1.052    0.049
        32  -9.4257    184.4857    122.4747   8.7197475357e+01   2.0558364668e+01    0.2919729    0.2396203  59.45  0.001144081    1.328    0.247
        33  -9.9670    185.6581    118.7630   8.6068808597e+01   2.0943343013e+01    0.5048785    0.2519353 -52.94  0.001856672    2.796    0.642
        34  -9.7355    195.1777    120.0318   8.4555986828e+01   1.8641013585e+01    0.2651098    0.2292819  67.54  0.001422734    1.350    0.259
        35  -9.4389    217.0986    116.2381   7.9688735275e+01   1.4474343272e+01      0.43532    0.2149703  34.42  0.001724734    2.398    0.583
        36  -7.8291      1.4886    117.5570   1.3001431975e+02   4.9826515917e+01    0.1131929   0.08218342 -87.33 7.958294e-05    1.016    0.016
        37  -9.6017    168.1496    114.0851   8.8445156782e+01   2.5638544597e+01    0.3452011    0.2840037 -80.60 0.0009136568    1.529    0.346
        38  -8.4798    159.3114    115.6383   9.0703208494e+01   2.7274987563e+01    0.1530813    0.1169046 -78.44 0.0007041122    1.749    0.428
        39  -8.5791    127.2380    112.9532   9.7339195235e+01   3.4469038753e+01    0.3472917    0.1670362 -60.25  0.001266235    2.718    0.632
        40  -7.5313    141.3263    105.2912   9.2122187810e+01   3.3165672403e+01    0.1476552     0.119113   5.50 0.0007016597    1.618    0.382
        41 -10.6142    206.2895    110.2149   8.0077366423e+01   1.7785631682e+01    0.5308216    0.2831949  58.12  0.002193348    2.174    0.540
        42 -11.7571    172.3568     71.0425   7.5492743425e+01   3.2403735297e+01     0.689983    0.6103594 -21.14   0.00175628    1.108    0.098
        43 -12.2548    181.2542     80.8126   7.6702261488e+01   2.8549241164e+01     2.662635    0.5796243 -43.18  0.006335982    5.274    0.810
        44  -9.9312    189.7949     75.3964   7.3500870505e+01   2.7349998002e+01    0.3906365     0.292417  39.07  0.001006856    1.414    0.293
        45 -10.2735    194.6577     72.5011   7.1774367684e+01   2.6608680605e+01    0.4305378    0.3328452  34.23  0.001283336    1.393    0.282
        46  -9.4690    197.4219     97.0941   7.8249287814e+01   2.1944610037e+01    0.3924774     0.336925  18.20  0.001720539    1.212    0.175
        47  -9.2038    133.8082     96.1329   9.1483671970e+01   3.6621769857e+01    0.4554088    0.1992285 -49.63  0.001666335    2.345    0.574
        48  -9.4818    170.3889     94.7835   8.2886286073e+01   2.8682910974e+01    0.3248006     0.261792  41.69 0.0008445326    1.274    0.215
        49  -9.9546    158.2731     94.8411   8.5485824858e+01   3.1474544726e+01    0.4566697    0.2879011  38.57   0.00197488    1.744    0.427
        50  -9.0444    141.2738     90.9164   8.8250251619e+01   3.6062740456e+01    0.3182825    0.2483184 -49.35 0.0008804261    1.261    0.207
        51 -10.3481    173.5598     85.4944   7.9594402910e+01   2.9600476910e+01     0.529394    0.3792542  24.45  0.001423219    1.702    0.412
        52  -9.6887    160.0000     86.9875   8.2873734109e+01   3.2550820298e+01    0.3410939    0.2118945 -42.95 0.0009693594    1.572    0.364
        53 -10.5155    155.6969     85.2958   8.3322208763e+01   3.3873747756e+01    0.3566058    0.3197827 -18.40 0.0006180473    1.141    0.123
        54  -9.5504      3.7624     80.7623   1.2562667752e+02   5.7893541598e+01    0.2516764    0.1217323  69.47  0.001296093    2.500    0.600
        55 -12.4012     10.8715    185.2116   1.3235502228e+02   3.5296011075e+01    0.7527989    0.5309603  77.28  0.004092168    1.034    0.032
        56  -7.8815    160.4687     80.5325   8.0861958565e+01   3.3629807482e+01    0.1546781    0.1487716 -24.94 9.260127e-05    1.007    0.007
        57  -8.2072    190.6624    190.9825   9.9736855970e+01   8.6314232775e+00    0.1779532    0.0977364 -61.48 0.0007049888    4.351    0.770
        58  -8.3883    113.8115     76.1054   9.0808761338e+01   4.4895938138e+01    0.2121756    0.1886607 -64.05 0.0003244502    1.157    0.135
        59  -8.8719    147.8320    100.9231   8.9480205908e+01   3.2635532358e+01    0.2728868    0.2404737 -17.71 0.0007103566    1.232    0.188
        60  -9.2911    164.4946     63.4835   7.4676656517e+01   3.5641004070e+01    0.3263179    0.1480646 -33.55 0.0008123622    2.090    0.522
        61  -9.7936      5.4347     57.2648   1.2140641317e+02   6.3090694012e+01    0.2426695   0.07744126 -65.04  0.001142644    2.115    0.527
        62 -10.7538    126.5909     54.2087   8.0122532880e+01   4.6384614841e+01     0.389974    0.3477156  -8.07  7.19603e-05    1.146    0.128
        63  -9.0478      6.4940     42.0117   1.1775663751e+02   6.6396634052e+01    0.1883409   0.04810249 -50.39 0.0003029761    2.690    0.628
        64  -9.3172    164.3579     40.5600   6.6941063982e+01   3.9260516431e+01    0.2739901    0.2434574 -16.08 0.0005970015    1.106    0.096
        65  -8.8346    157.2487     39.3751   6.7871439796e+01   4.1274696467e+01    0.2060061     0.150362  75.92  0.000306298    1.604    0.376
        66 -11.0550    144.5836     29.5041   6.6711720486e+01   4.5905644202e+01    0.6577813    0.4380465 -22.40  0.003012686    1.478    0.323
        67  -8.8853     96.3024    165.9516   1.1402409383e+02   2.8864522630e+01    0.1869851    0.1551629  60.83 0.0003843145    1.098    0.089
        68  -9.6062     24.1054    176.1242   1.2943279084e+02   3.5783816841e+01    0.1525921    0.1234069 -88.69 0.0004572326    1.248    0.199
        69  -7.9724    159.9311     17.6572   5.9405447932e+01   4.3368498747e+01     0.199832    0.1884615  68.51 0.0002833221    1.090    0.082
        70 -10.6951    241.9059    171.9542   8.7714756909e+01   2.1136983532e+00    0.4383882    0.2789331  58.87  0.002051728    2.349    0.574
        71 -11.4483     42.4432    166.6183   1.2515514093e+02   3.5768286748e+01    0.4542656    0.3899415  62.41   0.00123929    1.273    0.214
        72  -8.7414    135.2209     16.5839   6.3451977576e+01   4.9907338508e+01     0.219006    0.1261178  48.72 0.0009535544    1.691    0.409
        73 -11.2488     49.5409    161.8344   1.2326775416e+02   3.5942975991e+01    0.7184522    0.4494108  74.72  0.002902001    1.418    0.295
        74 -11.2317     55.3501    158.0713   1.2166905983e+02   3.6036864274e+01    0.6369387    0.3921248  86.58  0.001934428    1.499    0.333
        75  -8.7002     13.6604     10.6647   1.0372332329e+02   7.2329798359e+01     0.125849   0.06697491 -31.12 0.0007051291    1.754    0.430
        76  -9.5986    224.6409    172.2650   9.0583758529e+01   5.0925009929e+00    0.2230272      0.15302 -13.65  0.001225617    1.513    0.339
        77  -9.9010     23.4427    167.4435   1.2897930814e+02   3.7550607256e+01    0.2064331     0.149056  81.03 0.0008766475    1.016    0.016
        78  -8.4873      9.9868    247.4935   1.3495938979e+02   2.5024541884e+01   0.09802122   0.07798274  17.95 0.0008100367    2.708    0.631
        79  -9.4809      7.2934    234.8808   1.3493496805e+02   2.7177476041e+01    0.1671026   0.08610728 -60.20  0.001169913    3.011    0.668
        80 -11.9156    249.6565     41.3653   5.5250661491e+01   1.7513950382e+01     0.652469    0.4163059 -39.12 0.0005841638    1.389    0.280
        81  -9.7542     14.2889     15.5846   1.0556582141e+02   7.1349595933e+01    0.1831518    0.1099937  27.81  0.001040873    2.105    0.525
        82  -8.4926    162.7602    163.1821   1.0008250580e+02   1.7932002455e+01    0.1804936    0.1696314  65.99 0.0003411746    1.104    0.094
