#   1 NUMBER                 Running object number                                     
#   2 MAG_AUTO               Kron-like elliptical aperture magnitude                    [mag]
#   3 X_IMAGE                Object position along x                                    [pixel]
#   4 Y_IMAGE                Object position along y                                    [pixel]
#   5 X_WORLD                Barycenter position along world x axis                     [deg]
#   6 Y_WORLD                Barycenter position along world y axis                     [deg]
#   7 A_WORLD                Profile RMS along major axis (world units)                 [deg]
#   8 B_WORLD                Profile RMS along minor axis (world units)                 [deg]
#   9 THETA_WORLD            Position angle (CCW/world-x)                               [deg]
#  10 FWHM_WORLD             FWHM assuming a gaussian core                              [deg]
#  11 ELONGATION             A_IMAGE/B_IMAGE                                           
#  12 ELLIPTICITY            1 - B_IMAGE/A_IMAGE                                       
         1 -15.2024      6.2522     71.6478   1.0736426662e+02   6.1192662347e+01     1.813732    0.6329737 -53.87  0.007958747    2.021    0.505
         2 -13.8408    187.9319     24.9687   3.8800220344e+01   3.5252877456e+01     1.994732    0.6979297 -59.56  0.005975341    5.293    0.811
         3 -13.7353    187.7211     13.0961   3.5844540786e+01   3.6609886250e+01     1.279538    0.5854662 -51.85  0.006040723    2.210    0.547
         4 -13.3011    120.0382     26.6223   5.0384325659e+01   5.1391951026e+01     1.558174     0.679738  45.41  0.006603538    2.153    0.536
         5 -14.1790    122.4829     36.9840   5.3401653127e+01   4.9561293800e+01     1.098289    0.5312493  35.54  0.003026321    2.577    0.612
         6 -13.3302    131.7461     32.7673   4.9959031369e+01   4.7896590210e+01    0.7811784    0.3843921 -34.36  0.002631394    2.148    0.534
         7 -15.0687    147.0708     29.4045   4.5966916397e+01   4.4596760804e+01      1.58362     1.047335  67.40  0.007332258    1.404    0.288
         8 -14.5796    166.2979     28.4294   4.2589295664e+01   4.0032552800e+01      1.17415    0.8893124  72.79  0.004689839    1.205    0.170
         9 -13.5090      2.8865     10.5826   8.9585420869e+01   7.3181260413e+01    0.7680251     0.430027 -47.93   0.00476758    1.855    0.461
        10 -13.2282      8.3577      2.6537   8.2224528956e+01   7.3867585595e+01    0.5138358    0.3575787  36.93  0.002762252    2.095    0.523
        11 -15.9239     12.5884     21.3982   8.8755497207e+01   7.0690241726e+01     1.897575    0.9460126 -18.67  0.009629581    2.084    0.520
        12 -13.2922     17.6085     11.6858   8.1436046092e+01   7.1697728441e+01    0.3967398    0.3214431 -50.71  0.001321284    1.960    0.490
        13 -12.9615     44.5481     32.5841   7.7505526940e+01   6.5314856105e+01    0.5897705    0.5061102  13.43  0.003902148    1.185    0.156
        14 -13.7164    218.9206     15.8241   3.3511387406e+01   2.9256328439e+01    0.6797581    0.4553447  39.46  0.003796211    2.279    0.561
        15 -13.6353    214.8942     10.3077   3.2643284599e+01   3.0740273614e+01     1.117369    0.4523475  54.97  0.002637234    2.819    0.645
        16 -15.3146     99.1977     11.5963   4.9692838403e+01   5.7688366148e+01     1.507883    0.7489733  56.59  0.005052144    1.732    0.423
        17 -12.7453     85.3637     14.3552   5.4461163943e+01   6.0403173680e+01    0.4626941    0.3439073 -12.52   0.00207797    1.429    0.300
        18 -12.4662     70.1656     16.4999   6.0170061749e+01   6.3210414098e+01     0.353152    0.3102597 -79.77  0.001693842    1.778    0.437
        19 -11.7515     46.8503     13.2033   6.7644590990e+01   6.7645838126e+01    0.2737811    0.2204644  42.74  0.001488516    1.503    0.334
        20 -13.9825     41.7562      4.6448   6.5585821262e+01   6.9403470179e+01    0.6935963    0.4668513   9.27  0.003559153    1.318    0.241
        21 -12.6074    152.1157      8.4959   3.8905674393e+01   4.5546041948e+01    0.4973709    0.2805594  88.61  0.002421235    1.951    0.487
        22 -11.4452     60.1689     16.6616   6.3865106585e+01   6.5020484521e+01    0.2817247    0.1767091 -35.26  0.001585228    1.805    0.446
        23 -10.7153    165.3159      8.2931   3.7137977228e+01   4.2394671876e+01    0.1279406   0.08734307  45.81 0.0002437327    1.600    0.375
        24 -10.2132    134.3145      8.3222   4.1521857275e+01   4.9835722291e+01    0.1358128   0.08553626  39.79 0.0007040765    1.659    0.397
        25 -12.1689    120.1635      3.8329   4.2455120499e+01   5.3559087874e+01    0.2485961    0.1757898  71.34 0.0006104164    1.306    0.234
        26 -11.4216    117.4725      1.4946   4.2130713665e+01   5.4369350316e+01    0.2383084    0.1469485  73.23 0.0007526379    1.551    0.355
        27 -10.2829     67.6483      4.2924   5.5489599805e+01   6.4902606415e+01     0.109302   0.09738722 -86.11 0.0005367419    1.677    0.404
        28 -11.6026     61.1353      1.7441   5.6484242962e+01   6.6358379286e+01    0.3614807    0.1388015  50.62  0.001700814    2.263    0.558
        29 -10.7010    232.9915      1.5146   2.9463320817e+01   2.7815445737e+01    0.1716076   0.09736124  82.34  0.001028046    1.577    0.366
        30 -11.9345     81.3431      1.4708   5.0141381169e+01   6.2389385134e+01     0.488776   0.08361214  56.44  0.001616207    4.139    0.758
        31 -14.0568     25.1672     14.0555   7.8487675323e+01   7.0526719230e+01    0.8114332    0.2887266  28.15  0.003756172    2.813    0.645
        32 -12.1103      7.3646    145.7721   1.1774745375e+02   4.3259221320e+01    0.4470232     0.300495 -55.12   0.00262938    1.417    0.294
        33 -12.8259     51.7847    246.8114   1.1626786201e+02   1.5682240885e+01    0.7606899    0.3295383  27.23  0.003506748    2.914    0.657
        34 -12.7699      2.8705    248.4503   1.2539509675e+02   2.0692204661e+01    0.4669767    0.2365966  83.74  0.002946316    1.672    0.402
        35 -13.7519      9.3446    245.8730   1.2414148534e+02   2.0559441721e+01    0.7428152    0.3532042  63.50  0.003551747    1.694    0.410
        36 -10.3052     62.7400    138.6692   1.0070998657e+02   3.9551511223e+01    0.1480143    0.1031169 -38.58 0.0003808122    1.568    0.362
        37 -12.2080     45.2009    134.3044   1.0528092409e+02   4.2800507595e+01    0.3621874     0.249943 -63.58   0.00187806    1.273    0.215
        38 -11.7846    133.5099    126.4985   7.7445332516e+01   3.0192312384e+01    0.4614422    0.1491418 -43.26  0.001367464    3.134    0.681
        39 -13.0443     84.2919    115.3146   8.9008788366e+01   4.2234064466e+01     1.001276     0.579037  39.53  0.004298348    1.813    0.448
        40 -13.7857     94.4112    110.2947   8.4548564455e+01   4.1695743437e+01     1.431752    0.9071057  43.52  0.006302306    1.665    0.400
        41 -13.6733    107.8708    122.8405   8.3669321605e+01   3.6198806469e+01     1.015144    0.8663065 -75.50  0.005012896    1.316    0.240
        42 -14.8340    107.1208    106.5746   7.9666267567e+01   4.0169383985e+01     2.386322     1.645012 -30.44   0.01053245    1.613    0.380
        43 -13.1232     28.8068    122.2891   1.0845240705e+02   4.7476057488e+01    0.4290499    0.2966231 -64.62  0.002350705    1.223    0.182
        44 -11.9677      4.0939    119.9246   1.1587900398e+02   4.9847582325e+01    0.4477789    0.1930715  14.54  0.002103273    2.941    0.660
        45 -13.0501     49.3166     96.7858   9.6384437593e+01   5.1701242157e+01    0.8424264    0.5724802 -48.37  0.004348294    1.292    0.226
        46 -12.1083     42.8549     90.9571   9.7351607251e+01   5.3813762238e+01    0.4317947     0.269635 -65.50  0.001008134    1.651    0.394
        47 -11.6578     34.6883     86.5643   9.9386781357e+01   5.5676152683e+01    0.2627359    0.2169853 -34.16  0.001051268    1.104    0.094
        48 -14.9709     26.2923     93.5570   1.0411398173e+02   5.4769953422e+01      1.61921     1.141858   9.62  0.009143949    1.646    0.393
        49 -14.4297     18.1433    110.8510   1.1011755782e+02   5.1181822297e+01    0.9707789     0.706409 -31.82   0.00508583    1.471    0.320
        50 -13.5569      2.2182     97.1351   1.1344249483e+02   5.5478333898e+01    0.9073373    0.2757646 -71.87  0.003583516    2.806    0.644
        51 -11.9812    120.6970    112.0937   7.7216829933e+01   3.6165771419e+01    0.3555537    0.1978593  58.56  0.001282802    2.475    0.596
        52 -12.7160     31.7405    111.0615   1.0557759634e+02   5.0027309161e+01    0.3262268    0.2496898 -39.33  0.000835586    1.278    0.217
        53 -12.1405     61.6844    108.8488   9.4901850296e+01   4.7216355793e+01    0.5120785    0.2877707 -59.98  0.002260098    1.705    0.413
        54 -10.6202     46.3342    110.3187   1.0046054908e+02   4.8740615640e+01    0.1501636   0.09637549 -33.11  0.000704878    1.697    0.411
        55 -14.3321     11.0813    103.7010   1.1138011835e+02   5.3405705802e+01    0.9297216    0.7060395 -50.38  0.005110068    1.151    0.131
        56 -12.0695    136.0499    103.2832   7.0657013970e+01   3.4814575219e+01    0.6150994    0.2723095  45.64   0.00195464    2.289    0.563
        57 -12.3037     61.0261     97.7494   9.2429148061e+01   4.9986896482e+01    0.4317171    0.3153264 -84.52  0.002059972    1.890    0.471
        58 -10.6833    163.5387     97.5531   6.2505695671e+01   2.9728529019e+01     0.154157    0.1467896 -69.46 0.0001047205    1.060    0.056
        59 -10.6782     59.4336    125.4874   9.9224553156e+01   4.3349732747e+01     0.146314    0.1311627 -56.36 8.135552e-05    1.020    0.020
        60 -12.6936    136.1389     95.4623   6.8437180622e+01   3.6434600235e+01    0.4643859    0.3089819  47.79  0.001277964    1.518    0.341
        61 -11.3987     90.8926     88.7131   7.9659433782e+01   4.7258554469e+01    0.3726846     0.178478  44.71  0.001441755    2.238    0.553
        62 -12.2493     47.3545     82.2576   9.3400563779e+01   5.5313986283e+01    0.5499341    0.2476804 -55.53  0.002336439    2.054    0.513
        63 -12.0177     42.0061     77.5587   9.4206143002e+01   5.6977740330e+01    0.5913008    0.2623496 -61.63  0.002398482    2.518    0.603
        64 -10.7301     39.2778     80.3204   9.6030805992e+01   5.6650769540e+01    0.1944769    0.1366237  13.97 0.0004276344    1.568    0.362
        65 -12.1868    188.2676     84.3927   5.4122149348e+01   2.6440260371e+01     0.541731    0.2350453  42.43  0.001927553    2.958    0.662
        66 -13.7402    163.7815     71.6537   5.5288035851e+01   3.4427454675e+01     1.443861    0.8405788  52.45  0.006362739    1.696    0.410
        67 -13.2378    160.8598     80.8454   5.8477971753e+01   3.3512414310e+01    0.8844736    0.5686095  18.30  0.003056425    2.711    0.631
        68 -14.2369    169.4110     77.2399   5.5733639607e+01   3.2119822569e+01     1.215117    0.5838704  51.49  0.004231047    2.075    0.518
        69 -13.5986     65.8427     49.3316   7.5359597266e+01   5.9338612252e+01     1.525915    0.7202819 -26.95  0.006208997    2.593    0.614
        70 -12.6990     39.5075     68.1939   9.2534674478e+01   5.9291217713e+01    0.8460308    0.3195694  25.33  0.003461926    2.898    0.655
        71 -13.4911     91.4622     58.0854   6.9490347014e+01   5.3167439751e+01      0.51006      0.47464 -16.93  0.001703909    1.085    0.078
        72 -13.1663     51.7469     69.3002   8.7881657779e+01   5.7594593820e+01    0.7172374     0.622017 -59.93  0.004232223    1.347    0.257
        73 -13.6253     87.2000     65.4601   7.3463586357e+01   5.2663684981e+01     1.034676    0.6167687  11.37  0.004023824    2.745    0.636
        74 -12.5571     70.7880     75.4514   8.2540418010e+01   5.3547365579e+01    0.5298695     0.333197  16.12  0.002126827    1.938    0.484
        75 -12.1086     77.1821     73.5362   7.9624642118e+01   5.2887477645e+01    0.6165166      0.33643 -27.99  0.002233312    2.225    0.550
        76 -13.0075     54.3253     82.4320   9.0781738585e+01   5.4412809794e+01    0.6024114    0.3890748 -40.75  0.001996845    1.403    0.287
        77 -14.2019     61.0191     75.7247   8.6264005702e+01   5.4968926227e+01     1.168203     0.584531 -54.09  0.001878736    2.081    0.519
        78 -12.7746    135.3620     79.9669   6.4098280045e+01   3.9670515835e+01    0.6962468    0.4281705  52.90  0.002696422    1.645    0.392
        79 -11.9631    114.3301     80.2977   6.9856669535e+01   4.4309820121e+01    0.3810768    0.3166769 -68.63 0.0007710982    1.466    0.318
        80 -11.4959    238.5107     80.3256   4.5647896348e+01   1.6255328645e+01    0.2193443    0.1224488  61.63  0.001092751    2.018    0.504
        81 -10.4306     69.4760     80.4580   8.4566816130e+01   5.2689401604e+01    0.1452768    0.1304417 -21.29 0.0002115169    1.021    0.021
        82 -13.9064      6.4260     43.5352   1.0011826136e+02   6.7123768206e+01     1.008944    0.7335603 -47.01  0.006705797    1.172    0.147
        83 -11.6849     17.5497     40.5920   9.3598541178e+01   6.6907264580e+01    0.2196669    0.1586864 -27.22 0.0002115042    1.113    0.101
        84 -13.1041     28.3295    245.8748   1.2067986826e+02   1.8585304030e+01    0.4311938    0.2799749  58.11  0.002883002    1.206    0.171
        85 -14.0058      4.0479     63.4303   1.0649149067e+02   6.3119329833e+01     0.583941    0.4829149 -11.95  0.003618254    1.283    0.221
        86 -12.4497    210.7526     77.6072   4.8785132761e+01   2.2515747540e+01    0.4446642    0.2660837 -59.60  0.002054162    1.829    0.453
        87 -11.8677     27.2085     75.5953   9.9651859843e+01   5.8863922265e+01    0.4748069    0.2513017 -75.28  0.002032667    2.754    0.637
        88 -13.1564    133.6252     66.5571   6.0419440321e+01   4.2487587611e+01    0.8942168     0.690958   9.86   0.00337612    1.634    0.388
        89 -13.2810    199.6231     69.8719   4.8556191280e+01   2.6270158698e+01    0.6815145    0.3465165  55.30   0.00237958    2.020    0.505
        90 -10.8539    117.1007     71.4966   6.6294745799e+01   4.5380722648e+01    0.2259254    0.1455067  48.58 0.0005500894    1.538    0.350
        91 -12.2744     31.3616     63.0998   9.4466667147e+01   6.1204468962e+01    0.5747471    0.2867498 -61.55  0.002631336    2.263    0.558
        92 -11.7964    199.9915     62.7495   4.6722769418e+01   2.7305163547e+01    0.2704361    0.1625533 -52.22  0.001200325    1.624    0.384
        93 -13.6883    177.6088     57.0495   4.8717432128e+01   3.3443362108e+01    0.9694332    0.5553707 -48.53  0.003421237    1.763    0.433
        94 -13.0173     78.6426     60.4553   7.4685648480e+01   5.5164731495e+01    0.6270229    0.4668543  39.77  0.003321665    1.374    0.272
        95 -12.9716     82.1643     54.7445   7.1408783204e+01   5.5535370171e+01    0.5163785    0.3977575  -9.48   0.00176079    1.355    0.262
        96 -11.0631     77.4033     54.2030   7.2883316438e+01   5.6503069824e+01    0.2724831    0.1892599 -32.28 0.0007557923    1.411    0.291
        97 -14.6804    120.0324     54.4640   5.9921466139e+01   4.7625415241e+01    0.8528149    0.6692942  32.38  0.002740265    1.295    0.228
        98 -11.0425     38.8185     60.3142   9.0384230149e+01   6.1006597619e+01    0.2386074    0.1812113 -76.15  0.001285909    1.986    0.497
        99 -12.2738     24.5884     59.9332   9.6496474677e+01   6.2483461850e+01    0.3955873    0.2423361 -43.70  0.001487403    1.338    0.253
       100 -11.5768     49.5842     56.7509   8.4619320627e+01   6.0402360568e+01    0.4021562    0.1707573  33.71  0.001743608    2.438    0.590
       101 -14.0162    100.8206     49.7067   6.3593017923e+01   5.2620809307e+01    0.8467654     0.742964 -76.23  0.002481447    1.486    0.327
       102 -11.8055    246.9581     50.7556   3.8393897988e+01   1.8976794421e+01    0.3501247    0.2332234  30.17  0.001755444    2.936    0.659
       103 -12.4565    135.9773     50.0040   5.4637865951e+01   4.4564837916e+01    0.4813114    0.2972162  35.30  0.001591907    1.865    0.464
       104 -10.5574     23.4911     50.4255   9.4052246883e+01   6.4510472322e+01    0.1282748    0.1002621 -27.04 0.0001270617    1.045    0.043
       105 -11.7388     37.2116     53.0740   8.8679820515e+01   6.2623970196e+01    0.2728302    0.1542611 -29.45   0.00137857    1.706    0.414
       106 -12.0358    154.2412     46.6256   4.9870070192e+01   4.0631602107e+01    0.4076946    0.2287527  54.28   0.00185955    1.668    0.400
       107 -12.6790    158.8193     43.2956   4.8057452277e+01   3.9974728258e+01    0.4770438    0.4425399  64.76  0.002071592    1.051    0.049
       108 -11.8034    108.1668    243.8181   1.0451344721e+02   8.5838512223e+00    0.1675032     0.146442  11.23 0.0004514031    1.340    0.254
       109 -12.5458     95.4103    237.5504   1.0649179381e+02   1.1649627597e+01    0.2936467    0.2040032 -36.80   0.00161466    2.001    0.500
       110 -12.6807    205.0208     40.2052   4.0525258503e+01   2.9381946249e+01     0.625344      0.32066 -88.23  0.002654563    2.600    0.615
       111 -12.7145     91.7192    233.2538   1.0680052747e+02   1.3035964621e+01    0.2771671    0.1870145 -76.20  0.001550034    1.676    0.403
       112 -12.6309    109.9048     42.2710   5.8375972793e+01   5.1735023646e+01    0.5660539    0.2059284  50.69   0.00173386    2.483    0.597
       113 -12.6442     24.4580    217.3373   1.1960741848e+02   2.4885185646e+01    0.6004046    0.3937036  65.40  0.003740518    1.284    0.221
       114 -12.4987    113.9970     38.2512   5.5891190566e+01   5.1358561315e+01    0.3751999    0.3179316  45.91  0.001134036    1.081    0.075
       115 -12.9845     13.9868    222.7194   1.2205508346e+02   2.4787905663e+01    0.4569767    0.2854573  67.85  0.002274178    1.307    0.235
       116 -13.6005     26.0575    226.8056   1.1992271630e+02   2.2695835519e+01    0.6971667    0.3664519 -58.32  0.003859321    2.180    0.541
       117 -13.2180    139.0291     21.9677   4.5068745171e+01   4.7378054862e+01    0.6529612    0.2693301  62.52  0.001751213    2.121    0.528
       118 -12.6378     75.7148     37.2787   6.6997544564e+01   5.9513880324e+01    0.3728384    0.2615713  43.85 0.0009920497    1.415    0.293
       119 -11.7124     70.4748     36.4984   6.8569236867e+01   6.0586302372e+01    0.2812506    0.1979062  37.93 0.0009283607    1.354    0.262
       120 -12.2541    241.6612     36.2388   3.5872860651e+01   2.1987693821e+01    0.4114018    0.2046879  72.60  0.001906478    2.060    0.515
       121 -13.4789     20.3768    225.2883   1.2095186346e+02   2.3607309850e+01    0.4356894    0.3913512 -58.26  0.002493347    1.484    0.326
       122 -12.9999     62.9350    224.2278   1.1205791359e+02   1.8879774319e+01    0.7214027    0.3059703  46.58  0.003372733    2.040    0.510
       123 -13.9702     64.1238    214.7731   1.1085385633e+02   2.0776748404e+01    0.6661008    0.4801568  64.55   0.00387037    1.277    0.217
       124 -13.9249     16.3814     30.9610   9.0628366318e+01   6.8751106718e+01    0.7724544    0.4278575  26.39   0.00271438    1.938    0.484
       125 -11.6462     94.2393    218.3801   1.0448723123e+02   1.5743749256e+01    0.2003047    0.1080711  44.83 0.0009520942    1.661    0.398
       126 -11.3562    249.5022    216.4964   7.1864530689e+01  -7.8659103178e+00     0.122984   0.09492133  -8.23 -9.508416e-05    1.008    0.008
       127 -11.9759     72.4168    207.2923   1.0814558118e+02   2.1331651081e+01    0.3724697     0.267242 -84.99  0.002056386    1.417    0.295
       128 -12.0641    223.3937     20.8084   3.4209090246e+01   2.7717111759e+01    0.3830268    0.2484255  84.00  0.001910572    1.428    0.300
       129 -13.5062    216.1175     28.4089   3.6566233257e+01   2.8393747809e+01    0.4342351    0.2272138 -49.80  0.002084431    1.718    0.418
       130 -12.1978     57.4152    203.1668   1.1116095946e+02   2.4265564424e+01    0.4976436    0.2397436  88.42  0.002031244    2.803    0.643
       131 -11.7246     41.3097    206.0852   1.1510632900e+02   2.5545504381e+01    0.1852353    0.1465415  82.90  0.001027121    1.092    0.084
       132 -11.7883     64.1904     24.8141   6.5988807127e+01   6.3314232892e+01    0.4123348    0.2361944  12.94  0.001955667    2.220    0.550
       133 -11.1171     98.1745     27.1715   5.5974104556e+01   5.6278442795e+01    0.2476552     0.171698  56.27  0.001328815    1.405    0.288
       134 -11.0768     35.8365     23.8474   7.7725013371e+01   6.7809296233e+01    0.1937819    0.1381811  -7.02 0.0006674089    1.227    0.185
       135 -13.0761     55.6185     27.2708   7.0443201381e+01   6.4436446041e+01    0.6236857    0.3065545  41.15  0.002669417    1.990    0.497
       136 -12.3266     46.7955     20.5057   7.1137163826e+01   6.6736858329e+01     0.339274     0.227261  17.10  0.001743635    1.367    0.269
       137 -10.9752     52.2251     20.7545   6.8924642253e+01   6.5856429076e+01    0.3070633    0.1118439  38.55   0.00133612    2.542    0.607
       138 -12.8400     15.7743    196.6582   1.1998849286e+02   3.0359410400e+01    0.4670646    0.3285268 -80.56  0.002368175    1.229    0.186
       139 -12.0982    248.0072    197.3905   6.8610812637e+01  -4.8467328153e+00    0.3906026    0.2388366 -42.08  0.002176703    1.713    0.416
       140 -13.5872     30.1916    169.0740   1.1414256353e+02   3.5559811144e+01     1.075924    0.8477253  51.51  0.004548894    1.288    0.223
       141 -13.4553     22.2380    181.2179   1.1727970176e+02   3.3372521511e+01    0.8456632    0.4018554 -56.22  0.003875966    2.110    0.526
       142 -15.1493      8.1184    183.5786   1.2074925810e+02   3.4067122154e+01     1.317259    0.9771977 -85.10   0.00854423    1.108    0.098
       143 -15.0369     15.8170    175.5260   1.1831940000e+02   3.5322516038e+01     2.001761    0.8280599  58.74  0.008805336    2.624    0.619
       144 -11.0657    200.6248    191.8584   7.6366129325e+01   3.3238367933e+00    0.1902546     0.125927 -47.89 0.0008385724    1.688    0.408
       145 -11.3067     49.1410    181.5959   1.1075337207e+02   3.0410389408e+01    0.2882236    0.1495402 -54.02  0.001338234    1.966    0.491
       146 -12.5892    124.2156    166.9088   8.8935956578e+01   2.2482664197e+01    0.6437836    0.4257109 -70.53  0.002752425    1.913    0.477
       147 -11.3793    206.3262    162.6593   6.9258221611e+01   7.7601620198e+00    0.1396787    0.1154995 -75.84 0.0007051339    1.733    0.423
       148 -12.0057     77.0975    156.8819   9.9771663750e+01   3.2880703598e+01    0.4424565    0.2905653  32.52  0.001717084    1.615    0.381
       149 -12.9754     73.4279    153.8546   1.0028203412e+02   3.4185744304e+01    0.6459743    0.4900754  22.30  0.003002928    1.521    0.342
       150 -11.3578    103.1317    150.3983   9.1249249778e+01   3.0296886368e+01     0.337239    0.2271618 -31.86  0.001450917    1.817    0.450
       151 -11.8789    245.5634    149.7093   5.9562492423e+01   3.2864099133e+00    0.2740475     0.112422 -35.08  0.001152589    2.152    0.535
       152 -13.7045    217.6299     42.1576   3.9539291316e+01   2.6293099101e+01     1.007479    0.3784768  61.80  0.003936792    2.595    0.615
       153 -11.8118     59.1454    148.8535   1.0353005657e+02   3.7408890553e+01    0.2243952    0.1889883  77.44  0.000967969    1.216    0.178
