#   1 NUMBER                 Running object number                                     
#   2 MAG_AUTO               Kron-like elliptical aperture magnitude                    [mag]
#   3 X_IMAGE                Object position along x                                    [pixel]
#   4 Y_IMAGE                Object position along y                                    [pixel]
#   5 X_WORLD                Barycenter position along world x axis                     [deg]
#   6 Y_WORLD                Barycenter position along world y axis                     [deg]
#   7 A_WORLD                Profile RMS along major axis (world units)                 [deg]
#   8 B_WORLD                Profile RMS along minor axis (world units)                 [deg]
#   9 THETA_WORLD            Position angle (CCW/world-x)                               [deg]
#  10 FWHM_WORLD             FWHM assuming a gaussian core                              [deg]
#  11 ELONGATION             A_IMAGE/B_IMAGE                                           
#  12 ELLIPTICITY            1 - B_IMAGE/A_IMAGE                                       
         1 -12.3953     42.8947     20.0415   9.2002767499e+01   6.5482841457e+01    0.6163596    0.2862391  34.19  0.002253107    1.929    0.482
         2 -12.4558    216.4376     14.4455   5.5239980614e+01   3.0402011772e+01      0.45651    0.4490216 -42.27  0.002951392    1.483    0.326
         3 -13.1251    188.3717      7.2776   5.6489565513e+01   3.7258361705e+01    0.7591317    0.3366484 -68.03  0.003391144    2.933    0.659
         4 -10.9179     56.4856      9.5110   8.2808980227e+01   6.4532213908e+01    0.3357458    0.2010061 -21.58  0.001632133    1.742    0.426
         5 -11.6676     44.1614      8.5550   8.6781857816e+01   6.6523710325e+01    0.2258522    0.1816541   0.48 0.0008638786    1.161    0.139
         6  -9.8573    109.4927      8.4995   6.8421132397e+01   5.4610497237e+01    0.1204771    0.1007823  53.62 -0.0001606866    1.039    0.038
         7  -9.8721     65.6491      7.3100   7.8999640109e+01   6.3192970130e+01    0.1006822    0.0908666  86.10 0.0006342221    1.718    0.418
         8 -11.1460    169.9851      2.0000   5.7311353854e+01   4.1839772343e+01    0.2760103    0.1283571  61.37  0.001463108    1.772    0.436
         9 -11.4019    165.9917      2.0000   5.7777150025e+01   4.2730222067e+01    0.2355928    0.1454395  72.99  0.001413179    1.318    0.241
        10 -11.6582     59.3489      7.3091   8.0980088661e+01   6.4261951351e+01    0.2359924    0.1725623  28.92  0.001137804    1.082    0.076
        11 -11.4375    223.6751    213.6908   9.5816134262e+01  -5.4376115824e+00    0.3344307    0.2338749  -1.92  0.001796067    1.601    0.375
        12 -10.4999    238.7357    212.4667   9.2790497430e+01  -7.4714253450e+00    0.3443986     0.194872 -57.91  0.001485847    3.109    0.678
        13 -10.6305    116.0043    209.7272   1.1833844393e+02   1.3987580947e+01    0.2755866    0.1892714 -76.04  0.001299511    1.701    0.412
        14 -10.1468     56.5099    205.5237   1.3153637688e+02   2.4211535720e+01    0.1381256     0.115661  82.26 0.0002845526    1.037    0.036
        15 -10.4673     48.6233    201.8754   1.3289726761e+02   2.6110319346e+01    0.2809398     0.153979 -86.50  0.001303281    1.932    0.482
        16  -9.8182     41.4811    201.9800   1.3452061215e+02   2.6966320416e+01    0.2003484    0.1146453 -72.53 0.0004488568    1.545    0.353
        17 -11.2086      4.8410    199.3786   1.4219019143e+02   3.1420725474e+01    0.3252747    0.1729109  53.50  0.001099357    1.821    0.451
        18 -10.5459    148.9880    198.1728   1.0865030355e+02   1.0660214180e+01    0.3393416    0.1731079 -69.33  0.001069783    3.810    0.737
        19 -10.2509    112.7864    198.1971   1.1720185712e+02   1.7235635471e+01    0.2625908    0.1540561  74.10 0.0009584196    2.844    0.648
        20  -9.9605    215.4860    194.4637   9.3702116444e+01  -6.0660893686e-01    0.3041057    0.1176865 -55.96 0.0008104703    5.814    0.828
        21 -12.3723    160.4236    192.2898   1.0490751448e+02   9.8190760533e+00    0.7356865    0.5436335  73.81  0.002876874    1.871    0.465
        22  -9.7989    217.6716    188.3309   9.2065987865e+01   1.9415711926e-01    0.1348623    0.1120028 -80.05 0.0007051521    1.713    0.416
        23 -10.1146     94.6623    186.9926   1.1974746169e+02   2.3040194301e+01    0.2475234    0.1215934 -82.02 0.0007051986    4.406    0.773
        24 -10.3202    109.4823    186.0106   1.1589343053e+02   2.0748177304e+01    0.2204583    0.1313932 -83.96 0.0008097409    2.627    0.619
        25 -10.5090    183.4053    183.3347   9.8023101498e+01   7.3962240178e+00    0.3740837    0.1776946 -41.28  0.001463345    2.087    0.521
        26  -9.9927     66.3098    194.6557   1.2785595071e+02   2.5499817093e+01    0.1501526   0.09775289  73.73  0.000310379    1.701    0.412
        27  -9.9777    137.8226    179.0224   1.0759699221e+02   1.7186601695e+01     0.260511    0.1824112 -84.65  0.001085623    2.023    0.506
        28 -10.3697    224.3251    183.6829   8.9879889395e+01  -4.5955285884e-02    0.1325501    0.1101426 -77.06 0.0005823574    1.672    0.402
        29 -10.2674    106.0029    175.5004   1.1484985162e+02   2.3946767826e+01    0.3213359     0.186457  83.24   0.00104369    3.495    0.714
        30  -9.8944     28.6628    176.6800   1.3462396048e+02   3.4553269584e+01     0.132766   0.09015328 -44.38 0.0004842675    1.708    0.415
        31  -9.9218     76.3414    175.6526   1.2250260135e+02   2.8769902552e+01    0.1581319    0.1060792  74.13 0.0007045687    1.793    0.442
        32 -11.4860     34.7663    173.4747   1.3273823251e+02   3.4698611563e+01    0.3594115    0.1940532  84.75  0.001592139    2.237    0.553
        33 -10.5723     44.8018    172.2097   1.3005565539e+02   3.3877088660e+01    0.2458364    0.1252184  69.40 0.0009583227    2.848    0.649
        34 -11.7131    121.0741    168.0631   1.0955134193e+02   2.3026797438e+01    0.5489011    0.2610246 -64.35  0.001857808    2.756    0.637
        35 -11.4635     55.5209    167.4653   1.2660241016e+02   3.3746226858e+01    0.5424874    0.2673227 -79.83  0.002108558    2.539    0.606
        36 -10.2180    138.7198    164.7113   1.0442913549e+02   2.0412713860e+01    0.3259349    0.1955817 -72.78  0.001178249    2.551    0.608
        37 -11.6730    106.6880    158.0507   1.1124254337e+02   2.8163749978e+01    0.6975693    0.4604135  76.24  0.002795315    2.244    0.554
        38 -10.7078     99.0035    166.0192   1.1486528942e+02   2.7532717686e+01    0.2554868    0.1839548  79.02  0.001139484    1.742    0.426
        39 -10.9619    167.9943    157.6494   9.5954224664e+01   1.6094167157e+01     0.399399    0.2647904  71.15  0.001591841    2.256    0.557
        40 -10.6728    218.4788    155.9232   8.5244792380e+01   6.4155672992e+00    0.3515681    0.1255184 -48.39  0.001221877    2.750    0.636
        41  -9.9854     23.2161    153.7755   1.3312154648e+02   4.0727002726e+01    0.1764423    0.1320616 -52.40 0.0004469251    1.282    0.220
        42  -9.2827     40.6694    153.2640   1.2837281775e+02   3.9093528255e+01    0.1353095   0.09696157  70.15 0.0003574414    1.574    0.365
        43 -10.3709    189.8112    150.7080   8.9690021937e+01   1.3124154000e+01    0.3027831     0.197535 -68.35  0.001246881    2.107    0.525
        44 -11.4705    119.3393    157.0485   1.0770364657e+02   2.6055459084e+01     0.424401    0.3254498  47.88  0.002011479    1.340    0.254
        45 -11.4261    107.6561    145.6942   1.0834333434e+02   3.1042406737e+01    0.6328502    0.3623201  75.36   0.00186322    4.316    0.768
        46 -10.4424    148.6168    144.9000   9.7597207069e+01   2.3055060897e+01    0.4430475    0.2479774 -74.69  0.001272304    4.193    0.761
        47 -10.2767     56.0181    146.4987   1.2298211509e+02   3.8965364088e+01    0.2052482    0.1050262  54.91 0.0008103707    2.609    0.617
        48 -10.2950    182.1818    141.7956   8.9271852405e+01   1.6626071147e+01    0.2611552    0.1692098 -84.34 0.0009466063    2.834    0.647
        49 -11.7701     83.1500    129.9547   1.1174689609e+02   3.9150163331e+01    0.8156255    0.3224011 -63.45   0.00252066    3.532    0.717
        50 -12.1875     98.3848    127.5020   1.0675331094e+02   3.7140160125e+01     1.008784    0.5945446 -84.13  0.003119546    4.120    0.757
        51 -10.9828     58.8993    124.2394   1.1777421423e+02   4.4077113412e+01    0.3607776     0.189085 -75.93  0.001330578    2.985    0.665
        52 -11.0123     43.0272    122.3835   1.2227882532e+02   4.6428132090e+01    0.5328341    0.2655914 -81.32  0.001868828    3.688    0.729
        53 -11.3111     26.4119    119.7015   1.2690363339e+02   4.8707045398e+01    0.4950666    0.2488683  88.07   0.00171905    4.336    0.769
        54 -11.7623    193.7502    118.8248   8.1635044587e+01   1.8941264352e+01    0.5317534    0.4125284 -88.02  0.001457976    1.532    0.347
        55 -11.6964    141.3617    114.7878   9.2031652118e+01   3.1388752260e+01    0.8019723    0.2557278 -41.76  0.002418431    3.257    0.693
        56 -10.6179      2.1333    115.5204   1.3362258676e+02   5.1463743477e+01    0.2940545    0.1451564 -80.93  0.001416301    2.198    0.545
        57 -11.3179     70.8047    119.8374   1.1313981987e+02   4.3477265855e+01    0.4426965    0.2194205 -72.98  0.001402699    3.954    0.747
        58 -10.6642    108.3106    112.7792   1.0025160084e+02   3.8686115364e+01    0.5674796    0.2612443 -62.78  0.001687513    3.947    0.747
        59 -10.7982     78.6450    112.5187   1.0897063455e+02   4.3987271972e+01    0.4646176     0.289749 -84.53   0.00169557    3.298    0.697
        60 -12.1196    159.8722    110.8073   8.6675904982e+01   2.8119385405e+01    0.6899054    0.3555296 -55.01  0.002605073    2.215    0.549
        61 -10.7856    174.4175    111.0272   8.3605848277e+01   2.4798853504e+01    0.4230585    0.2505094 -47.20  0.001476175    1.635    0.389
        62 -11.7630     13.8445    110.1514   1.2912529662e+02   5.1933669334e+01    0.5680101    0.2585095 -68.01  0.002696248    1.983    0.496
        63 -11.9595    127.9397    101.1101   9.1823384101e+01   3.7179773202e+01    0.5175121    0.2719369 -52.86  0.002026179    2.118    0.528
        64 -12.1782    140.4219    103.4212   8.9306172727e+01   3.3988501613e+01    0.7032208    0.2984385 -46.45  0.002532105    2.371    0.578
        65 -12.3131    107.9258     98.9281   9.6655218822e+01   4.1751330973e+01    0.7290782    0.4756716  77.08  0.002761543    2.952    0.661
        66 -10.9556     82.3907    100.6157   1.0473540746e+02   4.6034824507e+01     0.288286    0.2457005  65.38   0.00106332    1.449    0.310
        67 -10.4984     92.0526    111.4203   1.0462327095e+02   4.1997294679e+01    0.4344888    0.1965125 -60.00  0.001485021    2.959    0.662
        68 -10.7210     63.7878     97.2007   1.0980082759e+02   4.9623211722e+01    0.2238584    0.1535484  77.80 0.0009529113    2.808    0.644
        69 -12.7215    170.3827     90.9153   7.9417479004e+01   2.9626928579e+01    0.4207043    0.3569447 -80.37  0.001015826    1.223    0.182
        70 -10.9089     34.0852     88.1799   1.1766905234e+02   5.5104361807e+01     0.439455    0.1871886 -62.73  0.001813994    2.737    0.635
        71 -11.6952     42.2230     87.9440   1.1473886262e+02   5.4304103524e+01    0.3860773    0.2284101  -8.66  0.001348672    2.285    0.562
        72 -10.9106     86.7802     87.1630   9.9618609006e+01   4.8082923516e+01    0.3776623    0.2689028 -79.19  0.001673794    2.442    0.591
        73 -10.9359    104.7220     83.4736   9.3183099527e+01   4.5457681816e+01    0.4370817    0.2926309 -79.59  0.001717581    3.007    0.667
        74 -10.9976     46.4210     83.1495   1.1198615794e+02   5.4818639195e+01    0.4633428    0.3042477  72.43  0.001930595    3.668    0.727
        75 -10.9980      6.8227     85.1610   1.2668096796e+02   5.7910458653e+01    0.1757697    0.1100332 -38.32 0.0004093599    1.351    0.260
        76 -12.0273     44.5956    101.0377   1.1715305422e+02   5.1201838752e+01    0.6515611    0.4161191 -85.73  0.002892957    2.705    0.630
        77 -10.7214     24.2108     80.6344   1.1935667393e+02   5.7585908887e+01    0.2743981    0.1878465 -87.74  0.001414975    2.506    0.601
        78 -10.0085      1.9507     78.0074   1.2692473977e+02   5.9683296255e+01    0.2019279    0.1006932 -38.31  0.001123804    1.677    0.404
        79 -11.0910     82.8201     73.7807   9.6877807619e+01   5.1318232378e+01    0.4176586    0.2890813 -85.27  0.001679944    3.452    0.710
        80 -10.9943     62.4897     70.4940   1.0262950275e+02   5.5160732121e+01    0.2650668    0.1173489 -40.93  0.001136089    2.132    0.531
        81 -12.1652    223.7260     70.4857   6.5974614613e+01   2.1190286373e+01    0.2917168    0.2232656  79.35 0.0004619054    1.273    0.214
        82 -10.7549     51.9234     70.6157   1.0641294217e+02   5.6591032740e+01    0.2422202    0.1836347 -45.05  0.001052502    1.316    0.240
        83 -10.1297    196.0400     67.9949   6.9314082932e+01   2.7681408019e+01     0.308858     0.143516  61.38  0.001327535    2.110    0.526
        84 -11.5511      8.8509     56.6580   1.1899746066e+02   6.3422737575e+01    0.4374099     0.360219  78.21  0.002910208    2.077    0.519
        85 -11.8163     20.7536     52.8641   1.1298202671e+02   6.3176440638e+01    0.6377643    0.2936066 -42.00   0.00344147    1.784    0.439
        86 -11.6521     19.4473     59.3709   1.1546911809e+02   6.2123448124e+01    0.3549995    0.2478428 -21.37  0.002295385    1.250    0.200
        87 -13.6002     30.6918     59.5704   1.1105358493e+02   6.1054506340e+01     1.210863    0.7428744  29.62  0.004443472    1.778    0.437
        88 -11.2014     39.4657     53.0365   1.0552497512e+02   6.1235322549e+01    0.4731121    0.1669147 -36.62  0.001902941    2.740    0.635
        89 -10.7097    237.6587     64.3053   6.3005333637e+01   1.9264333495e+01    0.1370155   0.08299003 -71.59 0.0007041346    1.683    0.406
        90 -10.2559    162.1819     53.3834   7.1288180683e+01   3.7729124423e+01    0.2005653    0.1226613  72.13 0.0003595522    1.705    0.413
        91 -12.7321    149.4658     51.9361   7.3263618516e+01   4.0884221253e+01    0.3271902    0.2500643  56.45 0.0004194785    1.203    0.169
        92  -9.8719     87.0175     50.0154   8.7933161400e+01   5.4449784650e+01    0.1745611    0.1598522 -89.05  0.001073021    1.490    0.329
        93 -10.3100     82.1726     46.9544   8.8381372202e+01   5.5773645659e+01    0.1826548    0.1779499  43.86 0.0005552198    1.265    0.209
        94 -10.5620    157.0927     44.9968   6.9979904546e+01   4.0070103001e+01    0.2275238    0.1754096  64.98 0.0004637591    1.170    0.146
        95 -11.7152     71.4318     42.4432   9.0249671009e+01   5.8275622268e+01    0.7028989    0.2964042  52.04   0.00284944    3.265    0.694
        96 -11.6923      7.0628     43.0772   1.1572249861e+02   6.5933819878e+01    0.3998971    0.2601865  31.53   0.00235055    1.952    0.488
        97 -12.3272     44.4884     36.9109   9.7906354179e+01   6.3100188769e+01    0.8187335    0.3370089  20.15  0.003203315    3.835    0.739
        98 -10.5741     83.1341     38.1104   8.5046209108e+01   5.6788954637e+01     0.298899    0.1709972  51.89  0.001538528    1.824    0.452
        99 -11.1096    120.3033     34.3367   7.4188332427e+01   4.9720434696e+01    0.2690385     0.211285  48.49  0.000641839    1.121    0.108
       100 -10.3560     73.6126     32.6931   8.6063176543e+01   5.9170789018e+01    0.2523136    0.1906347  80.84  0.001344117    2.598    0.615
       101 -10.9632    104.8249     30.7239   7.6643485521e+01   5.3421998533e+01    0.6486422    0.1941247  59.36  0.002171791    4.055    0.753
       102 -11.0537    223.8119    248.8185   1.0204471833e+02  -1.1199035217e+01    0.1774921    0.1513943  74.41  0.001074802    2.163    0.538
       103 -11.0416    239.8710     20.5988   5.4384834354e+01   2.4836166819e+01    0.2357842    0.1773062  75.16 0.0005236245    1.338    0.253
       104 -12.1621    203.1327     20.9379   5.7874785774e+01   3.2536992844e+01    0.3161659    0.1629488  75.83  0.001672975    1.726    0.421
       105 -12.4698     22.4235    239.5084   1.4180751243e+02   2.0683255263e+01    0.7030438    0.2660168  70.44  0.002885857    3.322    0.699
       106 -10.0525    134.2880     17.9738   6.6569192306e+01   4.8378552268e+01    0.1685453    0.1487156  61.44 0.0004394492    1.042    0.040
       107 -10.7365      7.9864    240.4859   1.4451015891e+02   2.2034130766e+01    0.1574471    0.1028601  42.87 0.0007588601    1.585    0.369
       108  -9.9341     72.1689    229.1332   1.3085449937e+02   1.6559242286e+01    0.1891587    0.1370487  76.03 0.0004644669    1.318    0.241
       109 -11.0853     12.7090    227.1753   1.4274073677e+02   2.4394519626e+01    0.2466202    0.1627138 -81.80 0.0005809587    1.259    0.206
       110 -10.9740     95.5017    224.7175   1.2521651402e+02   1.3996374659e+01    0.3036805    0.1865569  62.04  0.001447736    1.749    0.428
       111 -10.8712    149.1234    223.0346   1.1300632373e+02   5.2885155103e+00    0.3036432    0.1959731 -70.01  0.001376522    2.136    0.532
       112 -10.1801    184.8560    223.4045   1.0537450512e+02  -9.3910131485e-01    0.2698178    0.1245942  40.60  0.001146601    2.107    0.525
       113 -11.2617    226.4168    221.4050   9.6723477920e+01  -7.1780629822e+00    0.2223633    0.1853448 -86.92  0.001246643    2.134    0.531
