#   1 NUMBER                 Running object number                                     
#   2 MAG_AUTO               Kron-like elliptical aperture magnitude                    [mag]
#   3 X_IMAGE                Object position along x                                    [pixel]
#   4 Y_IMAGE                Object position along y                                    [pixel]
#   5 X_WORLD                Barycenter position along world x axis                     [deg]
#   6 Y_WORLD                Barycenter position along world y axis                     [deg]
#   7 A_WORLD                Profile RMS along major axis (world units)                 [deg]
#   8 B_WORLD                Profile RMS along minor axis (world units)                 [deg]
#   9 THETA_WORLD            Position angle (CCW/world-x)                               [deg]
#  10 FWHM_WORLD             FWHM assuming a gaussian core                              [deg]
#  11 ELONGATION             A_IMAGE/B_IMAGE                                           
#  12 ELLIPTICITY            1 - B_IMAGE/A_IMAGE                                       
         1 -14.8450    221.0348    115.2388   5.5576109608e+01   1.3995933919e+01     2.685054     1.942186  55.42     0.013789    1.537    0.350
         2 -11.3427    239.2374     22.3580   3.3501126153e+01   2.4298683893e+01    0.2962389     0.187462 -65.05 0.0004458975    1.325    0.245
         3 -11.5640     29.9301     20.7745   7.8565692913e+01   6.8800546865e+01    0.4200103    0.2758525 -42.08  0.002600507    1.698    0.411
         4 -11.6593    111.8433     19.0358   4.9598873854e+01   5.3938223457e+01    0.4027757    0.3033383  62.61  0.001270019    1.217    0.178
         5 -11.3206    154.9578     16.2433   4.0999170336e+01   4.4044068543e+01    0.5016692    0.2684717 -11.44   0.00181701    2.944    0.660
         6 -10.0874    155.4795     10.4631   3.9304192794e+01   4.4493767671e+01    0.2152243    0.1381205 -84.77 1.309345e-05    1.629    0.386
         7 -10.8196    101.4328     16.0385   5.0929066814e+01   5.6579439046e+01    0.2810405    0.2102808  26.32 0.0005671039    1.383    0.277
         8 -11.3810     55.8014     14.8660   6.4490056330e+01   6.5749783832e+01    0.4233863    0.2249995 -29.54  0.002303416    1.960    0.490
         9  -9.6810     19.3164     11.0465   7.9547129053e+01   7.1398714906e+01    0.1817639    0.1285639 -35.98 0.0008451679    1.498    0.333
        10 -10.3313    190.1664      6.6180   3.4355634098e+01   3.6718549502e+01    0.4177802    0.2300738  25.49   0.00167238    4.554    0.780
        11 -10.3831    185.4913     13.5106   3.6484509379e+01   3.7091062531e+01    0.2613439    0.1853662  60.20 0.0009918398    1.404    0.288
        12 -11.0823    181.2275     13.1864   3.6870390675e+01   3.8119897413e+01    0.5704415    0.2279415  55.35  0.001503987    2.440    0.590
        13 -10.2449     24.3410     15.4496   7.8967501601e+01   7.0222166231e+01     0.321141    0.1778744 -10.80  0.001754977    2.054    0.513
        14 -12.1232    122.6434     11.0770   4.4699078331e+01   5.2223810555e+01    0.4285915    0.2742168  46.69  0.001038103    1.443    0.307
        15 -10.6460    210.1161      9.1187   3.3122276754e+01   3.1973911403e+01    0.2975172    0.1917997 -68.81 0.0003658312    1.366    0.268
        16 -10.6560    212.5913      5.7752   3.2197949045e+01   3.1782990643e+01    0.2692384    0.2045612 -34.70  0.001775944    1.523    0.344
        17 -10.2719     48.0921      8.1496   6.4448502781e+01   6.7781087088e+01    0.1895116    0.1467422  -1.95  0.000597251    1.187    0.158
        18 -10.1199     23.6372      7.9835   7.5750326221e+01   7.1300400974e+01    0.1976491    0.1349208  17.87 0.0007212163    1.264    0.209
        19 -10.8289     13.1612      3.7855   7.9381140785e+01   7.3026366930e+01    0.3845495    0.2116031  -1.36   0.00225896    1.949    0.487
        20 -10.1864     15.8519      8.1867   8.0062744680e+01   7.2161283317e+01    0.2436725    0.1353846  19.27 0.0003839794    1.664    0.399
        21  -9.9540     12.5358      7.4921   8.1598587614e+01   7.2597940947e+01     0.181345      0.13453  -3.37 0.0007691128    1.050    0.047
        22 -10.5273      4.7672      7.0882   8.5983323924e+01   7.3373566605e+01    0.2078066    0.1380563   1.51  0.000242163    1.286    0.222
        23 -10.7366      4.1852      2.6982   8.4185323610e+01   7.4037719083e+01    0.4039919    0.2092658  -5.41  0.002351848    2.077    0.518
        24  -9.4423    216.5075      7.5126   3.2255116325e+01   3.0750506403e+01    0.1221023   0.09487117 -76.55 0.0008104214    1.021    0.021
        25  -9.5197    158.7733      7.3643   3.8016847984e+01   4.4002664393e+01     0.176616   0.09804463  62.34 0.0002575952    1.543    0.352
        26  -9.3916     69.6120      6.8577   5.6061238061e+01   6.4067616260e+01    0.1510723    0.1087137 -33.95 0.0003812356    1.652    0.395
        27 -10.0666    127.9434      4.8683   4.1752699675e+01   5.1532492711e+01    0.1913007    0.1828142 -63.41 0.0006569743    1.191    0.161
        28  -8.8283     40.7014      5.3023   6.6197509487e+01   6.9258076114e+01   0.09528015   0.09438725  43.99 0.0001519188    1.583    0.368
        29 -10.7736     90.3748      3.1406   4.8711424849e+01   6.0155961273e+01    0.2555268    0.2186161  87.72  0.001154019    1.417    0.294
        30  -8.9680     20.4434      3.4539   7.5149950555e+01   7.2248552032e+01    0.1125961   0.08570411   1.13 5.613469e-05    1.008    0.008
        31 -10.3488     84.5114      1.3660   4.9471015445e+01   6.1540298586e+01     0.221351    0.1016854  59.20  0.001089363    1.907    0.476
        32  -8.9274     53.3296    142.2442   1.0280586012e+02   4.0216035784e+01    0.1344002    0.1050904 -28.02 0.0002260964    1.540    0.351
        33  -9.4694     61.0033    120.8125   9.6468070605e+01   4.4575880535e+01    0.2392843     0.162944 -13.14  0.001082425    2.071    0.517
        34 -11.0002     21.9806    141.9054   1.1196013017e+02   4.3589687195e+01    0.2006019    0.1859979  89.39 0.0003009549    1.100    0.091
        35  -8.9186     98.4869    117.5024   8.3993979613e+01   3.9361881299e+01     0.151029    0.1474489 -41.18 0.0008104887    1.017    0.016
        36  -9.3957      2.1249    116.1890   1.1477510521e+02   5.1292878578e+01    0.1602927      0.12873  72.65 0.0002666607    1.325    0.245
        37  -9.7165     11.1466    115.1426   1.1175694044e+02   5.0983868239e+01    0.1985707    0.1453091 -49.30 0.0006869275    1.263    0.208
        38  -9.8421     39.5936    113.2931   1.0202815532e+02   4.8994232984e+01    0.2690623    0.1257359 -67.64  0.001133805    2.102    0.524
        39 -10.3015     45.7145    113.1529   9.9943703719e+01   4.8357955196e+01    0.2373861    0.1701385  -4.24  0.001207641    1.767    0.434
        40  -9.8424     32.0508    113.4905   1.0459627193e+02   4.9699068037e+01    0.1738636    0.1351294  18.26 -2.632985e-05    1.475    0.322
        41  -9.8352     21.1332    110.1969   1.0770485886e+02   5.1447350014e+01    0.2327586    0.1515161  79.85 0.0006780653    1.892    0.471
        42 -10.2860     99.9806    109.4803   8.1531728365e+01   4.0945083994e+01    0.2908194    0.2081571 -31.86  0.001331863    1.561    0.359
        43 -10.8545      6.1234    108.0852   1.1241721876e+02   5.2995611214e+01    0.2787823     0.174799 -74.62 0.0006245776    1.392    0.281
        44 -10.5236     88.0890    105.7602   8.4241680249e+01   4.3968037672e+01    0.2482887    0.2046267 -42.12 0.0002707631    1.187    0.157
        45 -10.7393     79.2267    103.7647   8.6580544656e+01   4.5935715365e+01    0.3485994    0.2538925   6.80 0.0009970625    1.759    0.431
        46 -10.2219      9.4170    103.3709   1.1060999725e+02   5.3913906346e+01    0.2739463    0.1860962  25.59  0.001169239    1.716    0.417
        47 -10.5847    249.4419    103.1712   4.8936168570e+01   1.0663546009e+01    0.2680088    0.1925397  44.39  0.001558054    1.727    0.421
        48  -9.8032     53.5643     98.1696   9.3948748849e+01   5.0990981825e+01    0.2720166    0.1323288 -60.87  0.001139547    2.072    0.517
        49  -9.9144     96.8497     98.1864   7.9483546436e+01   4.4073547577e+01    0.2155139    0.2014968  79.66  0.000339992    1.183    0.154
        50  -9.3654     15.5130    140.9551   1.1370236957e+02   4.4359107554e+01    0.1971104     0.109946 -73.72  0.000546474    1.523    0.344
        51  -9.1426    147.8491     96.3589   6.5122692731e+01   3.3592532062e+01    0.2019451    0.1399469  40.88 0.0002229968    1.516    0.340
        52 -10.3648     69.0245     95.9849   8.7993016419e+01   4.9333697936e+01    0.2207457    0.2035494 -33.08   0.00050412    1.025    0.025
        53  -9.5812     45.4933    102.0371   9.7691503425e+01   5.1057798642e+01    0.2114848     0.124706 -58.62 0.0005666642    1.541    0.351
        54  -9.9920     79.0042     95.2848   8.4424045538e+01   4.7900916176e+01    0.2076638    0.1999438   8.91  0.001183339    1.052    0.050
        55  -9.8946     16.4309     95.2451   1.0676608713e+02   5.5357388777e+01    0.1939934     0.168803   8.19 0.0004474795    1.316    0.240
        56  -9.9742    116.6648     93.5978   7.2360884263e+01   4.1068192054e+01    0.2411459    0.1829597  56.26 0.0008865388    1.400    0.286
        57 -10.4287     34.1491     89.6756   9.9053918912e+01   5.5149961654e+01    0.2667213    0.1734483  30.10  0.001429474    1.691    0.409
        58 -10.3586     86.0666     88.8335   8.0288852952e+01   4.8091374654e+01     0.236793    0.1683543  67.34 0.0008953882    2.019    0.505
        59 -10.0832     57.8239     89.5972   9.0269325724e+01   5.2390843336e+01    0.2009179    0.1249176  42.94  0.000956408    1.806    0.446
        60 -10.7807    120.7946     87.7593   6.9554345974e+01   4.1369025659e+01    0.2645243    0.2485162  77.06 0.0002399776    1.126    0.112
        61  -9.9152    131.7093     86.5210   6.6330128501e+01   3.9192426889e+01    0.2603742    0.2012076 -40.52 0.0005135408    1.319    0.242
        62 -10.6494    102.2792     85.5498   7.4222401906e+01   4.5695411743e+01    0.2803743    0.2442989 -60.82 0.0004916374    1.258    0.205
        63 -11.4280     76.1942     83.2749   8.1994947434e+01   5.0981999269e+01    0.3302706    0.2850215  66.40 0.0003730474    1.426    0.299
        64 -11.4238     80.0911     81.0903   8.0014944610e+01   5.0775490216e+01     0.380798    0.2739427 -65.64  0.001831959    1.785    0.440
        65 -10.0963     28.5940     85.2256   1.0015527096e+02   5.6687659073e+01    0.2146481    0.1774103  14.75  0.001077516    1.331    0.249
        66 -10.2275     65.9519     83.9183   8.5783985896e+01   5.2473632375e+01    0.2506159    0.1881286 -55.03 0.0007250358    1.366    0.268
        67  -9.7263     45.6981     83.9927   9.3297585624e+01   5.5184940990e+01    0.1927785    0.1602697 -46.86 0.0003255573    1.100    0.091
        68 -10.1783    134.9303     82.9840   6.4512206146e+01   3.9138109400e+01    0.2152302     0.210026  71.27  0.001186688    1.011    0.011
        69 -10.8675    112.6599     81.3752   6.9939698714e+01   4.4379414190e+01    0.2590799    0.2452583   4.39 0.0002334841    1.082    0.075
        70 -11.2370     53.6526     80.5137   8.9348479810e+01   5.4951684970e+01    0.3699229    0.2375728  18.05  0.001601369    1.750    0.429
        71 -10.9719    104.4250     79.1058   7.1648541940e+01   4.6545211797e+01    0.3092502    0.2387394 -57.81  0.001117948    1.474    0.321
        72  -9.8215     31.1005     80.1372   9.7977131415e+01   5.7596073455e+01    0.1588888    0.1505114 -89.95 0.0002981899    1.257    0.204
        73  -9.3167     22.4247     80.4756   1.0148541890e+02   5.8283595836e+01     0.129096    0.1073491 -44.58 0.0001392164    1.017    0.016
        74  -9.1891      7.0347     80.4826   1.0755429081e+02   5.9345083238e+01    0.1558551    0.1198191   5.23 0.0004312216    1.480    0.325
        75 -10.1957     85.5915     79.4986   7.7690439434e+01   5.0123956360e+01    0.2689326    0.1403776  39.72  0.000515159    1.923    0.480
        76 -10.2332     98.4983     76.4582   7.2631150154e+01   4.8260922965e+01    0.1466862    0.1372815   7.53 8.994991e-05    1.056    0.053
        77 -11.2680     78.5324     74.7180   7.8605309872e+01   5.2341926965e+01    0.2962086    0.2428159  17.60 0.0005334167    1.253    0.202
        78 -10.4307     74.5414     75.4539   8.0221836962e+01   5.2875386129e+01    0.2463546     0.234162 -32.00 0.0007118887    1.086    0.079
        79  -9.8856      4.5255     75.5218   1.0758688806e+02   6.0588603056e+01    0.2247244    0.1455069 -58.69 0.0005652732    1.260    0.206
        80  -9.7403      1.8230     73.1833   1.0822143023e+02   6.1243338165e+01    0.1625086      0.15104 -61.11  0.000383065    1.179    0.152
        81 -10.7781    109.1339     73.4613   6.8537446009e+01   4.6635678387e+01    0.4476138    0.2750721 -12.03  0.001473175    2.856    0.650
        82 -10.6573    103.9180     72.7968   6.9852815430e+01   4.7854308333e+01    0.2296962    0.2017021 -34.88 0.0002976029    1.159    0.137
        83 -11.5548    137.0869     69.5613   6.0082083486e+01   4.1061361037e+01    0.2982859    0.2670719  60.35 0.0004177946    1.080    0.074
        84 -12.1196     97.3651     69.5090   7.0794926471e+01   4.9803391290e+01    0.3078581    0.3014912 -70.28  0.000421854    1.135    0.119
        85 -10.6020    101.3851     68.1816   6.9146921388e+01   4.9227352632e+01    0.2789328    0.1980902 -53.87 0.0006515962    1.632    0.387
        86 -10.6988     64.2477     70.8941   8.2525640858e+01   5.5445220649e+01    0.3688852    0.2010767  33.22  0.001709745    1.875    0.467
        87  -9.9694     34.0458     69.9502   9.4134485877e+01   5.9509789579e+01    0.2163156    0.1333057 -27.67  0.001068116    1.669    0.401
        88 -10.8466    154.9677     67.8620   5.5687209455e+01   3.7118461937e+01     0.392655    0.2622149 -73.58  0.001080912    2.012    0.503
        89  -9.2779     26.6028     69.5377   9.7109540314e+01   6.0313043312e+01    0.1266889    0.1075473 -39.26 -2.259938e-05    1.031    0.031
        90  -9.2298    120.6760     68.6864   6.3885739629e+01   4.4975382734e+01    0.1501307     0.113953  15.77 0.0007041199    1.661    0.398
        91 -10.9697     89.8847     67.6285   7.2550649401e+01   5.1623826249e+01     0.249926    0.2295765 -50.06 0.0001688662    1.195    0.163
        92  -9.9436     59.3286     66.7786   8.3081956709e+01   5.7001593744e+01    0.1777846    0.1685616  11.43   0.00048948    1.128    0.113
        93  -9.3975     53.8692     67.1075   8.5300117143e+01   5.7713438556e+01    0.1803354     0.142376 -14.18 0.0002582316    1.262    0.208
        94 -10.3818    110.3809     64.5731   6.5382617633e+01   4.7962351187e+01    0.4011904    0.2891759 -63.99  0.001905575    1.840    0.456
        95  -9.3599     70.7816     66.3758   7.8685665781e+01   5.5288431084e+01    0.1810128    0.1260479  25.16 0.0002261755    1.483    0.326
        96 -10.4698     63.1437     64.8999   8.1026388507e+01   5.6793350606e+01    0.3399166    0.2530887  80.30  0.001617042    2.477    0.596
        97 -10.4728    202.6803     63.8890   4.6540824698e+01   2.6549305810e+01    0.3282429    0.2108482 -58.21  0.001476743    1.541    0.351
        98 -10.9550     42.9801     63.0495   8.8412870964e+01   5.9929824796e+01    0.3526671    0.2899179 -87.50 0.0007854343    1.824    0.452
        99  -9.6942      3.7108     65.0176   1.0573561142e+02   6.2909926693e+01     0.172333     0.129178 -50.49   0.00042173    1.080    0.074
       100  -9.6321     32.4746     63.9462   9.3084206542e+01   6.0916989722e+01    0.1968872     0.112259 -50.62  0.001024702    1.572    0.364
       101  -9.7058     66.8241     63.1537   7.9075287499e+01   5.6546618841e+01    0.1825208    0.1460212 -11.98  0.001014956    1.268    0.211
       102 -10.9418      3.8475     59.7165   1.0446467506e+02   6.4018430801e+01    0.2368133    0.1493759 -46.95 0.0005905896    1.250    0.200
       103 -10.5536     59.1223     58.2176   8.0341457106e+01   5.8668480002e+01    0.3790632    0.2455578 -12.63  0.001857585    1.912    0.477
       104  -8.9588    103.7124     58.6718   6.5358797848e+01   5.0394129059e+01    0.1438511    0.1085713  10.34  0.000222914    1.614    0.381
       105 -11.0392     95.3038     57.1489   6.7357037382e+01   5.2396200474e+01    0.4117258    0.2687389   6.45   0.00179258    2.327    0.570
       106 -10.5929    200.6189     55.9437   4.4926674668e+01   2.8209660797e+01    0.2679535      0.20384  25.08  0.001394513    1.997    0.499
       107 -10.2978    148.5051     54.5002   5.3168402604e+01   4.0777436297e+01    0.2174115    0.1286702 -47.28 0.0009281283    1.795    0.443
       108  -9.1545     34.5072     57.4842   9.0252869636e+01   6.1997840555e+01    0.1266273    0.1104293 -24.19 0.0008100319    1.045    0.043
       109  -9.2515    223.4560     56.4579   4.2179890783e+01   2.3091085359e+01    0.1323317    0.1096535 -67.75  0.000181598    1.034    0.033
       110  -9.7552    112.0380     55.6609   6.2038246107e+01   4.9080142589e+01    0.1993418    0.1682182  47.50 0.0003117967    1.120    0.107
       111 -10.9547     81.4978     54.5407   7.0910764765e+01   5.5531226804e+01    0.4584332    0.2300359  30.81  0.001915549    2.307    0.567
       112  -9.9035    174.3169     54.6406   4.8523758108e+01   3.4555854985e+01    0.1514291    0.1000307 -70.02 0.0007043576    1.757    0.431
       113 -10.7203    162.6399     52.6220   4.9967938697e+01   3.7654578531e+01     0.322286    0.2464647 -25.24  0.001084364    1.529    0.346
       114 -11.2680    204.9985     52.7233   4.3583099983e+01   2.7683953276e+01    0.4238214     0.209452  78.60  0.001814288    2.436    0.589
       115  -9.8441    106.4708     50.0093   6.1673272358e+01   5.1182078700e+01    0.2551694    0.1939441  70.53 0.0007388447    1.575    0.365
       116  -9.8763     55.3986     49.8621   7.8886541757e+01   6.0727862003e+01    0.2368828    0.1673851   0.96 0.0007153311    1.549    0.355
       117 -10.8175     58.9573     47.5636   7.6634527485e+01   6.0580426355e+01    0.2409323    0.1898066  17.75 0.0009212633    1.201    0.167
       118 -10.1804    211.5911     49.1023   4.1925030690e+01   2.6722120472e+01    0.2178623    0.1597276  88.04 0.0005218047    1.315    0.240
       119 -10.7052    169.9272     48.2184   4.7526298680e+01   3.6534572162e+01    0.2539996    0.2255221  61.00  0.001489404    1.137    0.120
       120 -10.4968     84.7122     48.3574   6.7647458995e+01   5.5928293608e+01    0.2520295    0.2006499 -65.62  0.001351305    1.766    0.434
       121 -10.0457     85.3577     45.2895   6.6329242834e+01   5.6277742968e+01    0.2662662    0.1657696 -29.79 0.0007103067    1.697    0.411
       122  -9.6838     49.3216     49.1920   8.1129856999e+01   6.1718581790e+01    0.2035322    0.1382255 -25.12  0.001125007    1.435    0.303
       123 -10.6521     26.6872     48.5075   9.0845229035e+01   6.4526196474e+01    0.3081156      0.16165  24.09  0.001635892    1.971    0.493
       124  -9.6541     95.4468     48.5272   6.4339858086e+01   5.3749994159e+01    0.1366972    0.1275398  27.85 0.0001640394    1.029    0.028
       125 -10.7690    136.1996     46.5009   5.3309877193e+01   4.4884623285e+01    0.3348294    0.2231804  67.93  0.001322772    1.522    0.343
       126 -10.4320    141.7753     46.3615   5.2111815143e+01   4.3574284511e+01    0.2736317    0.2105975 -11.95  0.001059427    1.633    0.388
       127 -10.4574    142.6436     42.8383   5.0877686000e+01   4.3852516230e+01    0.4047821    0.1375891  50.33  0.001468041    2.731    0.634
       128 -10.5084     41.5565     44.5212   8.2749744424e+01   6.3571079288e+01    0.2902995    0.2324941 -70.03  0.001241332    1.964    0.491
       129 -10.1909    233.0416     48.0261   3.9319177011e+01   2.2267137801e+01    0.1900605     0.156169 -63.15 0.0003445225    1.035    0.034
       130 -10.5761    166.9454     43.4933   4.6730142112e+01   3.7905169139e+01     0.300269    0.2310149  64.76 0.0009042795    1.207    0.172
       131 -10.9529    108.9537     43.4168   5.8758931607e+01   5.1605072303e+01    0.2580491    0.2333309  66.50 0.0003763613    1.166    0.142
       132 -10.0118    235.0417     43.3124   3.8132514785e+01   2.2495591311e+01    0.1805359    0.1448442 -76.85  0.001171355    1.081    0.075
       133  -9.8632     56.7845     41.7924   7.5331477234e+01   6.1870238254e+01    0.1561409    0.1491658  30.43 0.0002530245    1.289    0.224
       134  -8.8083     28.2989     41.9293   8.7829288624e+01   6.5567385454e+01    0.1795112    0.1025643 -69.66 0.0006533144    4.332    0.769
       135 -10.5965    208.6616     41.3384   4.0488349214e+01   2.8437963642e+01    0.2250075    0.1345615 -68.11  0.001139536    1.733    0.423
       136  -8.6280    112.3392     39.2976   5.6482389200e+01   5.1416417738e+01    0.1437509   0.09835465  28.35 0.0004030039    1.660    0.398
       137 -10.7240     63.0702     36.8525   7.0956438453e+01   6.1616842604e+01    0.3671122    0.1813749 -49.06   0.00155381    2.832    0.647
       138  -9.9759     36.0747     38.5239   8.2959309534e+01   6.5279336285e+01    0.1816697    0.1464894 -22.02 0.0005279109    1.087    0.080
       139  -9.4732    181.9677     38.2919   4.3113536258e+01   3.5004996618e+01     0.186239    0.1595751  85.76  0.000381461    1.043    0.041
       140 -10.1836     83.6950     37.1361   6.3845661439e+01   5.7794185453e+01    0.3315926     0.194807 -55.14  0.001465959    2.752    0.637
       141  -9.7466     48.5547     36.7675   7.6766283269e+01   6.3905318622e+01    0.1644751    0.1165272 -46.09 0.0006753433    1.644    0.392
       142  -9.8366    195.9156     37.0000   4.0980887646e+01   3.1908809716e+01    0.2199146    0.0691293  66.74 0.0002458014    3.010    0.668
       143  -9.8437    127.3867     36.2606   5.1972070136e+01   4.8345260890e+01     0.266997    0.1751438  56.90  0.001364969    1.372    0.271
       144 -10.3112     67.2894     35.1083   6.8691354125e+01   6.1145744669e+01    0.1782759     0.154723 -10.74 0.0005339222    1.120    0.107
       145  -9.7037     34.0633     34.8397   8.2462070810e+01   6.6133728386e+01    0.2048192    0.1314821  32.69  0.000792015    1.633    0.388
       146 -10.4256    194.0304     33.6938   4.0412497619e+01   3.2767290453e+01    0.1914887    0.1567906  81.17 0.0008079134    1.109    0.098
       147  -9.2662     99.0401     33.9216   5.8089843946e+01   5.5055169968e+01    0.1544835    0.1446169  17.51 0.0003270245    1.074    0.069
       148 -10.6481    238.8264     32.6259   3.5592499105e+01   2.3116370756e+01    0.3411169    0.1977568 -81.07  0.001574206    1.727    0.421
       149 -11.0777    237.5505     26.5094   3.4466437592e+01   2.4139275747e+01    0.1950563    0.1755017 -80.26 0.0007107827    1.228    0.186
       150 -11.6794     59.1233    209.8601   1.1013472830e+02   2.3078868134e+01    0.7167866    0.3879358  56.50  0.003539562    1.780    0.438
       151 -10.7564     78.9124     31.2301   6.3128052711e+01   5.9529148497e+01    0.2127394    0.1787287  -6.67 0.0003858164    1.194    0.162
       152 -10.3814     47.5228     28.3623   7.3774585589e+01   6.5324228389e+01    0.2121501    0.1880682  10.80 0.0004735127    1.155    0.134
       153 -10.1269     15.7175     28.6251   8.9096703781e+01   6.9082015965e+01    0.2966532    0.1507543 -24.21  0.001589686    1.985    0.496
       154 -11.0022    183.2115     26.8465   4.0050836094e+01   3.6133353460e+01    0.4635871    0.2015559  56.81  0.001596942    2.182    0.542
       155  -9.0789      2.4525     27.5261   9.5790763035e+01   7.0286742648e+01    0.1136288   0.08760887 -26.74 0.0001370298    1.020    0.020
       156 -10.0567    206.9031     25.8508   3.7141289737e+01   3.0796819913e+01    0.1838591    0.1626659  67.83 0.0008851687    1.275    0.216
       157  -9.4076    121.8186     25.8320   4.9752357431e+01   5.0903552219e+01    0.1783526    0.1498861  89.30   0.00037369    1.306    0.234
       158  -9.8506    216.2453     28.1932   3.6730950103e+01   2.8442551631e+01    0.2086307    0.1893365  32.76 0.0009546909    1.556    0.357
       159 -12.2678     76.3290    219.4292   1.0726691008e+02   1.8626617588e+01     0.779197    0.5250712  19.47   0.00299036    1.930    0.482
       160 -11.2501    227.5674     23.1078   3.4609845639e+01   2.6624755524e+01     0.302068    0.1581702  84.08  0.001609445    1.866    0.464
       161 -10.1863    141.7443     21.7733   4.4680504559e+01   4.6631832326e+01    0.2156894     0.176539  48.10 0.0003035484    1.216    0.178
       162 -10.5667    164.7007     21.8912   4.1186872799e+01   4.1105324100e+01     0.340976    0.2111143  47.94  0.001772702    1.728    0.421
       163 -12.5253     68.2145    217.5730   1.0888533007e+02   2.0156214408e+01    0.7831015    0.5617051  55.04  0.002983918    1.229    0.187
       164 -10.8934    150.0051     18.4708   4.2370109667e+01   4.5001227825e+01    0.2955044    0.2338121  80.48 0.0007869794    1.149    0.129
       165 -10.0398    235.9954    219.4925   7.3687579761e+01  -6.1416241398e+00    0.1504289    0.1041504  54.40 0.0008103739    2.536    0.606
       166  -9.2923    155.2976    214.6797   8.8843586181e+01   7.0791052919e+00    0.1327626    0.1059019  68.14 0.0005014164    1.618    0.382
       167  -9.0119    119.7652     18.9485   4.7881831623e+01   5.2125105091e+01    0.1506086    0.1122646 -22.03 0.0005742236    1.546    0.353
       168 -10.8041    115.0003     32.1713   5.3407588880e+01   5.1729568186e+01    0.2656197     0.221327  27.43 0.0004809108    1.247    0.198
       169 -10.4903    248.2496    211.8893   7.0251721787e+01  -6.6548948732e+00    0.2524415    0.1530747  25.33  0.001279054    1.649    0.394
       170 -11.7751    236.3811    207.5081   7.1508650929e+01  -4.4042618577e+00    0.3537064    0.2662691  13.96  0.002245844    1.250    0.200
       171  -9.4705     59.7752     11.6126   6.1533428276e+01   6.5417523954e+01    0.2481703    0.1083627  50.78 0.0009873734    2.259    0.557
       172 -10.0598     39.6404     16.0545   7.1820945446e+01   6.8148990754e+01    0.1793354    0.1420258  27.32  0.000366036    1.237    0.191
       173  -9.7674     19.9359     15.2247   8.1177315740e+01   7.0747958048e+01    0.1596878    0.1414239  -1.29  0.001195775    1.306    0.234
       174 -11.0430    131.4772    206.0177   9.2784734615e+01   1.2834998757e+01    0.4267572    0.2282487  33.91   0.00189547    1.798    0.444
       175 -10.2794     10.9663     15.4019   8.6187192678e+01   7.1610203533e+01    0.2357191    0.1562705  -9.85 0.0009022426    1.297    0.229
       176  -9.0191     72.7283     15.6944   5.8844843883e+01   6.2580022932e+01    0.1260222   0.08348131  21.24 0.0003027692    1.539    0.350
       177 -10.1052    216.5190    192.4773   7.2337018550e+01   9.7852017861e-01    0.1324983    0.1158425  -8.63 0.0002471261    1.006    0.006
       178  -8.9798    206.6998    189.7165   7.3680864272e+01   3.0488554895e+00    0.1352447   0.09787866  -2.43 0.0002628105    1.550    0.355
       179 -11.4392    249.2578    183.7359   6.4964009687e+01  -2.5350341559e+00    0.5140899    0.1394157 -40.46  0.001941852    3.256    0.693
       180  -9.6880     85.1836     14.3709   5.4527150828e+01   6.0226664152e+01    0.1757011      0.11175  63.43 0.0007205005    1.696    0.410
       181  -9.5336    216.3014    187.6427   7.1459615320e+01   1.8424553152e+00    0.1249114    0.1073121 -73.73 0.0007037765    1.712    0.416
       182 -11.3345    238.1724    179.6510   6.6030280956e+01  -2.4414199323e-01    0.3386556    0.1700906  34.85  0.001653161    2.187    0.543
       183 -10.4920    100.9955    175.9855   9.5271563963e+01   2.4771753860e+01    0.2054146    0.1942554  67.99 -0.007547014    1.005    0.005
       184 -12.0880    217.3837    159.2046   6.5608011099e+01   6.7119192747e+00    0.4410678    0.3437251 -42.41  0.002467794    1.223    0.182
       185 -11.5330    215.3383    154.6828   6.5041223425e+01   7.9023117912e+00    0.3379583    0.2817087  44.02  0.001395458    1.320    0.242
       186  -9.4933      2.0515    153.6894   1.1865202835e+02   4.2258200260e+01     0.163409    0.1419816  85.83 0.0004128908    1.092    0.084
       187  -9.8826     25.3713    152.3873   1.1226340679e+02   4.0691128990e+01    0.2615067    0.1436055  66.11  0.001162067    2.090    0.521
       188  -8.9041     39.7290    145.6694   1.0732625007e+02   4.0929383214e+01    0.1383105   0.09392109 -43.95  0.000474928    1.587    0.370
       189 -14.6057    215.9971    133.1755   6.0340875134e+01   1.1734691326e+01     3.393066      1.36065  51.57   0.01315385    2.871    0.652
       190  -9.9919    216.1548    222.3810   7.7785263041e+01  -3.8220265246e+00     0.169963    0.1081739  40.82 0.0009434868    1.719    0.418
       191  -8.8003     94.3425    142.2614   9.0777842720e+01   3.4119308004e+01    0.1484479    0.1194634 -11.18 0.0002426093    1.594    0.372
       192 -10.5026     29.3917    138.0011   1.0928172517e+02   4.3890180215e+01    0.2215659    0.1966506  36.59 0.0003307413    1.267    0.210
       193  -8.7235      1.2991    134.2898   1.1704136609e+02   4.6984529051e+01    0.1242926   0.07860706 -49.29  0.000298744    1.560    0.359
       194  -8.8362     71.2929    131.2895   9.5369894243e+01   4.0528317016e+01    0.1447855    0.1103904 -28.17            0    1.547    0.354
       195  -9.9264     24.0470    125.4689   1.0912801879e+02   4.7477518847e+01    0.2006849    0.1549912 -70.02 0.0004371596    1.120    0.107
       196  -9.7272     13.0306    125.0929   1.1249975812e+02   4.8436117501e+01    0.1952441    0.1339392  73.41  0.000371504    1.590    0.371
       197  -9.0901     31.2335    123.9439   1.0662467911e+02   4.7208247361e+01    0.1760461    0.1008882 -68.13 0.0003156845    1.550    0.355
       198 -10.3908     75.0949    122.5013   9.2344772149e+01   4.2124038001e+01     0.389198     0.182499  41.32  0.001240653    2.215    0.548
