#   1 NUMBER                 Running object number                                     
#   2 MAG_AUTO               Kron-like elliptical aperture magnitude                    [mag]
#   3 X_IMAGE                Object position along x                                    [pixel]
#   4 Y_IMAGE                Object position along y                                    [pixel]
#   5 X_WORLD                Barycenter position along world x axis                     [deg]
#   6 Y_WORLD                Barycenter position along world y axis                     [deg]
#   7 A_WORLD                Profile RMS along major axis (world units)                 [deg]
#   8 B_WORLD                Profile RMS along minor axis (world units)                 [deg]
#   9 THETA_WORLD            Position angle (CCW/world-x)                               [deg]
#  10 FWHM_WORLD             FWHM assuming a gaussian core                              [deg]
#  11 ELONGATION             A_IMAGE/B_IMAGE                                           
#  12 ELLIPTICITY            1 - B_IMAGE/A_IMAGE                                       
         1 -14.3139    197.4065     38.1948   4.7958462313e+01   3.1145287215e+01     1.609022     1.369915   4.02  0.005257852    1.494    0.331
         2 -14.7193    207.7822     27.1058   4.3717637505e+01   3.0007299697e+01     1.970665      1.42973  22.86  0.002274453    2.028    0.507
         3 -10.8001     61.9231      8.0072   6.7764850881e+01   6.6060796642e+01    0.1941081    0.1575944   9.90  0.000473034    1.013    0.012
         4 -12.6553    233.8652      3.0155   3.5493823974e+01   2.6622312412e+01    0.6582372    0.3829843  58.66  0.002757006    1.877    0.467
         5 -12.2521    228.7966      2.5928   3.5782651378e+01   2.7813381399e+01    0.4448732    0.2538128  74.25  0.001603577    1.619    0.382
         6 -12.1939     58.1055      2.4614   6.6450110088e+01   6.7309414094e+01     0.552376    0.1717779  45.71  0.002361969    2.881    0.653
         7  -8.7229    140.6781      1.3333   4.5182824857e+01   4.9498520041e+01    0.1362625   0.09522407 -66.77 0.0007050022    1.703    0.413
         8 -11.2262     28.1915      2.2057   7.9709064395e+01   7.1714008593e+01    0.2554564    0.1236016  40.97  0.001377045    2.563    0.610
         9 -17.2213      6.0247    213.5394   1.2791225212e+02   2.8688346154e+01     11.68162     1.153648 -76.16   0.03616799    7.055    0.858
        10 -11.1166    140.0138    249.5823   1.0571549668e+02   4.3048767166e+00    0.2499419    0.2022373  80.03  0.001671829    1.515    0.340
        11 -13.0676     72.8752    173.2056   1.1029635477e+02   2.9812766243e+01    0.9729463    0.4938386 -35.12  0.003352588    4.538    0.780
        12 -15.2977     86.0546    227.4987   1.1373412381e+02   1.6363541816e+01     2.435896     1.660354  48.62  0.006208566    1.230    0.187
        13 -16.1824     45.6809    249.6992   1.2298319921e+02   1.7591887706e+01     8.137912     2.285247  30.12   0.01925909   13.710    0.927
        14 -14.5226     58.5310    243.0962   1.2027821027e+02   1.7189397195e+01     0.642729    0.4181356  85.46  0.002169877    1.439    0.305
        15 -17.3588      8.3877    244.8073   1.2894120274e+02   2.2552390731e+01     4.882441     1.981534  27.92   0.01361583    3.897    0.743
        16 -10.2007    152.3228    197.7461   9.5837504749e+01   1.1235602684e+01    0.3682253    0.1990039 -59.59  0.001602816    2.412    0.585
        17 -10.6810    111.7268    197.4869   1.0471105502e+02   1.8392939220e+01    0.2760253    0.1923412  34.80   0.00117353    1.458    0.314
        18  -9.9944     81.8112    194.8183   1.1100414210e+02   2.3658462418e+01     0.267453    0.1893499 -71.64  0.001513991    1.401    0.286
        19 -11.4680     74.6918    189.3524   1.1193106072e+02   2.5886252369e+01    0.3784316    0.2168609  66.44  0.001252531    1.883    0.469
        20 -10.9763     72.3401    186.7055   1.1214270237e+02   2.6807382909e+01    0.2499567    0.1982431  87.95 0.0005179258    1.148    0.129
        21  -9.3191     97.4658    190.4899   1.0692499127e+02   2.2207377348e+01    0.1339671    0.1230722  68.26  0.000383452    1.068    0.063
        22  -9.4180     94.3091    186.9115   1.0714732208e+02   2.3491856577e+01    0.1852864    0.1615802 -84.19 0.0005046728    1.115    0.103
        23 -10.6961    146.3442    182.1984   9.4447802667e+01   1.5418587445e+01    0.3155702    0.2298304  38.22 0.0006729819    1.302    0.232
        24 -10.6176     99.0512    180.9453   1.0518226143e+02   2.4060796669e+01    0.3234654    0.2750865 -11.44  0.001764747    1.643    0.391
        25 -10.7855     42.0840    178.8945   1.1812958481e+02   3.2407615529e+01    0.2296613    0.1830552  80.63 0.0008472945    1.036    0.035
        26 -10.0082    204.2283    176.3609   8.0972298354e+01   5.4934333061e+00    0.3122903    0.1813317 -40.43  0.001351823    1.758    0.431
        27 -11.4961    141.1210    174.2202   9.4177619420e+01   1.8070336082e+01    0.5874252    0.4102324 -84.99  0.002462702    2.103    0.525
        28 -11.0140     47.8454    172.4956   1.1614004970e+02   3.3211751665e+01    0.4604995     0.208037 -48.56  0.002000652    2.835    0.647
        29 -11.1371     45.4679    168.2756   1.1623183552e+02   3.4468503572e+01    0.6918156    0.3061257 -44.83  0.002791237    3.429    0.708
        30 -13.8435     44.0097    111.0253   1.0843117220e+02   4.8434994436e+01     2.281758     1.335475  66.15   0.01049839    2.387    0.581
        31 -12.8275     55.5326    146.3443   1.1089903472e+02   3.8510600016e+01     1.899286    0.8576171 -44.58  0.007688264    2.807    0.644
        32 -13.1157     83.3608    161.7459   1.0604930615e+02   3.0969866944e+01     1.427711    0.5529028  56.89 0.0005358038    4.133    0.758
        33 -13.8378     71.8577    156.7529   1.0819854099e+02   3.3845267173e+01    0.5942252    0.5511259 -39.06  0.001515214    1.294    0.227
        34 -14.8203     68.5182    144.2206   1.0709812908e+02   3.7343048384e+01     5.485074      2.15699  58.43  0.003939564    4.894    0.796
        35  -9.4264     37.4671    162.0047   1.1745238836e+02   3.6818828816e+01    0.3308376    0.1948074   7.58  0.001543906    3.141    0.682
        36 -10.6934    159.3457    162.7065   8.7714824012e+01   1.6922842944e+01    0.3043641    0.2661418 -72.22 0.0008418714    1.307    0.235
        37 -12.2339     90.1424    154.7198   1.0316049161e+02   3.1586505300e+01    0.6212349    0.4485332 -26.77  0.001574287    1.996    0.499
        38 -11.3486    133.6753    144.7322   9.0025470448e+01   2.6034940299e+01     1.176524    0.3061266 -54.90  0.002808855    5.581    0.821
        39 -10.9409    174.2910    149.0699   8.1406172337e+01   1.6653492195e+01    0.3286436    0.2956054 -52.33 0.0008690186    1.171    0.146
        40  -8.8897    112.5281    150.5268   9.6605020156e+01   2.8749600422e+01    0.1484703     0.141324  84.74 0.0001738817    1.003    0.003
        41 -10.2348     41.3002    147.1053   1.1473723951e+02   3.9957069018e+01    0.3045971    0.1960439 -72.06  0.001017645    1.333    0.250
        42 -10.5432     44.9616    144.5142   1.1343750838e+02   4.0184814622e+01    0.3875278    0.2190439  56.18   0.00130889    1.917    0.478
        43 -10.4798    143.9707    146.1308   8.7791546550e+01   2.3628736541e+01    0.4139628    0.2564954 -85.46  0.001353157    3.600    0.722
        44 -10.3670     84.9827    144.3662   1.0268733439e+02   3.4894901720e+01    0.2684681    0.2131575  70.96 0.0008419789    1.322    0.244
        45 -10.9414    103.4642    139.9704   9.6862848671e+01   3.2879581312e+01    0.5152342    0.3507852 -26.41  0.002231217    2.107    0.525
        46 -12.2999     91.0121    139.8782   1.0021244015e+02   3.5020499481e+01    0.2949685    0.2640376 -56.47 0.0004104563    1.109    0.099
        47  -9.5473     79.8789    140.0907   1.0329411650e+02   3.6716678855e+01    0.2118309    0.1769435  82.73 0.0002753367    1.214    0.176
        48  -9.9766     44.4556    138.9725   1.1280503637e+02   4.1584403628e+01    0.2038838    0.1138525 -68.24 0.0004571188    1.543    0.352
        49 -10.8077    135.7498    133.9979   8.7081897937e+01   2.8049320496e+01     0.409716    0.2484839 -49.07  0.001731086    1.647    0.393
        50 -11.3726    136.0000    128.5139   8.5719505255e+01   2.9238623407e+01    0.5866669    0.2090014 -51.38  0.001673574    3.017    0.669
        51 -10.5700    106.0140    130.7608   9.4210263941e+01   3.4622433547e+01    0.3543365    0.3063166 -83.29  0.001249216    1.218    0.179
        52 -10.4484    112.4389    130.2375   9.2339498597e+01   3.3553820366e+01    0.3350558    0.2632252 -27.36 0.0009299701    1.518    0.341
        53  -9.3850     84.4777    174.0079   1.0762343748e+02   2.7929579652e+01    0.1943162    0.1288929 -67.04 0.0001732382    1.470    0.320
        54 -10.3883    229.9952    165.8202   7.3907984678e+01   2.5446600594e+00    0.1973531     0.149238 -51.00 0.0007660235    1.625    0.385
        55 -10.9883     32.3068    165.1233   1.1900413706e+02   3.6625306339e+01    0.2811765    0.1876434 -80.80 0.0008823611    1.261    0.207
        56 -10.1430    160.6999    127.8891   7.9518222069e+01   2.4024999243e+01    0.4109612     0.263721 -70.36  0.001549389    2.453    0.592
        57 -11.4036    119.2692    123.3679   8.8881917012e+01   3.3840782370e+01    0.7168317    0.4107791 -22.52  0.002319451    3.536    0.717
        58 -11.0334     99.5015    126.4776   9.5070220457e+01   3.6814109264e+01    0.2870974    0.2433735 -19.96 0.0009387517    1.411    0.292
        59 -10.0034    108.3527    119.1356   9.0875217315e+01   3.6944436090e+01    0.2245637    0.2048101  25.32 0.0003373064    1.187    0.157
        60  -9.9525    168.0303    112.9878   7.4051904925e+01   2.5482311745e+01     0.383217    0.2617697 -81.37  0.001408501    2.426    0.588
        61 -10.5369    134.7399    112.8351   8.2107104723e+01   3.3023203668e+01    0.3749803    0.1345386 -47.33  0.001186979    2.789    0.641
        62 -11.9156    117.8125    108.4876   8.5531154399e+01   3.7554668127e+01    0.7174585    0.5283453 -57.07   0.00334035    1.404    0.288
        63 -11.8181     33.3968    108.7521   1.1133182976e+02   5.0023267491e+01    0.4426611    0.2445579 -71.56  0.002227851    1.625    0.385
        64 -10.6870     19.0530    110.9946   1.1607599688e+02   5.0666851527e+01    0.1948029    0.1572251 -69.93 0.0005570686    1.008    0.008
        65 -10.0077    134.5249    105.0595   8.0084923643e+01   3.4777869875e+01    0.4348544    0.1535754 -44.33  0.001377499    2.791    0.642
        66 -10.0592    205.4711    110.1382   6.5646767361e+01   1.7419471199e+01     0.315606     0.216481  41.46 0.0009796491    1.572    0.364
        67 -11.1041     34.1697    100.6120   1.0963923933e+02   5.1899995151e+01    0.2567999    0.2281197  73.74 0.0007579043    1.255    0.203
        68 -11.7930     53.5945     93.4824   1.0168110759e+02   5.1553540876e+01    0.6085706    0.4137492 -82.04  0.003020396    1.855    0.461
        69  -9.0228    108.3999     93.2260   8.4039402681e+01   4.2853931279e+01    0.1999059    0.1425692 -56.06 0.0002907312    1.478    0.323
        70 -11.3537     41.7074     90.5959   1.0508280468e+02   5.3538768955e+01    0.4322745    0.2347168 -63.46  0.001332138    1.658    0.397
        71  -9.7412    157.6582     81.1185   6.7554831004e+01   3.4253278504e+01    0.2207836    0.2032912 -32.28 0.0007798341    1.098    0.089
        72 -11.1241     13.3709     59.7880   1.0861645295e+02   6.2748003412e+01    0.2483655    0.2002127 -67.56 0.0004285365    1.248    0.199
        73 -13.7728    187.4520     45.7266   5.1500819423e+01   3.2604887316e+01     1.192588    0.8396739  35.51  0.000929005    1.743    0.426
        74 -10.8407    124.5282    243.0553   1.0790515147e+02   7.7662250096e+00    0.2395081    0.1225624 -66.64  0.001205379    2.685    0.628
        75 -15.9179     52.0529    198.4260   1.1784201454e+02   2.6895006427e+01     3.198716     2.719659 -65.27    0.0179677    1.366    0.268
        76 -11.6895    147.8641     51.8221   6.0682208497e+01   4.1708182087e+01    0.5833575    0.3696204 -83.32  0.001585771    2.668    0.625
        77 -10.8809    149.5253     45.4366   5.8259525299e+01   4.2253523887e+01    0.2807398    0.2403903 -77.03   0.00147691    1.304    0.233
        78 -11.6763     10.9896     52.4885   1.0780456834e+02   6.4433037952e+01    0.2614093    0.1963878  17.98  0.001744795    1.595    0.373
        79 -10.2220     31.4872     36.4722   9.3597668348e+01   6.5983135627e+01    0.2234608    0.1152531  25.04  0.001048238    2.105    0.525
        80 -11.5578     24.6598     34.7011   9.6117276475e+01   6.6949532408e+01    0.3063008    0.1677433  32.49  0.001373856    2.165    0.538
        81  -9.8746    189.8160     15.0924   4.2637845067e+01   3.5842398135e+01    0.2110569    0.1678011 -68.79 0.0006382656    1.211    0.174
        82 -14.9452     47.4944    222.2303   1.2076681603e+02   2.2524798553e+01     1.640213    0.9234131  83.88  0.008894474    1.688    0.408
        83 -10.4508    113.5078    207.6160   1.0573090094e+02   1.6029004839e+01    0.2546308     0.200442  65.32 0.0006279605    1.219    0.180
        84 -12.8454    196.6455    198.2246   8.6709430741e+01   3.1411713052e+00     1.243108    0.9862429  77.89  0.006570932    2.060    0.515
        85 -11.3991    207.8701    195.9908   8.4091659445e+01   1.5370508132e+00    0.3167351    0.2283137 -38.47  0.001760922    1.485    0.327
        86 -10.5653    107.9153    203.3186   1.0635908076e+02   1.7811896716e+01    0.2253166    0.1441927  55.35  0.000742517    1.471    0.320
